SpectraSuite Data File
++++++++++++++++++++++++++++++++++++
Date: Fri Oct 18 13:54:45 GMT-05:00 2013
User: bianchi
Dark Spectrum Present: No
Reference Spectrum Present: No
Number of Sampled Component Spectra: 1
Spectrometers: USB2+H05261
Integration Time (usec): 100000 (USB2+H05261)
Spectra Averaged: 1 (USB2+H05261)
Boxcar Smoothing: 0 (USB2+H05261)
Correct for Electrical Dark: No (USB2+H05261)
Strobe/Lamp Enabled: No (USB2+H05261)
Correct for Detector Non-linearity: No (USB2+H05261)
Correct for Stray Light: No (USB2+H05261)
Number of Pixels in Processed Spectrum: 2048
>>>>>Begin Processed Spectral Data<<<<<
365.73	0.00
365.92	0.00
366.12	0.00
366.32	0.00
366.52	0.00
366.72	0.00
366.91	0.00
367.11	0.00
367.31	0.00
367.51	0.00
367.70	0.00
367.90	0.00
368.10	0.00
368.30	0.00
368.49	0.00
368.69	0.00
368.89	0.00
369.09	0.00
369.28	0.00
369.48	0.00
369.68	0.00
369.87	0.00
370.07	0.00
370.27	0.00
370.47	16.38
370.66	248.10
370.86	266.82
371.06	435.34
371.25	348.74
371.45	325.33
371.65	379.17
371.84	346.40
372.04	360.44
372.24	491.51
372.44	367.46
372.63	468.11
372.83	496.19
373.03	440.02
373.22	421.30
373.42	564.07
373.62	397.89
373.81	505.56
374.01	421.30
374.21	564.07
374.40	571.09
374.60	547.69
374.79	472.79
374.99	592.16
375.19	521.94
375.38	559.39
375.58	491.51
375.78	545.34
375.97	503.22
376.17	641.31
376.37	521.94
376.56	540.66
376.76	491.51
376.95	582.79
377.15	578.11
377.35	575.77
377.54	603.86
377.74	550.03
377.93	566.41
378.13	634.29
378.33	613.22
378.52	552.37
378.72	641.31
378.91	664.71
379.11	540.66
379.31	615.56
379.50	601.52
379.70	599.18
379.89	716.20
380.09	676.41
380.28	587.47
380.48	606.20
380.68	648.33
380.87	566.41
381.07	610.88
381.26	739.61
381.46	648.33
381.65	664.71
381.85	706.84
382.04	699.82
382.24	793.44
382.43	748.97
382.63	725.57
382.83	655.35
383.02	784.08
383.22	826.21
383.41	784.08
383.61	777.06
383.80	730.25
384.00	739.61
384.19	784.08
384.39	774.72
384.58	674.07
384.78	784.08
384.97	898.77
385.17	779.40
385.36	800.46
385.56	851.96
385.75	805.14
385.95	763.01
386.14	807.48
386.34	835.57
386.53	779.40
386.72	823.87
386.92	856.64
387.11	929.19
387.31	938.55
387.50	868.34
387.70	861.32
387.89	929.19
388.09	1011.11
388.28	968.98
388.48	952.60
388.67	924.51
388.86	947.92
389.06	1025.15
389.25	992.39
389.45	968.98
389.64	866.00
389.84	940.90
390.03	1025.15
390.22	1027.50
390.42	1067.28
390.61	1001.75
390.81	1116.44
391.00	985.37
391.19	1050.90
391.39	994.73
391.58	1114.10
391.78	1111.75
391.97	1146.86
392.16	1174.95
392.36	1118.78
392.55	1165.59
392.75	1137.50
392.94	1170.27
393.13	1261.55
393.33	1057.92
393.52	1259.21
393.71	1306.02
393.91	1163.25
394.10	1306.02
394.29	1160.91
394.49	1207.72
394.68	1291.98
394.88	1327.08
395.07	1313.04
395.26	1224.10
395.46	1301.34
395.65	1327.08
395.84	1418.36
396.04	1387.94
396.23	1352.83
396.42	1432.41
396.62	1387.94
396.81	1490.92
397.00	1394.96
397.19	1364.53
397.39	1460.49
397.58	1352.83
397.77	1439.43
397.97	1483.90
398.16	1416.02
398.35	1483.90
398.55	1392.62
398.74	1596.25
398.93	1582.20
399.12	1561.14
399.32	1455.81
399.51	1451.13
399.70	1570.50
399.90	1568.16
400.09	1591.56
400.28	1598.59
400.47	1668.80
400.67	1717.95
400.86	1706.25
401.05	1654.76
401.24	1769.44
401.44	1659.44
401.63	1790.51
401.82	1827.96
402.01	1710.93
402.21	1743.70
402.40	1792.85
402.59	1846.68
402.78	1832.64
402.97	1750.72
403.17	1963.71
403.36	1834.98
403.55	1907.54
403.74	1928.60
403.93	1921.58
404.13	2127.55
404.32	1813.92
404.51	1923.92
404.70	2150.95
404.89	2073.71
405.09	2134.57
405.28	2057.33
405.47	2108.82
405.66	2097.12
405.85	2157.97
406.05	2115.84
406.24	2057.33
406.43	2179.04
406.62	2237.55
406.81	2321.81
407.00	2148.61
407.20	2298.41
407.39	2176.70
407.58	2303.09
407.77	2291.38
407.96	2387.35
408.15	2293.72
408.34	2282.02
408.54	2497.35
408.73	2429.48
408.92	2490.33
409.11	2558.21
409.30	2401.39
409.49	2492.67
409.68	2541.82
409.87	2562.89
410.07	2509.05
410.26	2633.10
410.45	2670.55
410.64	2612.04
410.83	2661.19
411.02	2729.06
411.21	2813.32
411.40	2752.47
411.59	2726.72
411.78	2766.51
411.98	2731.41
412.17	2752.47
412.36	2906.95
412.55	3056.74
412.74	2916.31
412.93	3117.59
413.12	3049.72
413.31	3225.26
413.50	2925.67
413.69	3157.38
413.88	3382.07
414.07	3208.87
414.26	3323.56
414.45	3239.30
414.64	3349.31
414.83	3325.90
415.02	3438.25
415.22	3382.07
415.41	3485.06
415.60	3517.83
415.79	3555.27
415.98	3660.60
416.17	3503.78
416.36	3571.66
416.55	3765.92
416.74	3744.86
416.93	3768.26
417.12	3627.83
417.31	3859.54
417.50	3829.12
417.69	3964.87
417.88	3861.88
418.07	3836.14
418.26	3922.74
418.45	4088.92
418.64	4018.70
418.83	4063.17
419.02	4039.76
419.21	4166.15
419.39	4121.68
419.58	4070.19
419.77	4133.39
419.96	4145.09
420.15	4234.03
420.34	4212.96
420.53	4236.37
420.72	4325.31
420.91	4379.14
421.10	4393.19
421.29	4582.77
421.48	4308.93
421.67	4369.78
421.86	4400.21
422.05	4339.35
422.24	4297.22
422.43	4496.17
422.61	4505.53
422.80	4568.73
422.99	4594.47
423.18	4498.51
423.37	4720.86
423.56	4601.49
423.75	4571.07
423.94	4528.94
424.13	4227.01
424.32	4411.91
424.50	4631.92
424.69	4748.95
424.88	4894.06
425.07	4613.20
425.26	4514.89
425.45	4575.75
425.64	4550.00
425.83	4596.81
426.01	4582.77
426.20	4709.16
426.39	4774.69
426.58	4692.77
426.77	4725.54
426.96	4870.65
427.15	4732.56
427.33	4786.40
427.52	4767.67
427.71	4849.59
427.90	4910.44
428.09	4882.36
428.28	5046.20
428.46	5093.01
428.65	4954.91
428.84	5139.82
429.03	5313.02
429.22	4990.02
429.40	5121.09
429.59	5284.93
429.78	4999.38
429.97	4891.72
430.16	5048.54
430.34	5205.35
430.53	5256.84
430.72	5263.86
430.91	5165.56
431.10	5195.99
431.28	5270.89
431.47	5425.36
431.66	5462.81
431.85	5315.36
432.03	5551.75
432.22	5671.12
432.41	5551.75
432.60	5729.63
432.79	5432.38
432.97	5535.37
433.16	5614.95
433.35	5434.72
433.54	5671.12
433.72	5809.21
433.91	5713.25
434.10	5746.02
434.28	5734.31
434.47	5738.99
434.66	5687.50
434.85	5755.38
435.03	5900.49
435.22	6012.84
435.41	6101.78
435.59	5977.73
435.78	6031.56
435.97	6054.97
436.16	6162.63
436.34	6153.27
436.53	6038.58
436.72	6246.89
436.90	6251.57
437.09	6310.08
437.28	6069.01
437.46	6366.26
437.65	6244.55
437.84	6291.36
438.02	6431.79
438.21	6272.64
438.40	6303.06
438.58	6485.62
438.77	6612.01
438.96	6576.91
439.14	6583.93
439.33	6600.31
439.52	6846.07
439.70	6562.86
439.89	6757.13
440.08	6846.07
440.26	6839.05
440.45	7073.10
440.63	7021.61
440.82	6927.99
441.01	6967.77
441.19	7162.04
441.38	7222.89
441.57	7274.38
441.75	7279.07
441.94	7398.43
442.12	7613.76
442.31	7641.85
442.50	7573.97
442.68	7466.31
442.87	7632.49
443.05	7634.83
443.24	7796.32
443.43	7756.54
443.61	7894.63
443.80	7950.80
443.98	7653.55
444.17	7627.81
444.35	7817.39
444.54	7892.29
444.73	7934.42
444.91	7775.26
445.10	7962.50
445.28	7824.41
445.47	7691.00
445.65	7852.50
445.84	7997.61
446.02	8131.02
446.21	7864.20
446.39	7833.77
446.58	7962.50
446.77	7967.18
446.95	7733.13
447.14	8077.19
447.32	7992.93
447.51	8021.02
447.69	8044.42
447.88	7969.52
448.06	7971.86
448.25	8102.93
448.43	8170.81
448.62	7871.22
448.80	8191.88
448.99	8201.24
449.17	8259.75
449.36	8369.76
449.54	8301.88
449.73	8367.42
449.91	8549.98
450.10	8552.32
450.28	8512.53
450.46	8641.26
450.65	8435.29
450.83	8652.96
451.02	8538.27
451.20	8535.93
451.39	8863.61
451.57	8524.23
451.76	8514.87
451.94	8704.45
452.13	8915.10
452.31	8877.65
452.49	8655.30
452.68	8821.48
452.86	8800.41
453.05	8800.41
453.23	8973.61
453.42	8821.48
453.60	8856.59
453.78	8959.57
453.97	8882.33
454.15	8959.57
454.34	9015.74
454.52	9156.18
454.70	9121.07
454.89	9125.75
455.07	9097.66
455.26	9345.76
455.44	9291.93
455.62	9336.40
455.81	9329.38
455.99	9376.19
456.17	9607.90
456.36	9460.45
456.54	9561.09
456.73	9502.58
456.91	9762.37
457.09	9820.89
457.28	9902.81
457.46	9717.90
457.64	9792.80
457.83	9865.36
458.01	9863.02
458.19	9989.41
458.38	9966.00
458.56	9977.70
458.74	10260.91
458.93	9991.75
459.11	10090.05
459.29	10078.35
459.48	10195.37
459.66	10253.89
459.84	10380.28
460.03	10420.06
460.21	10167.29
460.39	10267.93
460.57	10417.72
460.76	10314.74
460.94	10609.65
461.12	10450.49
461.31	10429.43
461.49	10736.04
461.67	10654.12
461.85	10733.70
462.04	10841.36
462.22	11459.26
462.40	10899.87
462.59	10609.65
462.77	10775.83
462.95	10820.30
463.13	10773.49
463.32	10806.25
463.50	10857.75
463.68	10918.60
463.86	11002.86
464.05	10817.96
464.23	11208.83
464.41	11180.74
464.59	11077.76
464.78	11173.72
464.96	11197.12
465.14	11075.42
465.32	11323.51
465.50	11227.55
465.69	11384.37
465.87	10972.43
466.05	11122.23
466.23	11405.43
466.41	11573.95
466.60	11653.53
466.78	11344.58
466.96	11365.64
467.14	11367.98
467.32	11414.79
467.51	11625.44
467.69	11417.13
467.87	11815.02
468.05	11775.24
468.23	11723.74
468.41	11871.20
468.60	11910.99
468.78	11882.90
468.96	11709.70
469.14	11878.22
469.32	11805.66
469.50	12086.53
469.69	12156.74
469.87	12336.96
470.05	12182.49
470.23	12194.19
470.41	12355.69
470.59	12613.15
470.77	12217.60
470.95	12306.54
471.14	12535.91
471.32	12479.74
471.50	12805.07
471.68	12730.17
471.86	13046.15
472.04	12802.73
472.22	13179.56
472.40	12613.15
472.58	13172.54
472.77	12971.25
472.95	13275.52
473.13	13551.70
473.31	13378.50
473.49	13298.92
473.67	13273.18
473.85	13406.59
474.03	13640.64
474.21	13755.33
474.39	13668.73
474.57	13713.20
474.75	13888.74
474.93	14207.05
475.12	14015.13
475.30	14244.50
475.48	13965.98
475.66	14518.34
475.84	14251.52
476.02	14258.54
476.20	14469.19
476.38	14834.32
476.56	14831.97
476.74	14855.38
476.92	14909.21
477.10	14956.02
477.28	15407.75
477.46	15042.62
477.64	15337.53
477.82	15342.21
478.00	15822.02
478.18	15817.34
478.36	16060.76
478.54	16147.36
478.72	16140.33
478.90	16348.64
479.08	16315.87
479.26	16662.27
479.44	16601.42
479.62	16781.64
479.80	16947.82
479.98	17137.40
480.16	17324.65
480.34	17043.78
480.52	17481.46
480.70	17446.35
480.88	17219.32
481.06	17525.93
481.24	17439.33
481.41	17886.37
481.59	18036.17
481.77	18125.11
481.95	18480.87
482.13	18604.92
482.31	18230.43
482.49	18892.80
482.67	18845.99
482.85	19360.91
483.03	19171.33
483.21	19569.22
483.39	19384.32
483.57	19297.72
483.74	19838.38
483.92	19789.23
484.10	19859.45
484.28	20402.45
484.46	20657.57
484.64	20968.86
484.82	20802.68
485.00	20723.10
485.18	21214.62
485.35	21813.79
485.53	21296.53
485.71	21451.01
485.89	22136.79
486.07	21656.98
486.25	21930.82
486.43	21954.22
486.61	22235.09
486.78	22602.55
486.96	22621.28
487.14	23000.44
487.32	22951.29
487.50	23014.49
487.68	23201.73
487.85	23644.09
488.03	24168.37
488.21	24287.74
488.39	23976.45
488.57	24521.79
488.75	24592.01
488.92	25240.34
489.10	25135.01
489.28	25053.09
489.46	25113.95
489.64	25214.59
489.81	25738.87
489.99	25642.91
490.17	25949.52
490.35	26288.90
490.53	26326.35
490.70	26471.46
490.88	26639.98
491.06	27082.34
491.24	26958.29
491.41	27009.78
491.59	27435.76
491.77	27246.18
491.95	27494.27
492.13	27763.43
492.30	28315.80
492.48	28070.04
492.66	28390.70
492.84	28023.23
493.01	28680.92
493.19	28690.29
493.37	29317.55
493.54	29317.55
493.72	29347.98
493.90	29336.27
494.08	29560.97
494.25	30164.82
494.43	30022.05
494.61	30731.23
494.79	30604.84
494.96	30272.49
495.14	30691.44
495.32	31005.08
495.49	30642.29
495.67	31138.49
495.85	31372.54
496.02	31512.97
496.20	31550.42
496.38	31590.21
496.55	31447.44
496.73	32629.41
496.91	32107.47
497.09	32238.54
497.26	32491.32
497.44	32533.45
497.62	32804.95
497.79	33134.96
497.97	32877.51
498.14	33600.73
498.32	33443.91
498.50	33715.42
498.67	34312.25
498.85	33776.27
499.03	33977.56
499.20	34857.60
499.38	34265.44
499.56	34632.91
499.73	35112.72
499.91	35274.21
500.08	35365.49
500.26	34782.70
500.44	35232.08
500.61	35040.16
500.79	35531.67
500.97	35651.04
501.14	35814.88
501.32	35803.17
501.49	35775.09
501.67	35903.82
501.84	36423.42
502.02	36311.07
502.20	36634.06
502.37	36914.93
502.55	36648.11
502.72	36809.61
502.90	36587.25
503.07	36376.61
503.25	37275.37
503.43	36989.83
503.60	37090.47
503.78	37785.61
503.95	37331.54
504.13	37846.46
504.30	37769.22
504.48	37427.51
504.65	38197.54
504.83	38110.94
505.01	38501.81
505.18	38337.98
505.36	38756.93
505.53	38829.49
505.71	38066.47
505.88	38888.00
506.06	38520.54
506.23	39007.37
506.41	39189.93
506.58	39503.56
506.76	39594.84
506.93	39208.65
507.11	39255.46
507.28	39599.52
507.46	39854.64
507.63	39714.21
507.81	40133.17
507.98	40112.10
508.16	40032.52
508.33	40531.06
508.50	40467.86
508.68	40531.06
508.85	41041.29
509.03	40774.47
509.20	41144.28
509.38	41193.43
509.55	41652.17
509.73	41179.39
509.90	41572.60
510.08	41228.54
510.25	41818.35
510.42	41724.73
510.60	41928.36
510.77	41794.95
510.95	42134.32
511.12	42513.49
511.30	42064.11
511.47	42557.96
511.64	42546.26
511.82	42742.86
511.99	42937.13
512.17	42955.85
512.34	42480.72
512.51	42733.50
512.69	42897.34
512.86	43138.41
513.04	43838.23
513.21	43618.22
513.38	43409.92
513.56	43562.05
513.73	43510.56
513.90	43725.89
514.08	43388.85
514.25	43915.47
514.43	43845.26
514.60	44186.97
514.77	44296.98
514.95	44526.35
515.12	44364.85
515.29	44608.27
515.47	44601.25
515.64	45209.79
515.81	44643.38
515.99	45095.10
516.16	45422.78
516.33	45413.41
516.51	45350.22
516.68	45710.66
516.85	45415.76
517.03	45518.74
517.20	45457.88
517.37	45923.65
517.54	45645.13
517.72	45925.99
517.89	45731.73
518.06	46005.57
518.24	46066.42
518.41	46419.84
518.58	46286.43
518.75	46321.54
518.93	46150.68
519.10	46328.56
519.27	46450.27
519.45	46511.13
519.62	46333.24
519.79	46162.39
519.96	46560.28
520.14	46990.94
520.31	46679.64
520.48	47363.08
520.65	47035.41
520.83	47302.23
521.00	47330.31
521.17	47070.51
521.34	47391.17
521.52	47206.26
521.69	47718.84
521.86	48067.58
522.03	47959.92
522.20	47985.66
522.38	47992.68
522.55	47999.71
522.72	47901.40
522.89	48318.02
523.07	48741.66
523.24	48189.29
523.41	48491.22
523.58	48451.43
523.75	48907.83
523.92	48584.84
524.10	48495.90
524.27	48727.61
524.44	48942.94
524.61	49387.64
524.78	48842.30
524.96	49193.38
525.13	48994.43
525.30	49408.71
525.47	49439.14
525.64	48893.79
525.81	49418.07
525.98	49478.92
526.16	49593.61
526.33	49647.44
526.50	49801.92
526.67	49621.70
526.84	49530.42
527.01	49567.87
527.18	50153.00
527.36	49956.39
527.53	50115.55
527.70	50370.67
527.87	50241.94
528.04	50260.66
528.21	50347.26
528.38	49979.80
528.55	49930.65
528.72	50564.93
528.89	50688.98
529.07	50763.88
529.24	50424.50
529.41	50590.68
529.58	50595.36
529.75	50555.57
529.92	50700.68
530.09	50635.15
530.26	50759.20
530.43	50761.54
530.60	50974.53
530.77	51119.64
530.94	51239.01
531.11	50890.27
531.28	51044.74
531.46	51285.82
531.63	51437.95
531.80	51253.05
531.97	51585.41
532.14	51491.79
532.31	51292.84
532.48	51695.41
532.65	51934.15
532.82	51220.28
532.99	51463.70
533.16	51585.41
533.33	51955.21
533.50	52053.51
533.67	51777.33
533.84	51620.52
534.01	51915.42
534.18	51643.92
534.35	52065.22
534.52	51987.98
534.69	52428.00
534.86	52271.18
535.03	52285.23
535.20	52430.34
535.37	52336.72
535.54	52257.14
535.71	52364.81
535.88	52327.36
536.05	52643.33
536.22	52652.69
536.38	52788.44
536.55	52816.53
536.72	52781.42
536.89	52406.94
537.06	52353.10
537.23	52444.38
537.40	52861.00
537.57	53057.60
537.74	52835.25
537.91	53275.27
538.08	52935.90
538.25	53055.26
538.42	52935.90
538.59	53158.25
538.75	52851.64
538.92	53113.78
539.09	53165.27
539.26	53097.39
539.43	53558.48
539.60	53286.98
539.77	53261.23
539.94	53408.68
540.11	53453.15
540.28	53495.28
540.44	53242.51
540.61	53308.04
540.78	53298.68
540.95	53301.02
541.12	53591.25
541.29	53521.03
541.46	53712.95
541.62	53600.61
541.79	53675.51
541.96	53235.48
542.13	53535.07
542.30	53888.49
542.47	54239.57
542.63	53837.00
542.80	54110.85
542.97	54227.87
543.14	54314.47
543.31	54019.56
543.48	54064.03
543.64	54293.41
543.81	54515.76
543.98	54630.44
544.15	54401.07
544.32	54384.69
544.48	54593.00
544.65	54471.29
544.82	54408.09
544.99	54169.36
545.16	54461.93
545.32	54258.30
545.49	54728.75
545.66	54885.56
545.83	54822.37
546.00	54871.52
546.16	54639.81
546.33	54557.89
546.50	54419.80
546.67	54864.50
546.83	54550.87
547.00	54953.44
547.17	54871.52
547.34	54906.63
547.50	55011.95
547.67	54953.44
547.84	55065.78
548.00	54948.76
548.17	55143.02
548.34	55004.93
548.51	55033.02
548.67	55262.39
548.84	55210.90
549.01	54974.50
549.18	55304.52
549.34	55107.91
549.51	55042.38
549.68	55271.75
549.84	55154.72
550.01	55334.95
550.18	55136.00
550.34	55517.51
550.51	55419.20
550.68	55416.86
550.84	55323.24
551.01	55374.73
551.18	55203.88
551.34	55173.45
551.51	55337.29
551.68	55735.18
551.84	55636.87
552.01	55641.56
552.18	55917.74
552.34	55721.13
552.51	55620.49
552.68	55395.80
552.84	55524.53
553.01	55913.06
553.18	55810.07
553.34	56002.00
553.51	55753.90
553.67	55763.26
553.84	55913.06
554.01	56030.08
554.17	55789.01
554.34	55943.48
554.51	55674.32
554.67	56011.36
554.84	56219.67
555.00	56247.75
555.17	55948.17
555.33	55753.90
555.50	55777.31
555.67	56046.47
555.83	56147.11
556.00	56205.62
556.16	56200.94
556.33	55980.93
556.50	55969.23
556.66	56100.30
556.83	55812.41
556.99	56369.46
557.16	56624.58
557.32	56549.68
557.49	56112.00
557.65	56198.60
557.82	56207.97
557.98	56360.10
558.15	56114.34
558.32	56512.23
558.48	56413.93
558.65	56622.24
558.81	56456.06
558.98	56329.67
559.14	56355.42
559.31	56109.66
559.47	56404.57
559.64	56584.79
559.80	56643.30
559.97	56743.95
560.13	56378.82
560.30	56383.51
560.46	56530.96
560.63	56568.41
560.79	56406.91
560.96	56757.99
561.12	56404.57
561.29	56420.95
561.45	56839.91
561.61	56603.52
561.78	56903.10
561.94	56568.41
562.11	56516.92
562.27	56868.00
562.44	56793.10
562.60	56584.79
562.77	56631.60
562.93	56278.18
563.10	56999.07
563.26	56779.06
563.42	56893.74
563.59	56736.93
563.75	56839.91
563.92	56875.02
564.08	56772.03
564.24	56839.91
564.41	56774.37
564.57	56839.91
564.74	56753.31
564.90	56786.08
565.07	56966.30
565.23	57078.64
565.39	56952.26
565.56	57024.81
565.72	56809.48
565.88	56889.06
566.05	56889.06
566.21	56615.22
566.38	56697.14
566.54	56830.55
566.70	56945.23
566.87	57198.01
567.03	56910.13
567.19	57088.01
567.36	57083.33
567.52	56933.53
567.68	57190.99
567.85	57006.09
568.01	57095.03
568.17	56926.51
568.34	57034.17
568.50	57031.83
568.66	57202.69
568.83	57263.55
568.99	56891.40
569.15	56921.83
569.32	57195.67
569.48	56924.17
569.64	57162.90
569.81	56882.04
569.97	57097.37
570.13	56849.27
570.30	57144.18
570.46	57176.95
570.62	57048.22
570.78	57057.58
570.95	56835.23
571.11	57069.28
571.27	56832.89
571.43	57230.78
571.60	57202.69
571.76	57244.82
571.92	57230.78
572.09	57401.64
572.25	57289.29
572.41	57425.04
572.57	57305.68
572.74	57186.31
572.90	57209.71
573.06	56947.57
573.22	57270.57
573.38	57240.14
573.55	57193.33
573.71	57474.20
573.87	57301.00
574.03	57069.28
574.20	57485.90
574.36	56968.64
574.52	57322.06
574.68	57113.75
574.84	57041.20
575.01	57167.58
575.17	57179.29
575.33	57242.48
575.49	57483.56
575.65	57429.72
575.82	57270.57
575.98	57116.09
576.14	57357.17
576.30	57198.01
576.46	56891.40
576.62	57209.71
576.79	57146.52
576.95	57205.03
577.11	57263.55
577.27	57233.12
577.43	57076.30
577.59	57256.53
577.75	57198.01
577.92	57216.74
578.08	57282.27
578.24	57123.11
578.40	57172.27
578.56	57354.83
578.72	57485.90
578.88	57432.07
579.04	57380.57
579.21	57523.35
579.37	57532.71
579.53	57221.42
579.69	57181.63
579.85	57343.12
580.01	57205.03
580.17	57308.02
580.33	57237.80
580.49	57403.98
580.65	57542.07
580.82	57471.85
580.98	57289.29
581.14	57247.16
581.30	57401.64
581.46	57062.26
581.62	57340.78
581.78	57214.40
581.94	57301.00
582.10	57268.23
582.26	57317.38
582.42	57511.64
582.58	57521.01
582.74	57282.27
582.90	57638.03
583.06	57471.85
583.22	57371.21
583.38	57467.17
583.54	57240.14
583.70	57176.95
583.86	57441.43
584.02	57291.63
584.18	57399.30
584.34	57600.58
584.50	57595.90
584.66	57530.37
584.82	57364.19
584.98	57319.72
585.14	57254.18
585.30	57270.57
585.46	57354.83
585.62	57265.89
585.78	57570.16
585.94	57513.98
586.10	57516.32
586.26	57364.19
586.42	57457.81
586.58	57696.55
586.74	57261.21
586.90	57186.31
587.06	57336.10
587.22	57277.59
587.38	57244.82
587.54	57586.54
587.70	57558.45
587.86	57492.92
588.02	57460.15
588.18	57504.62
588.34	57717.61
588.49	57436.75
588.65	57293.97
588.81	57609.95
588.97	57198.01
589.13	57659.10
589.29	57361.85
589.45	57565.48
589.61	57425.04
589.77	57537.39
589.93	57654.42
590.08	57771.44
590.24	57680.16
590.40	57698.89
590.56	57715.27
590.72	57483.56
590.88	57415.68
591.04	57305.68
591.20	57820.59
591.35	57607.61
591.51	58017.20
591.67	57733.99
591.83	57815.91
591.99	57937.62
592.15	57647.39
592.31	57738.68
592.46	57724.63
592.62	57801.87
592.78	57558.45
592.94	57663.78
593.10	57521.01
593.26	57769.10
593.41	57701.23
593.57	57691.86
593.73	57851.02
593.89	58012.52
594.05	57556.11
594.20	57476.54
594.36	57705.91
594.52	57638.03
594.68	57565.48
594.84	57612.29
594.99	57895.49
595.15	57663.78
595.31	58038.26
595.47	57776.12
595.62	57785.49
595.78	57808.89
595.94	57820.59
596.10	57602.92
596.25	57717.61
596.41	57705.91
596.57	57577.18
596.73	57722.29
596.88	57757.40
597.04	57635.69
597.20	57851.02
597.36	57766.76
597.51	58028.90
597.67	57724.63
597.83	57855.70
597.99	57621.65
598.14	57801.87
598.30	57717.61
598.46	57457.81
598.61	57595.90
598.77	57586.54
598.93	57839.32
599.09	57825.28
599.24	58138.91
599.40	57715.27
599.56	57565.48
599.71	57853.36
599.87	57904.85
600.03	57832.30
600.18	57656.76
600.34	57659.10
600.50	57647.39
600.65	57804.21
600.81	57766.76
600.97	57937.62
601.12	57968.05
601.28	57939.96
601.44	57790.17
601.59	57897.83
601.75	57773.78
601.91	57872.09
602.06	57691.86
602.22	57628.67
602.37	57567.82
602.53	57553.77
602.69	57776.12
602.84	57902.51
603.00	58017.20
603.16	57841.66
603.31	57738.68
603.47	57696.55
603.62	57446.11
603.78	57865.06
603.94	57659.10
604.09	57584.20
604.25	57598.24
604.40	57616.97
604.56	57808.89
604.71	57949.32
604.87	57722.29
605.03	57675.48
605.18	57780.81
605.34	57792.51
605.49	57422.70
605.65	57609.95
605.80	57415.68
605.96	57806.55
606.12	57549.09
606.27	57785.49
606.43	57759.74
606.58	57787.83
606.74	57542.07
606.89	57570.16
607.05	57645.05
607.20	57574.84
607.36	57605.26
607.51	57551.43
607.67	57535.05
607.82	57638.03
607.98	57513.98
608.13	57532.71
608.29	57525.69
608.44	57457.81
608.60	57453.13
608.75	57708.25
608.91	57439.09
609.06	57165.24
609.22	57364.19
609.37	57261.21
609.53	57476.54
609.68	57450.79
609.84	57263.55
609.99	57247.16
610.15	57350.15
610.30	57506.96
610.46	57403.98
610.61	57563.14
610.76	57441.43
610.92	57207.37
611.07	57319.72
611.23	57396.96
611.38	57509.30
611.54	57310.36
611.69	57272.91
611.84	57059.92
612.00	56945.23
612.15	57310.36
612.31	57195.67
612.46	57291.63
612.62	57268.23
612.77	57237.80
612.92	57638.03
613.08	57340.78
613.23	57406.32
613.39	57396.96
613.54	57127.80
613.69	57403.98
613.85	57190.99
614.00	57027.15
614.15	57174.61
614.31	57205.03
614.46	57006.09
614.62	57174.61
614.77	57256.53
614.92	57160.56
615.08	57272.91
615.23	57041.20
615.38	57305.68
615.54	56898.42
615.69	56868.00
615.84	56961.62
616.00	57022.47
616.15	56816.50
616.30	57169.93
616.46	56968.64
616.61	56973.32
616.76	57069.28
616.92	56839.91
617.07	56973.32
617.22	56692.46
617.37	56552.02
617.53	56816.50
617.68	56863.32
617.83	56741.61
617.99	56804.80
618.14	56968.64
618.29	56956.94
618.45	56828.21
618.60	56722.88
618.75	56619.90
618.90	56732.25
619.06	56872.68
619.21	56530.96
619.36	56652.67
619.51	56334.35
619.67	56671.39
619.82	56376.48
619.97	56568.41
620.12	56451.38
620.28	56133.07
620.43	56566.07
620.58	56523.94
620.73	56261.80
620.89	56397.55
621.04	56647.99
621.19	56467.76
621.34	56388.19
621.49	56329.67
621.65	56390.53
621.80	56467.76
621.95	56207.97
622.10	56364.78
622.25	56114.34
622.41	56224.35
622.56	56247.75
622.71	56378.82
622.86	56303.93
623.01	56357.76
623.16	56313.29
623.32	56062.85
623.47	56226.69
623.62	56278.18
623.77	55985.61
623.92	55966.89
624.07	55950.51
624.23	56072.21
624.38	56266.48
624.53	55983.27
624.68	56238.39
624.83	56175.20
624.98	55945.83
625.13	56048.81
625.29	56264.14
625.44	56067.53
625.59	55828.80
625.74	55718.79
625.89	55770.28
626.04	55730.50
626.19	55693.05
626.34	55674.32
626.49	55728.16
626.65	55934.12
626.80	55730.50
626.95	55840.50
627.10	55796.03
627.25	55564.32
627.40	55671.98
627.55	55742.20
627.70	55718.79
627.85	55566.66
628.00	55473.04
628.15	55269.41
628.30	55253.03
628.45	55643.90
628.60	55234.30
628.76	55620.49
628.91	55870.93
629.06	55356.01
629.21	55475.38
629.36	55578.36
629.51	55276.43
629.66	55538.57
629.81	55248.35
629.96	55093.87
630.11	55016.63
630.26	55248.35
630.41	55185.15
630.56	55086.85
630.71	55290.48
630.86	55072.81
631.01	55110.25
631.16	55150.04
631.31	55334.95
631.46	55311.54
631.61	55395.80
631.76	55100.89
631.91	54953.44
632.06	54997.91
632.21	54941.74
632.36	55009.61
632.51	54784.92
632.66	55089.19
632.81	54789.60
632.96	55018.97
633.10	55267.07
633.25	55079.83
633.40	55025.99
633.55	55063.44
633.70	54824.71
633.85	54703.00
634.00	54649.17
634.15	54686.62
634.30	54667.89
634.45	54873.86
634.60	54719.38
634.75	54710.02
634.90	54766.20
635.05	54773.22
635.19	54698.32
635.34	54574.27
635.49	54981.52
635.64	54628.10
635.79	54522.78
635.94	54859.82
636.09	54511.08
636.24	54672.57
636.39	54307.45
636.53	54585.97
636.68	54705.34
636.83	54494.69
636.98	54803.64
637.13	54377.67
637.28	54504.06
637.43	54600.02
637.57	54571.93
637.72	54412.77
637.87	54241.92
638.02	54384.69
638.17	54270.00
638.32	54518.10
638.46	54047.65
638.61	53984.46
638.76	53925.94
638.91	53961.05
639.06	54054.67
639.20	54206.81
639.35	54143.61
639.50	54066.38
639.65	54113.19
639.80	53937.65
639.94	53972.75
640.09	54115.53
640.24	54010.20
640.39	54031.27
640.54	53670.82
640.68	53778.49
640.83	53516.35
640.98	53420.39
641.13	53598.27
641.27	53829.98
641.42	53701.25
641.57	53631.04
641.72	54096.80
641.86	53815.94
642.01	53673.16
642.16	53731.68
642.31	53925.94
642.45	53708.27
642.60	53460.18
642.75	53469.54
642.90	53591.25
643.04	53464.86
643.19	53432.09
643.34	53485.92
643.48	53518.69
643.63	53399.32
643.78	53783.17
643.93	53593.59
644.07	53455.50
644.22	53467.20
644.37	53411.02
644.51	53375.92
644.66	53614.65
644.81	53228.46
644.95	53382.94
645.10	53104.41
645.25	53247.19
645.39	53350.17
645.54	53336.13
645.69	53359.53
645.83	53195.70
645.98	53153.57
646.13	53183.99
646.27	53324.43
646.42	53123.14
646.57	52914.83
646.71	53191.01
646.86	53205.06
647.00	52889.09
647.15	52917.17
647.30	52687.80
647.44	52891.43
647.59	52942.92
647.74	52872.70
647.88	52666.73
648.03	52910.15
648.17	53160.59
648.32	53017.82
648.47	53066.97
648.61	52619.92
648.76	52755.68
648.90	52673.76
649.05	52729.93
649.20	53029.52
649.34	52470.13
649.49	52549.71
649.63	52486.51
649.78	52692.48
649.92	52500.56
650.07	52982.71
650.21	52334.38
650.36	52561.41
650.51	52500.56
650.65	52671.42
650.80	52837.59
650.94	52542.69
651.09	52729.93
651.23	52566.09
651.38	52556.73
651.52	52369.49
651.67	52243.10
651.81	52442.04
651.96	52306.29
652.10	52385.87
652.25	52224.37
652.39	52474.81
652.54	52413.96
652.68	52669.08
652.83	52200.97
652.97	52615.24
653.12	52413.96
653.26	52191.61
653.41	52135.43
653.55	51903.72
653.70	52100.32
653.84	52044.15
653.99	52067.56
654.13	52254.80
654.27	51849.89
654.42	52062.88
654.56	51924.78
654.71	52044.15
654.85	51941.17
655.00	52037.13
655.14	51688.39
655.29	51796.06
655.43	51934.15
655.57	51672.01
655.72	51388.80
655.86	51597.11
656.01	51564.34
656.15	51414.55
656.30	51428.59
656.44	51578.39
656.58	51501.15
656.73	51522.21
656.87	51774.99
657.01	51285.82
657.16	51697.75
657.30	51599.45
657.45	51604.13
657.59	51545.62
657.73	51484.76
657.88	50899.63
658.02	51079.85
658.16	51356.03
658.31	50696.00
658.45	51283.48
658.60	50770.90
658.74	50829.41
658.88	51126.66
659.03	50892.61
659.17	50986.23
659.31	50972.19
659.46	50944.10
659.60	51051.76
659.74	50955.80
659.89	51051.76
660.03	50918.35
660.17	51217.94
660.32	50564.93
660.46	50731.11
660.60	50684.30
660.74	50450.25
660.89	50614.08
661.03	50394.07
661.17	50398.76
661.32	50094.49
661.46	50265.34
661.60	49996.18
661.74	50211.51
661.89	50026.61
662.03	50302.79
662.17	49729.36
662.31	49911.92
662.46	49961.08
662.60	50122.57
662.74	49979.80
662.88	49827.66
663.03	49687.23
663.17	49490.63
663.31	49263.60
663.45	49144.23
663.60	49401.69
663.74	49177.00
663.88	49462.54
664.02	49647.44
664.17	49815.96
664.31	49748.09
664.45	49418.07
664.59	49294.02
664.73	49268.28
664.88	49169.97
665.02	48617.61
665.16	48533.35
665.30	48521.65
665.44	48729.95
665.59	48105.03
665.73	48608.25
665.87	48638.67
666.01	48437.39
666.15	48416.32
666.29	48617.61
666.44	48360.15
666.58	48636.33
666.72	48217.38
666.86	48348.45
667.00	48624.63
667.14	48165.88
667.28	48423.34
667.43	48638.67
667.57	48573.14
667.71	47721.18
667.85	48065.24
667.99	47819.49
668.13	47777.36
668.27	47494.15
668.41	47910.77
668.56	47281.16
668.70	47838.21
668.84	47976.30
668.98	47440.32
669.12	47391.17
669.26	47395.85
669.40	47203.92
669.54	46864.55
669.68	47309.25
669.82	47107.96
669.96	46955.83
670.10	46719.43
670.25	46791.99
670.39	46604.75
670.53	46689.01
670.67	46459.63
670.81	46677.30
670.95	46941.78
671.09	46827.10
671.23	46302.82
671.37	46937.10
671.51	46464.32
671.65	46567.30
671.79	46473.68
671.93	46134.30
672.07	46197.49
672.21	46220.90
672.35	45937.69
672.49	45958.76
672.63	46003.23
672.77	45464.91
672.91	45343.20
673.05	45076.38
673.19	45151.27
673.33	45581.93
673.47	45408.73
673.61	45394.69
673.75	45621.72
673.89	45607.68
674.03	44884.45
674.17	44912.54
674.31	45294.05
674.45	44472.52
674.59	44818.92
674.73	44793.17
674.87	44406.98
675.01	44151.87
675.15	43995.05
675.29	44121.44
675.43	43997.39
675.56	44116.76
675.70	44217.40
675.84	44044.20
675.98	42904.36
676.12	44327.41
676.26	43906.11
676.40	43583.12
676.54	43859.30
676.68	43782.06
676.82	42724.14
676.96	43185.22
677.10	42621.16
677.23	42777.97
677.37	42721.80
677.51	42960.53
677.65	42099.22
677.79	41436.84
677.93	41926.02
678.07	41942.40
678.21	41720.05
678.34	41890.91
678.48	41787.92
678.62	41844.10
678.76	41670.90
678.90	41446.21
679.04	41469.61
679.18	41390.03
679.31	40921.93
679.45	40596.59
679.59	40575.53
679.73	40708.94
679.87	40713.62
680.00	40123.80
680.14	40428.07
680.28	40360.20
680.42	40044.23
680.56	40074.65
680.70	39978.69
680.83	39957.63
680.97	39957.63
681.11	39756.34
681.25	39784.43
681.39	39672.08
681.52	39929.54
681.66	39313.98
681.80	39388.88
681.94	39171.21
682.07	38841.19
682.21	38515.86
682.35	38431.60
682.49	38759.27
682.62	38246.69
682.76	38291.16
682.90	38181.16
683.04	38078.18
683.17	37944.76
683.31	38040.73
683.45	38206.90
683.59	38066.47
683.72	38010.30
683.86	37322.18
684.00	36952.38
684.13	37118.56
684.27	36451.50
684.41	36554.49
684.55	36968.76
684.68	36804.92
684.82	36364.90
684.96	35857.01
685.09	36261.92
685.23	36404.69
685.37	35978.72
685.50	36535.76
685.64	36032.55
685.78	36137.87
685.91	36128.51
686.05	35845.30
686.19	35288.26
686.32	35629.98
686.46	34742.91
686.60	34960.58
686.73	35138.46
686.87	34508.86
687.01	34611.84
687.14	34309.91
687.28	34312.25
687.42	34349.70
687.55	34253.74
687.69	33912.02
687.82	33766.91
687.96	34082.88
688.10	34061.82
688.23	33666.27
688.37	33652.22
688.50	33666.27
688.64	33507.11
688.78	33226.24
688.91	33085.81
689.05	32936.02
689.18	32818.99
689.32	32173.00
689.46	32772.18
689.59	32320.46
689.73	32549.83
689.86	32151.94
690.00	31990.44
690.13	32201.09
690.27	31964.70
690.41	31880.44
690.54	31482.55
690.68	32191.73
690.81	31679.15
690.95	31978.74
691.08	31594.89
691.22	31185.30
691.35	31215.72
691.49	30904.43
691.62	30862.30
691.76	30953.58
691.89	30401.22
692.03	30565.06
692.16	30321.64
692.30	30452.71
692.43	29982.26
692.57	30265.47
692.70	30150.78
692.84	29998.65
692.97	29752.89
693.11	30115.67
693.24	29792.68
693.38	29685.01
693.51	29689.70
693.65	29858.21
693.78	29223.93
693.92	29642.88
694.05	28914.98
694.19	29071.79
694.32	28720.71
694.45	28945.41
694.59	28802.63
694.72	28208.14
694.86	28114.52
694.99	28025.57
695.13	27718.96
695.26	27775.14
695.39	27770.46
695.53	28180.05
695.66	28294.74
695.80	27938.97
695.93	27615.98
696.07	27592.58
696.20	27599.60
696.33	27089.36
696.47	26969.99
696.60	27058.93
696.73	26904.46
696.87	26700.83
697.00	26614.23
697.14	25991.65
697.27	25982.29
697.40	25986.97
697.54	25750.57
697.67	25671.00
697.80	25818.45
697.94	25493.12
698.07	25813.77
698.21	25675.68
698.34	25521.20
698.47	25434.60
698.61	24830.74
698.74	25261.40
698.87	25111.61
699.01	25071.82
699.14	25055.43
699.27	24807.34
699.40	24709.04
699.54	24404.77
699.67	24280.72
699.80	24128.58
699.94	23871.12
700.07	24009.22
700.20	23726.01
700.34	23683.88
700.47	23456.85
700.60	23311.74
700.73	23924.96
700.87	23477.91
701.00	23733.03
701.13	23634.73
701.26	23278.97
701.40	22970.02
701.53	23119.81
701.66	23030.87
701.79	22806.18
701.93	22775.75
702.06	22602.55
702.19	22427.01
702.32	22211.68
702.46	22153.17
702.59	21855.92
702.72	21944.86
702.85	21628.89
702.99	21968.27
703.12	21783.37
703.25	21589.10
703.38	21523.57
703.51	21476.76
703.65	21448.67
703.78	21333.98
703.91	21380.79
704.04	21132.70
704.17	21053.12
704.31	21156.10
704.44	20821.41
704.57	20769.91
704.70	20589.69
704.83	20826.09
704.96	20133.29
705.10	20006.90
705.23	19868.81
>>>>>End Processed Spectral Data<<<<<
