SpectraSuite Data File
++++++++++++++++++++++++++++++++++++
Date: Fri Oct 18 13:58:07 GMT-05:00 2013
User: bianchi
Dark Spectrum Present: No
Reference Spectrum Present: No
Number of Sampled Component Spectra: 1
Spectrometers: USB2+H05261
Integration Time (usec): 50000 (USB2+H05261)
Spectra Averaged: 1 (USB2+H05261)
Boxcar Smoothing: 0 (USB2+H05261)
Correct for Electrical Dark: No (USB2+H05261)
Strobe/Lamp Enabled: No (USB2+H05261)
Correct for Detector Non-linearity: No (USB2+H05261)
Correct for Stray Light: No (USB2+H05261)
Number of Pixels in Processed Spectrum: 2048
>>>>>Begin Processed Spectral Data<<<<<
365.73	0.00
365.92	0.00
366.12	0.00
366.32	0.00
366.52	0.00
366.72	0.00
366.91	0.00
367.11	0.00
367.31	0.00
367.51	0.00
367.70	0.00
367.90	0.00
368.10	0.00
368.30	0.00
368.49	0.00
368.69	0.00
368.89	0.00
369.09	0.00
369.28	0.00
369.48	0.00
369.68	0.00
369.87	0.00
370.07	0.00
370.27	0.00
370.47	0.00
370.66	133.41
370.86	44.47
371.06	100.64
371.25	138.09
371.45	16.38
371.65	79.58
371.84	177.88
372.04	121.71
372.24	107.66
372.44	189.58
372.63	126.39
372.83	196.60
373.03	100.64
373.22	297.25
373.42	255.12
373.62	241.08
373.81	196.60
374.01	266.82
374.21	222.35
374.40	238.73
374.60	297.25
374.79	252.78
374.99	236.39
375.19	231.71
375.38	259.80
375.58	297.25
375.78	283.20
375.97	245.76
376.17	248.10
376.37	229.37
376.56	304.27
376.76	210.65
376.95	173.20
377.15	292.57
377.35	257.46
377.54	241.08
377.74	283.20
377.93	269.16
378.13	269.16
378.33	344.06
378.52	346.40
378.72	311.29
378.91	311.29
379.11	227.03
379.31	248.10
379.50	297.25
379.70	273.84
379.89	299.59
380.09	374.49
380.28	337.04
380.48	257.46
380.68	229.37
380.87	299.59
381.07	276.18
381.26	306.61
381.46	409.59
381.65	313.63
381.85	337.04
382.04	341.72
382.24	348.74
382.43	292.57
382.63	292.57
382.83	348.74
383.02	283.20
383.22	301.93
383.41	280.86
383.61	297.25
383.80	337.04
384.00	358.10
384.19	407.25
384.39	388.53
384.58	365.12
384.78	353.42
384.97	301.93
385.17	355.76
385.36	376.83
385.56	365.12
385.75	376.83
385.95	376.83
386.14	390.87
386.34	379.17
386.53	407.25
386.72	489.17
386.92	456.40
387.11	344.06
387.31	365.12
387.50	456.40
387.70	339.38
387.89	477.47
388.09	383.85
388.28	397.89
388.48	409.59
388.67	440.02
388.86	512.58
389.06	416.62
389.25	510.24
389.45	409.59
389.64	482.15
389.84	507.90
390.03	454.06
390.22	451.72
390.42	468.11
390.61	578.11
390.81	496.19
391.00	484.49
391.19	477.47
391.39	500.87
391.58	484.49
391.78	503.22
391.97	603.86
392.16	538.32
392.36	578.11
392.55	496.19
392.75	578.11
392.94	482.15
393.13	472.79
393.33	505.56
393.52	552.37
393.71	496.19
393.91	538.32
394.10	638.97
394.29	585.13
394.49	603.86
394.68	638.97
394.88	550.03
395.07	622.58
395.26	678.76
395.46	716.20
395.65	662.37
395.84	648.33
396.04	664.71
396.23	702.16
396.42	601.52
396.62	702.16
396.81	629.60
397.00	685.78
397.19	688.12
397.39	730.25
397.58	676.41
397.77	660.03
397.97	662.37
398.16	690.46
398.35	713.86
398.55	692.80
398.74	788.76
398.93	741.95
399.12	674.07
399.32	779.40
399.51	674.07
399.70	793.44
399.90	779.40
400.09	674.07
400.28	784.08
400.47	720.88
400.67	788.76
400.86	727.91
401.05	767.70
401.24	851.96
401.44	760.67
401.63	837.91
401.82	823.87
402.01	763.01
402.21	774.72
402.40	814.51
402.59	849.61
402.78	788.76
402.97	866.00
403.17	910.47
403.36	809.83
403.55	840.25
403.74	929.19
403.93	835.57
404.13	940.90
404.32	905.79
404.51	976.00
404.70	908.13
404.89	947.92
405.09	910.47
405.28	992.39
405.47	966.64
405.66	1022.81
405.85	926.85
406.05	1041.54
406.24	947.92
406.43	1039.20
406.62	1039.20
406.81	1029.84
407.00	957.28
407.20	961.96
407.39	1074.31
407.58	1074.31
407.77	1022.81
407.96	1142.18
408.15	1083.67
408.34	1067.28
408.54	1125.80
408.73	1121.12
408.92	1090.69
409.11	1245.16
409.30	1128.14
409.49	1221.76
409.68	1188.99
409.87	1158.57
410.07	1221.76
410.26	1181.97
410.45	1188.99
410.64	1128.14
410.83	1224.10
411.02	1188.99
411.21	1247.51
411.40	1254.53
411.59	1277.93
411.78	1317.72
411.98	1299.00
412.17	1287.29
412.36	1228.78
412.55	1320.06
412.74	1306.02
412.93	1383.26
413.12	1334.11
413.31	1416.02
413.50	1334.11
413.69	1348.15
413.88	1497.94
414.07	1446.45
414.26	1430.07
414.45	1425.39
414.64	1455.81
414.83	1570.50
415.02	1533.05
415.22	1544.75
415.41	1497.94
415.60	1624.33
415.79	1516.67
415.98	1514.33
416.17	1600.93
416.36	1528.37
416.55	1568.16
416.74	1664.12
416.93	1717.95
417.12	1734.34
417.31	1753.06
417.50	1586.88
417.69	1678.16
417.88	1708.59
418.07	1654.76
418.26	1753.06
418.45	1837.32
418.64	1774.13
418.83	1687.53
419.02	1722.63
419.21	1834.98
419.39	1816.26
419.58	1877.11
419.77	1851.36
419.96	1795.19
420.15	1905.20
420.34	1839.66
420.53	1923.92
420.72	1919.24
420.91	1909.88
421.10	1959.03
421.29	2005.84
421.48	1893.49
421.67	1956.69
421.86	1949.67
422.05	1994.14
422.24	1989.46
422.43	2015.20
422.61	2062.01
422.80	1968.39
422.99	1994.14
423.18	2062.01
423.37	2045.63
423.56	2045.63
423.75	2026.90
423.94	1923.92
424.13	1877.11
424.32	1956.69
424.50	2113.50
424.69	2033.93
424.88	2003.50
425.07	2019.88
425.26	2045.63
425.45	2078.40
425.64	2064.35
425.83	1991.80
426.01	2064.35
426.20	2090.10
426.39	2071.37
426.58	2045.63
426.77	2047.97
426.96	2134.57
427.15	2024.56
427.33	2186.06
427.52	2076.06
427.71	2136.91
427.90	2122.87
428.09	2146.27
428.28	2216.49
428.46	2260.96
428.65	2120.53
428.84	2235.21
429.03	2258.62
429.22	2230.53
429.40	2265.64
429.59	2253.94
429.78	2118.18
429.97	2284.36
430.16	2143.93
430.34	2303.09
430.53	2345.22
430.72	2286.70
430.91	2277.34
431.10	2260.96
431.28	2300.75
431.47	2502.03
431.66	2392.03
431.85	2368.62
432.03	2375.64
432.22	2392.03
432.41	2424.80
432.60	2420.11
432.79	2567.57
432.97	2464.58
433.16	2401.39
433.35	2490.33
433.54	2511.39
433.72	2569.91
433.91	2551.18
434.10	2537.14
434.28	2495.01
434.47	2588.63
434.66	2560.55
434.85	2605.02
435.03	2633.10
435.22	2621.40
435.41	2677.57
435.59	2708.00
435.78	2668.21
435.97	2710.34
436.16	2761.83
436.34	2630.76
436.53	2792.26
436.72	2766.51
436.90	2754.81
437.09	2698.64
437.28	2684.59
437.46	2757.15
437.65	2799.28
437.84	2860.13
438.02	2822.69
438.21	2771.19
438.40	2754.81
438.58	2928.01
438.77	2904.60
438.96	2906.95
439.14	2881.20
439.33	3054.40
439.52	3016.95
439.70	2958.44
439.89	3068.44
440.08	2998.23
440.26	3005.25
440.45	3007.59
440.63	3131.64
440.82	3059.08
441.01	3000.57
441.19	3108.23
441.38	3183.13
441.57	3208.87
441.75	3155.04
441.94	3190.15
442.12	3351.65
442.31	3225.26
442.50	3258.03
442.68	3377.39
442.87	3234.62
443.05	3286.11
443.24	3412.50
443.43	3407.82
443.61	3311.86
443.80	3485.06
443.98	3463.99
444.17	3232.28
444.35	3346.97
444.54	3456.97
444.73	3353.99
444.91	3356.33
445.10	3405.48
445.28	3459.31
445.47	3492.08
445.65	3485.06
445.84	3449.95
446.02	3538.89
446.21	3272.07
446.39	3452.29
446.58	3487.40
446.77	3393.78
446.95	3414.84
447.14	3562.30
447.32	3538.89
447.51	3599.74
447.69	3585.70
447.88	3557.61
448.06	3452.29
448.25	3496.76
448.43	3618.47
448.62	3529.53
448.80	3435.91
448.99	3592.72
449.17	3566.98
449.36	3599.74
449.54	3681.66
449.73	3700.39
449.91	3653.58
450.10	3808.05
450.28	3794.01
450.46	3803.37
450.65	3798.69
450.83	3829.12
451.02	3812.73
451.20	3796.35
451.39	3866.56
451.57	3791.67
451.76	3843.16
451.94	3922.74
452.13	3913.38
452.31	3819.75
452.49	3794.01
452.68	3892.31
452.86	3955.51
453.05	3922.74
453.23	4016.36
453.42	3901.67
453.60	3801.03
453.78	4063.17
453.97	3899.33
454.15	3964.87
454.34	3960.19
454.52	3929.76
454.70	3976.57
454.89	4070.19
455.07	4035.08
455.26	4056.15
455.44	4173.18
455.62	4037.42
455.81	4093.60
455.99	4102.96
456.17	4201.26
456.36	4273.82
456.54	4374.46
456.73	4278.50
456.91	4339.35
457.09	4329.99
457.28	4411.91
457.46	4395.53
457.64	4416.59
457.83	4351.06
458.01	4304.25
458.19	4369.78
458.38	4255.09
458.56	4545.32
458.74	4468.08
458.93	4409.57
459.11	4571.07
459.29	4444.68
459.48	4437.66
459.66	4484.47
459.84	4720.86
460.03	4615.54
460.21	4634.26
460.39	4566.39
460.57	4564.04
460.76	4636.60
460.94	4578.09
461.12	4531.28
461.31	4655.33
461.49	4575.75
461.67	4636.60
461.85	4716.18
462.04	4580.43
462.22	4952.57
462.40	4727.88
462.59	4739.58
462.77	4765.33
462.95	5020.45
463.13	4812.14
463.32	4924.49
463.50	4957.25
463.68	4777.03
463.86	4905.76
464.05	4695.11
464.23	4880.02
464.41	4851.93
464.59	4791.08
464.78	5100.03
464.96	4917.47
465.14	4863.63
465.32	4968.96
465.50	5078.96
465.69	5034.49
465.87	5200.67
466.05	4968.96
466.23	4891.72
466.41	4873.00
466.60	5221.74
466.78	5036.83
466.96	5074.28
467.14	5018.11
467.32	5064.92
467.51	5085.98
467.69	4947.89
467.87	5256.84
468.05	5434.72
468.23	5207.69
468.41	5195.99
468.60	5259.18
468.78	5214.71
468.96	5163.22
469.14	5282.59
469.32	5404.30
469.50	5095.35
469.69	5392.59
469.87	5270.89
470.05	5453.45
470.23	5399.62
470.41	5434.72
470.59	5544.73
470.77	5528.35
470.95	5479.19
471.14	5668.78
471.32	5427.70
471.50	5650.05
471.68	5664.10
471.86	5792.83
472.04	5661.76
472.22	5743.67
472.40	5701.54
472.58	5734.31
472.77	5720.27
472.95	5930.92
473.13	5963.68
473.31	5933.26
473.49	5832.62
473.67	5781.12
473.85	5916.87
474.03	6122.84
474.21	5940.28
474.39	5998.79
474.57	6200.08
474.75	6134.54
474.93	6193.06
475.12	6200.08
475.30	6174.33
475.48	6132.20
475.66	6314.77
475.84	6345.19
476.02	6537.12
476.20	6492.65
476.38	6417.75
476.56	6665.85
476.74	6586.27
476.92	6459.88
477.10	6637.76
477.28	6752.45
477.46	6539.46
477.64	6764.15
477.82	6904.58
478.00	6965.43
478.18	7075.44
478.36	7077.78
478.54	7047.35
478.72	7133.95
478.90	7297.79
479.08	7396.09
479.26	7307.15
479.44	7281.41
479.62	7346.94
479.80	7386.73
479.98	7286.09
480.16	7625.47
480.34	7691.00
480.52	7644.19
480.70	7637.17
480.88	7665.25
481.06	7808.03
481.24	7728.45
481.41	7815.05
481.59	8042.08
481.77	8042.08
481.95	8025.70
482.13	8177.83
482.31	8035.06
482.49	8243.37
482.67	8077.19
482.85	8334.65
483.03	8554.66
483.21	8517.21
483.39	8774.67
483.57	8664.66
483.74	8638.92
483.92	8697.43
484.10	8669.34
484.28	8908.08
484.46	9188.94
484.64	9406.61
484.82	9034.47
485.00	9238.09
485.18	9352.78
485.35	9362.14
485.53	9462.79
485.71	9570.45
485.89	9650.03
486.07	9486.19
486.25	9542.36
486.43	9617.26
486.61	9907.49
486.78	9736.63
486.96	9900.47
487.14	10125.16
487.32	10356.87
487.50	9928.55
487.68	10202.40
487.85	10307.72
488.03	10410.70
488.21	10806.25
488.39	10569.86
488.57	10771.15
488.75	10998.18
488.92	11044.99
489.10	10848.38
489.28	11091.80
489.46	11126.91
489.64	11056.69
489.81	11185.42
489.99	11396.07
490.17	11454.58
490.35	11494.37
490.53	11625.44
490.70	11709.70
490.88	11702.68
491.06	11749.49
491.24	11805.66
491.41	12278.45
491.59	11967.16
491.77	11995.25
491.95	12065.46
492.13	12231.64
492.30	12353.35
492.48	12372.07
492.66	12423.56
492.84	12538.25
493.01	12645.91
493.19	12615.49
493.37	13020.40
493.54	12755.92
493.72	12812.09
493.90	13224.03
494.08	13291.90
494.25	12882.31
494.43	13453.40
494.61	13315.31
494.79	13385.52
494.96	13418.29
495.14	13303.60
495.32	13535.32
495.49	13832.57
495.67	13696.82
495.85	13853.63
496.02	14120.45
496.20	14057.26
496.38	14129.81
496.55	14040.87
496.73	14272.59
496.91	14246.84
497.09	14218.75
497.26	14384.93
497.44	14345.14
497.62	14555.79
497.79	14562.81
497.97	14668.14
498.14	14888.15
498.32	14897.51
498.50	15063.69
498.67	15192.42
498.85	15105.82
499.03	15257.95
499.20	15253.27
499.38	15389.02
499.56	15363.28
499.73	15279.02
499.91	15550.52
500.08	15417.11
500.26	15293.06
500.44	15241.57
500.61	15337.53
500.79	15672.23
500.97	15960.11
501.14	15871.17
501.32	16009.26
501.49	15892.24
501.67	15932.03
501.84	15967.13
502.02	15934.37
502.20	16107.57
502.37	16542.91
502.55	16304.17
502.72	16339.28
502.90	16521.84
503.07	16350.98
503.25	16432.90
503.43	16444.60
503.60	16444.60
503.78	16477.37
503.95	16821.43
504.13	16800.37
504.30	16816.75
504.48	16739.51
504.65	16903.35
504.83	17092.93
505.01	17123.36
505.18	17167.83
505.36	17481.46
505.53	17088.25
505.71	17252.09
505.88	17099.95
506.06	17219.32
506.23	17521.25
506.41	17338.69
506.58	17628.92
506.76	17329.33
506.93	17860.63
507.11	17535.29
507.28	17640.62
507.46	17467.42
507.63	17741.26
507.81	17790.41
507.98	17556.36
508.16	18122.77
508.33	18005.74
508.50	18267.88
508.68	18223.41
508.85	18448.10
509.03	18415.34
509.20	18494.91
509.38	18408.31
509.55	18595.56
509.73	18466.83
509.90	18281.92
510.08	18558.11
510.25	18537.04
510.42	18658.75
510.60	18855.36
510.77	18721.95
510.95	19023.87
511.12	18764.07
511.30	18621.30
511.47	18712.58
511.64	19271.97
511.82	18995.79
511.99	19012.17
512.17	19318.78
512.34	19407.72
512.51	19449.85
512.69	19400.70
512.86	19300.06
513.04	19747.10
513.21	19344.53
513.38	19585.60
513.56	19702.63
513.73	19667.52
513.90	19473.26
514.08	19662.84
514.25	19599.65
514.43	20079.46
514.60	20053.71
514.77	20006.90
514.95	20255.00
515.12	19836.04
515.29	19754.12
515.47	20287.76
515.64	20386.07
515.81	19943.70
515.99	20545.22
516.16	20737.15
516.33	20486.71
516.51	20463.30
516.68	20128.61
516.85	20535.86
517.03	20411.81
517.20	20680.97
517.37	20748.85
517.54	20741.83
517.72	20680.97
517.89	20809.70
518.06	20575.65
518.24	20622.46
518.41	20781.62
518.58	20884.60
518.75	20865.88
518.93	21010.99
519.10	21081.21
519.27	21025.03
519.45	20957.16
519.62	21572.72
519.79	21392.50
519.96	21266.11
520.14	21219.30
520.31	21455.69
520.48	21603.14
520.65	21392.50
520.83	22003.38
521.00	21701.45
521.17	21406.54
521.34	21577.40
521.52	21703.79
521.69	21869.97
521.86	21947.20
522.03	21715.49
522.20	21998.70
522.38	21902.73
522.55	22253.81
522.72	22190.62
522.89	22157.85
523.07	22611.92
523.24	22291.26
523.41	22148.49
523.58	22317.01
523.75	22279.56
523.92	22469.14
524.10	22202.32
524.27	22377.86
524.44	22469.14
524.61	22731.28
524.78	22558.08
524.96	22419.99
525.13	22778.09
525.30	22778.09
525.47	22773.41
525.64	22738.30
525.81	22778.09
525.98	23154.92
526.16	23012.15
526.33	22932.57
526.50	23178.33
526.67	22618.94
526.84	23115.13
527.01	23112.79
527.18	23187.69
527.36	23285.99
527.53	23201.73
527.70	23403.02
527.87	23260.24
528.04	23351.52
528.21	23711.97
528.38	23136.20
528.55	23536.43
528.72	23522.38
528.89	23386.63
529.07	23679.20
529.24	23601.96
529.41	23545.79
529.58	23587.92
529.75	23768.14
529.92	23927.30
530.09	23562.17
530.26	23718.99
530.43	24011.56
530.60	23709.63
530.77	24018.58
530.94	23660.48
531.11	24119.22
531.28	23850.06
531.46	23875.80
531.63	24308.80
531.80	24374.34
531.97	24208.16
532.14	24095.82
532.31	24533.50
532.48	24182.42
532.65	24135.60
532.82	24313.48
532.99	24229.23
533.16	24416.47
533.33	24751.17
533.50	24662.22
533.67	24645.84
533.84	24390.72
534.01	24400.08
534.18	24144.97
534.35	24568.60
534.52	24634.14
534.69	24800.32
534.86	24924.36
535.03	24741.80
535.20	24519.45
535.37	24833.08
535.54	25149.06
535.71	24807.34
535.88	24919.68
536.05	24823.72
536.22	25071.82
536.38	25315.23
536.55	25120.97
536.72	25371.41
536.89	25156.08
537.06	25362.04
537.23	25516.52
537.40	25212.25
537.57	25479.07
537.74	25766.96
537.91	25612.48
538.08	25895.69
538.25	25551.63
538.42	25247.36
538.59	25542.27
538.75	25252.04
538.92	25844.20
539.09	25656.95
539.26	25542.27
539.43	25811.43
539.60	25472.05
539.77	25631.21
539.94	26010.37
540.11	25898.03
540.28	25748.23
540.44	25635.89
540.61	26022.08
540.78	25998.67
540.95	25905.05
541.12	25816.11
541.29	25923.77
541.46	25816.11
541.62	25874.62
541.79	26515.93
541.96	25846.54
542.13	26001.01
542.30	26078.25
542.47	26214.00
542.63	26249.11
542.80	26480.82
542.97	26443.37
543.14	26675.09
543.31	26412.95
543.48	26717.22
543.64	26764.03
543.81	26661.04
543.98	26962.97
544.15	26878.71
544.32	26953.61
544.48	27159.58
544.65	26969.99
544.82	26972.33
544.99	26661.04
545.16	26595.51
545.32	26789.77
545.49	27000.42
545.66	26960.63
545.83	27108.08
546.00	27253.20
546.16	27225.11
546.33	26862.33
546.50	26773.39
546.67	27456.82
546.83	27026.17
547.00	27133.83
547.17	27227.45
547.34	27229.79
547.50	27545.76
547.67	27569.17
547.84	27342.14
548.00	27534.06
548.17	27864.08
548.34	27229.79
548.51	27463.85
548.67	27627.68
548.84	27590.24
549.01	27393.63
549.18	27494.27
549.34	27538.74
549.51	27473.21
549.68	27278.94
549.84	27637.05
550.01	27740.03
550.18	27543.42
550.34	27770.46
550.51	27803.22
550.68	28240.90
550.84	27452.14
551.01	27641.73
551.18	27969.40
551.34	27491.93
551.51	28023.23
551.68	27852.38
551.84	28156.64
552.01	27896.85
552.18	28072.39
552.34	27718.96
552.51	28072.39
552.68	27847.69
552.84	27943.66
553.01	28156.64
553.18	27969.40
553.34	28240.90
553.51	28056.00
553.67	28142.60
553.84	28224.52
554.01	28507.72
554.17	28484.32
554.34	28641.14
554.51	28395.38
554.67	28669.22
554.84	28198.77
555.00	28308.78
555.17	28379.00
555.33	28540.49
555.50	28849.44
555.67	28201.11
555.83	28521.77
556.00	28694.97
556.16	28620.07
556.33	28306.44
556.50	28655.18
556.66	28629.43
556.83	28800.29
556.99	28725.39
557.16	29001.58
557.32	28849.44
557.49	28748.80
557.65	28652.84
557.82	28657.52
557.98	29099.88
558.15	28826.04
558.32	28800.29
558.48	28706.67
558.65	29027.32
558.81	28758.16
558.98	29151.37
559.14	28601.35
559.31	29039.03
559.47	28879.87
559.64	28889.23
559.80	29032.00
559.97	29369.04
560.13	28645.82
560.30	28847.10
560.46	29347.98
560.63	29104.56
560.79	29071.79
560.96	29015.62
561.12	29029.66
561.29	29006.26
561.45	28975.83
561.61	29034.35
561.78	28985.19
561.94	29401.81
562.11	29216.91
562.27	29142.01
562.44	29055.41
562.60	28929.02
562.77	29266.06
562.93	29146.69
563.10	29425.22
563.26	29305.85
563.42	29472.03
563.59	29219.25
563.75	29666.29
563.92	29355.00
564.08	29261.38
564.24	29383.09
564.41	28844.76
564.57	29413.51
564.74	29322.23
564.90	29521.18
565.07	29710.76
565.23	29467.34
565.39	29605.44
565.56	29252.02
565.72	29355.00
565.88	29507.13
566.05	29305.85
566.21	29668.63
566.38	29275.42
566.54	29495.43
566.70	29773.95
566.87	29640.54
567.03	29441.60
567.19	29951.84
567.36	29598.41
567.52	29638.20
567.68	29928.43
567.85	29872.26
568.01	29577.35
568.17	29748.21
568.34	30108.65
568.50	29701.40
568.66	29886.30
568.83	29635.86
568.99	29518.84
569.15	29804.38
569.32	29455.64
569.48	29593.73
569.64	29755.23
569.81	29645.23
569.97	29563.31
570.13	29766.93
570.30	29752.89
570.46	29886.30
570.62	30061.84
570.78	29532.88
570.95	29881.62
571.11	29656.93
571.27	29642.88
571.43	29745.87
571.60	30155.46
571.76	29998.65
571.92	29769.27
572.09	29785.66
572.25	30284.19
572.41	29867.58
572.57	29886.30
572.74	29825.45
572.90	29937.79
573.06	30078.22
573.22	29874.60
573.38	29900.34
573.55	29951.84
573.71	30335.68
573.87	30305.26
574.03	29771.61
574.20	29930.77
574.36	29703.74
574.52	30015.03
574.68	29832.47
574.84	30522.93
575.01	29956.52
575.17	30359.09
575.33	29867.58
575.49	30139.08
575.65	30139.08
575.82	30298.23
575.98	30316.96
576.14	30148.44
576.30	30036.09
576.46	30192.91
576.62	30064.18
576.79	29661.61
576.95	30319.30
577.11	30103.97
577.27	30061.84
577.43	30426.96
577.59	30029.07
577.75	30155.46
577.92	29729.48
578.08	30029.07
578.24	30047.80
578.40	30398.88
578.56	30459.73
578.72	30242.06
578.88	30008.01
579.04	30246.74
579.21	30225.68
579.37	30066.52
579.53	30221.00
579.69	29965.88
579.85	30008.01
580.01	30192.91
580.17	29734.17
580.33	30291.21
580.49	29972.90
580.65	30345.05
580.82	30103.97
580.98	30335.68
581.14	29933.11
581.30	30476.12
581.46	30338.02
581.62	30139.08
581.78	29642.88
581.94	30305.26
582.10	30010.35
582.26	30171.85
582.42	30338.02
582.58	30401.22
582.74	30211.64
582.90	30565.06
583.06	30677.40
583.22	29935.45
583.38	30661.02
583.54	30127.38
583.70	30298.23
583.86	30403.56
584.02	30157.80
584.18	30422.28
584.34	30792.09
584.50	30600.16
584.66	30235.04
584.82	30230.36
584.98	30188.23
585.14	29853.53
585.30	30127.38
585.46	30373.13
585.62	29902.68
585.78	30457.39
585.94	30443.35
586.10	30541.65
586.26	30363.77
586.42	30441.01
586.58	30298.23
586.74	30022.05
586.90	30256.11
587.06	30033.75
587.22	30300.58
587.38	30157.80
587.54	30469.09
587.70	30183.55
587.86	30642.29
588.02	30590.80
588.18	30513.56
588.34	30766.34
588.49	30689.10
588.65	30572.08
588.81	30490.16
588.97	30221.00
589.13	30396.54
589.29	30052.48
589.45	30101.63
589.61	30799.11
589.77	30703.15
589.93	30740.60
590.08	30679.74
590.24	31023.80
590.40	30787.41
590.56	30494.84
590.72	30459.73
590.88	30228.02
591.04	30539.31
591.20	30988.69
591.35	30511.22
591.51	31419.35
591.67	31122.10
591.83	30749.96
591.99	30611.87
592.15	30740.60
592.31	30651.66
592.46	30567.40
592.62	30632.93
592.78	30396.54
592.94	31243.81
593.10	30876.35
593.26	30747.62
593.41	30948.90
593.57	30897.41
593.73	31105.72
593.89	30532.29
594.05	30756.98
594.20	30373.13
594.36	30796.77
594.52	30759.32
594.68	30932.52
594.84	30705.49
594.99	30518.25
595.15	30792.09
595.31	31211.04
595.47	30906.77
595.62	30689.10
595.78	30836.56
595.94	30637.61
596.10	30497.18
596.25	30857.62
596.41	30342.70
596.57	30506.54
596.73	30628.25
596.88	30799.11
597.04	30553.35
597.20	31524.68
597.36	30728.89
597.51	31119.76
597.67	30717.19
597.83	30845.92
597.99	30885.71
598.14	30560.37
598.30	30705.49
598.46	30773.36
598.61	31227.43
598.77	30700.81
598.93	31084.65
599.09	30719.53
599.24	31154.87
599.40	31206.36
599.56	31122.10
599.71	30553.35
599.87	30916.14
600.03	31037.84
600.18	30878.69
600.34	31150.19
600.50	30775.70
600.65	30897.41
600.81	30876.35
600.97	31133.81
601.12	31213.38
601.28	31164.23
601.44	31192.32
601.59	30803.79
601.75	30782.73
601.91	31402.97
602.06	30941.88
602.22	30691.44
602.37	30960.61
602.53	30892.73
602.69	31199.34
602.84	30733.57
603.00	31124.44
603.16	31482.55
603.31	30881.03
603.47	30794.43
603.62	30726.55
603.78	31292.96
603.94	30796.77
604.09	30443.35
604.25	30742.94
604.40	30752.30
604.56	30824.86
604.71	30890.39
604.87	30672.72
605.03	31047.21
605.18	31021.46
605.34	30981.67
605.49	30635.27
605.65	30937.20
605.80	30665.70
605.96	30728.89
606.12	30731.23
606.27	30827.20
606.43	30962.95
606.58	30871.67
606.74	30850.60
606.89	30981.67
607.05	31276.58
607.20	31021.46
607.36	30852.94
607.51	30993.37
607.67	30642.29
607.82	30562.72
607.98	30637.61
608.13	30441.01
608.29	30937.20
608.44	30890.39
608.60	30984.01
608.75	30909.11
608.91	30801.45
609.06	30597.82
609.22	30794.43
609.37	30309.94
609.53	30862.30
609.68	30642.29
609.84	30731.23
609.99	30441.01
610.15	30316.96
610.30	30632.93
610.46	30302.92
610.61	30749.96
610.76	30707.83
610.92	30569.74
611.07	30808.47
611.23	30452.71
611.38	30579.10
611.54	30569.74
611.69	30604.84
611.84	30050.14
612.00	30345.05
612.15	30345.05
612.31	30724.21
612.46	30529.95
612.62	30726.55
612.77	30309.94
612.92	30558.03
613.08	30899.75
613.23	30368.45
613.39	30295.89
613.54	30162.48
613.69	30380.15
613.85	30705.49
614.00	30328.66
614.15	30218.66
614.31	30136.74
614.46	30932.52
614.62	30614.21
614.77	30459.73
614.92	30487.82
615.08	30225.68
615.23	30593.14
615.38	30569.74
615.54	29912.05
615.69	29883.96
615.84	30284.19
616.00	30054.82
616.15	30560.37
616.30	29972.90
616.46	30237.38
616.61	30270.15
616.76	30543.99
616.92	30185.89
617.07	30398.88
617.22	29956.52
617.37	30129.72
617.53	30141.42
617.68	29890.98
617.83	29858.21
617.99	29876.94
618.14	29928.43
618.29	29956.52
618.45	30096.95
618.60	29797.36
618.75	30038.44
618.90	30302.92
619.06	30082.91
619.21	29886.30
619.36	29923.75
619.51	29633.52
619.67	29411.17
619.82	29654.59
619.97	29635.86
620.12	29654.59
620.28	29762.25
620.43	29633.52
620.58	30113.33
620.73	29560.97
620.89	29635.86
621.04	29764.59
621.19	29986.94
621.34	29558.63
621.49	29755.23
621.65	29502.45
621.80	29692.04
621.95	29488.41
622.10	29546.92
622.25	29436.92
622.41	29593.73
622.56	29404.15
622.71	29778.64
622.86	29378.40
623.01	29467.34
623.16	29270.74
623.32	29411.17
623.47	29612.46
623.62	29394.79
623.77	29418.19
623.92	29270.74
624.07	29085.84
624.23	29289.46
624.38	29652.25
624.53	29319.89
624.68	29560.97
624.83	29593.73
624.98	29399.47
625.13	29244.99
625.29	29188.82
625.44	29401.81
625.59	28945.41
625.74	29177.12
625.89	29039.03
626.04	29069.45
626.19	29137.33
626.34	29205.20
626.49	28725.39
626.65	28938.38
626.80	29090.52
626.95	29006.26
627.10	29132.65
627.25	29032.00
627.40	28875.19
627.55	28835.40
627.70	29104.56
627.85	28481.98
628.00	28797.95
628.15	28793.27
628.30	29015.62
628.45	28678.58
628.60	28741.78
628.76	29200.52
628.91	28624.75
629.06	28748.80
629.21	28929.02
629.36	28893.91
629.51	28720.71
629.66	28271.33
629.81	28308.78
629.96	28484.32
630.11	28615.39
630.26	28531.13
630.41	28563.90
630.56	28549.85
630.71	28348.57
630.86	28596.67
631.01	28943.06
631.16	28556.88
631.31	28842.42
631.46	28318.14
631.61	28489.00
631.76	28374.31
631.91	28304.10
632.06	28325.16
632.21	28446.87
632.36	28659.86
632.51	28341.55
632.66	28332.18
632.81	28320.48
632.96	28535.81
633.10	28247.93
633.25	28390.70
633.40	28205.80
633.55	28383.68
633.70	27761.09
633.85	27969.40
634.00	28273.67
634.15	27953.02
634.30	27960.04
634.45	27871.10
634.60	28006.85
634.75	28109.83
634.90	28224.52
635.05	28489.00
635.19	27990.47
635.34	28254.95
635.49	28301.76
635.64	28074.73
635.79	27957.70
635.94	28173.03
636.09	27887.48
636.24	27578.53
636.39	27833.65
636.53	28315.80
636.68	27789.18
636.83	27887.48
636.98	27723.65
637.13	27889.82
637.28	27969.40
637.43	28261.97
637.57	27835.99
637.72	27527.04
637.87	27763.43
638.02	28102.81
638.17	27679.18
638.32	27531.72
638.46	27398.31
638.61	27810.25
638.76	27627.68
638.91	27295.33
639.06	27641.73
639.20	27751.73
639.35	28074.73
639.50	27676.83
639.65	27758.75
639.80	27838.33
639.94	27957.70
640.09	27398.31
640.24	27489.59
640.39	27370.22
640.54	27442.78
640.68	27608.96
640.83	27372.57
640.98	26918.50
641.13	26974.67
641.27	27749.39
641.42	27028.51
641.57	27323.41
641.72	27456.82
641.86	27515.34
642.01	27204.05
642.16	27573.85
642.31	27281.28
642.45	27323.41
642.60	26984.04
642.75	26881.05
642.90	26986.38
643.04	26932.54
643.19	27070.64
643.34	27208.73
643.48	26881.05
643.63	27206.39
643.78	27119.79
643.93	27232.13
644.07	27180.64
644.22	27028.51
644.37	27269.58
644.51	27019.14
644.66	27047.23
644.81	27117.45
644.95	26881.05
645.10	26881.05
645.25	26691.47
645.39	26698.49
645.54	26904.46
645.69	26614.23
645.83	27047.23
645.98	26710.19
646.13	26342.73
646.27	27115.11
646.42	26588.49
646.57	26852.97
646.71	27058.93
646.86	26684.45
647.00	26632.96
647.15	26897.44
647.30	26593.17
647.44	26356.77
647.59	26696.15
647.74	26677.43
647.88	26757.00
648.03	26817.86
648.17	26698.49
648.32	27040.21
648.47	26742.96
648.61	26649.34
648.76	26541.68
648.90	26768.71
649.05	26792.11
649.20	26448.05
649.34	26242.09
649.49	26148.46
649.63	26277.19
649.78	26312.30
649.92	26087.61
650.07	26284.22
650.21	26403.58
650.36	26340.39
650.51	25956.54
650.65	26445.71
650.80	26457.42
650.94	26286.56
651.09	26445.71
651.23	26412.95
651.38	26419.97
651.52	26377.84
651.67	26148.46
651.81	26274.85
651.96	26403.58
652.10	25671.00
652.25	26050.16
652.39	26581.46
652.54	26469.12
652.68	26223.36
652.83	26108.68
652.97	26265.49
653.12	26134.42
653.26	25942.50
653.41	26249.11
653.55	26115.70
653.70	25731.85
653.84	26022.08
653.99	25921.43
654.13	25972.92
654.27	25855.90
654.42	25839.51
654.56	25928.45
654.71	26005.69
654.85	25893.35
655.00	25975.27
655.14	25902.71
655.29	26082.93
655.43	26075.91
655.57	25783.34
655.72	25783.34
655.86	25436.94
656.01	25741.21
656.15	25659.29
656.30	25834.83
656.44	25656.95
656.58	25516.52
656.73	25596.10
656.87	25778.66
657.01	25682.70
657.16	25640.57
657.30	26024.42
657.45	25556.31
657.59	25727.17
657.73	25502.48
657.88	25371.41
658.02	25331.62
658.16	25179.48
658.31	25305.87
658.45	25303.53
658.60	24971.18
658.74	24940.75
658.88	25441.62
659.03	25591.42
659.17	25142.03
659.31	25137.35
659.46	25291.83
659.60	25235.66
659.74	25336.30
659.89	24907.98
660.03	24730.10
660.17	24987.56
660.32	24961.81
660.46	24868.19
660.60	24669.25
660.74	24840.11
660.89	24905.64
661.03	24812.02
661.17	24849.47
661.32	24533.50
661.46	24856.49
661.60	24666.91
661.74	24802.66
661.89	24800.32
662.03	24872.87
662.17	24624.78
662.31	24355.61
662.46	24474.98
662.60	24570.94
662.74	24259.65
662.88	24517.11
663.03	24500.73
663.17	24650.52
663.31	23817.29
663.45	23922.62
663.60	24137.94
663.74	24318.17
663.88	24294.76
664.02	23981.13
664.17	24311.14
664.31	24535.84
664.45	24086.45
664.59	24231.57
664.73	24297.10
664.88	23871.12
665.02	23702.61
665.16	23786.86
665.30	23939.00
665.44	23695.58
665.59	23878.15
665.73	23634.73
665.87	23658.14
666.01	23688.56
666.15	23768.14
666.29	23892.19
666.44	23550.47
666.58	23679.20
666.72	23285.99
666.86	23761.12
667.00	23754.10
667.14	23293.01
667.28	23438.12
667.43	23386.63
667.57	23461.53
667.71	23227.48
667.85	23388.97
667.99	23412.38
668.13	23054.28
668.27	23227.48
668.41	23297.69
668.56	23180.67
668.70	23321.10
668.84	23344.50
668.98	23002.78
669.12	23204.07
669.26	23311.74
669.40	23222.80
669.54	23136.20
669.68	23096.41
669.82	22787.46
669.96	22693.83
670.10	22735.96
670.25	22658.73
670.39	22979.38
670.53	22441.06
670.67	22511.27
670.81	22504.25
670.95	22600.21
671.09	22794.48
671.23	22773.41
671.37	22911.50
671.51	22597.87
671.65	22530.00
671.79	22309.99
671.93	22424.67
672.07	22312.33
672.21	22349.78
672.35	21905.07
672.49	22064.23
672.63	21970.61
672.77	21998.70
672.91	21792.73
673.05	21935.50
673.19	22080.61
673.33	22040.82
673.47	21710.81
673.61	21762.30
673.75	22075.93
673.89	21664.00
674.03	21949.54
674.17	21497.82
674.31	21605.49
674.45	21397.18
674.59	21776.34
674.73	21415.90
674.87	21448.67
675.01	21350.37
675.15	21036.74
675.29	21205.25
675.43	21446.33
675.56	21266.11
675.70	21160.78
675.84	21099.93
675.98	20472.67
676.12	21135.04
676.26	21097.59
676.40	21092.91
676.54	21099.93
676.68	21076.52
676.82	20395.43
676.96	20716.08
677.10	20652.89
677.23	20386.07
677.37	20582.67
677.51	20278.40
677.65	20482.03
677.79	20100.52
677.93	20290.10
678.07	20451.60
678.21	20278.40
678.34	19967.11
678.48	20077.12
678.62	19920.30
678.76	19875.83
678.90	19770.51
679.04	19742.42
679.18	19924.98
679.31	19587.94
679.45	19709.65
679.59	19658.16
679.73	19477.94
679.87	19101.11
680.00	19473.26
680.14	19410.06
680.28	19440.49
680.42	19220.48
680.56	19491.98
680.70	19215.80
680.83	19323.46
680.97	19054.30
681.11	19367.93
681.25	19082.39
681.39	19021.53
681.52	19021.53
681.66	19000.47
681.80	18656.41
681.94	18890.46
682.07	18696.20
682.21	18728.97
682.35	18345.12
682.49	18356.82
682.62	18310.01
682.76	18256.18
682.90	18094.68
683.04	18209.37
683.17	18541.72
683.31	18471.51
683.45	18600.24
683.59	18185.96
683.72	18047.87
683.86	17855.95
684.00	18284.26
684.13	17898.08
684.27	17722.54
684.41	17647.64
684.55	17528.27
684.68	17575.08
684.82	17469.76
684.96	17476.78
685.09	17495.50
685.23	17228.68
685.37	17355.07
685.50	17579.76
685.64	17474.44
685.78	17362.09
685.91	17319.96
686.05	17032.08
686.19	17041.44
686.32	17160.81
686.46	16683.34
686.60	16739.51
686.73	16812.07
686.87	16704.40
687.01	16444.60
687.14	16517.16
687.28	16552.27
687.42	16418.86
687.55	16465.67
687.69	16538.23
687.82	16491.41
687.96	16425.88
688.10	16145.02
688.23	16472.69
688.37	16456.31
688.50	16388.43
688.64	16224.59
688.78	16355.66
688.91	16135.65
689.05	15861.81
689.18	15819.68
689.32	15616.05
689.46	15730.74
689.59	15590.31
689.73	15754.15
689.86	15318.81
690.00	15428.81
690.13	15384.34
690.27	15276.68
690.41	15536.48
690.54	15487.32
690.68	15286.04
690.81	15555.20
690.95	15463.92
691.08	15318.81
691.22	15023.90
691.35	15084.75
691.49	15023.90
691.62	15108.16
691.76	14916.23
691.89	14892.83
692.03	14579.20
692.16	14565.15
692.30	14504.30
692.43	14363.87
692.57	14621.33
692.70	14410.68
692.84	14345.14
692.97	14356.85
693.11	14516.00
693.24	14132.15
693.38	14422.38
693.51	14263.22
693.65	14256.20
693.78	14139.18
693.92	14068.96
694.05	13996.40
694.19	13666.39
694.32	13884.06
694.45	13701.50
694.59	13565.74
694.72	13631.28
694.86	13661.71
694.99	13544.68
695.13	13490.85
695.26	13341.05
695.39	13455.74
695.53	13334.03
695.66	13308.29
695.80	13231.05
695.93	13331.69
696.07	13399.57
696.20	13055.51
696.33	13146.79
696.47	12989.97
696.60	12781.67
696.73	12882.31
696.87	12809.75
697.00	12655.28
697.14	12655.28
697.27	12351.01
697.40	12755.92
697.54	12489.10
697.67	12531.23
697.80	12475.06
697.94	12484.42
698.07	12355.69
698.21	12315.90
698.34	12322.92
698.47	12102.91
698.61	12236.32
698.74	12334.62
698.87	12180.15
699.01	11971.84
699.14	12030.35
699.27	12013.97
699.40	11889.92
699.54	11894.60
699.67	11932.05
699.80	11744.81
699.94	11808.00
700.07	11606.72
700.20	11527.14
700.34	11489.69
700.47	11587.99
700.60	11714.38
700.73	11470.97
700.87	11302.45
701.00	11358.62
701.13	11309.47
701.26	11346.92
701.40	11288.40
701.53	11346.92
701.66	11143.29
701.79	11007.54
701.93	11084.78
702.06	10906.90
702.19	10855.40
702.32	10677.52
702.46	10909.24
702.59	10848.38
702.72	10663.48
702.85	10698.59
702.99	10513.69
703.12	10569.86
703.25	10434.11
703.38	10485.60
703.51	10693.91
703.65	10356.87
703.78	10338.15
703.91	10289.00
704.04	10420.06
704.17	10352.19
704.31	10111.11
704.44	10115.80
704.57	10160.27
704.70	9942.60
704.83	9921.53
704.96	10038.56
705.10	10008.13
705.23	9675.77
>>>>>End Processed Spectral Data<<<<<
