SpectraSuite Data File
++++++++++++++++++++++++++++++++++++
Date: Fri Oct 18 13:58:23 GMT-05:00 2013
User: bianchi
Dark Spectrum Present: No
Reference Spectrum Present: No
Number of Sampled Component Spectra: 1
Spectrometers: USB2+H05261
Integration Time (usec): 50000 (USB2+H05261)
Spectra Averaged: 1 (USB2+H05261)
Boxcar Smoothing: 0 (USB2+H05261)
Correct for Electrical Dark: No (USB2+H05261)
Strobe/Lamp Enabled: No (USB2+H05261)
Correct for Detector Non-linearity: No (USB2+H05261)
Correct for Stray Light: No (USB2+H05261)
Number of Pixels in Processed Spectrum: 2048
>>>>>Begin Processed Spectral Data<<<<<
365.73	0.00
365.92	0.00
366.12	0.00
366.32	0.00
366.52	0.00
366.72	0.00
366.91	0.00
367.11	0.00
367.31	0.00
367.51	0.00
367.70	0.00
367.90	0.00
368.10	0.00
368.30	0.00
368.49	0.00
368.69	0.00
368.89	0.00
369.09	0.00
369.28	0.00
369.48	0.00
369.68	0.00
369.87	0.00
370.07	0.00
370.27	0.00
370.47	30.43
370.66	100.64
370.86	133.41
371.06	110.01
371.25	191.92
371.45	138.09
371.65	222.35
371.84	105.32
372.04	70.22
372.24	124.05
372.44	191.92
372.63	201.29
372.83	210.65
373.03	196.60
373.22	142.77
373.42	198.95
373.62	198.95
373.81	255.12
374.01	243.42
374.21	208.31
374.40	173.20
374.60	297.25
374.79	201.29
374.99	257.46
375.19	201.29
375.38	234.05
375.58	255.12
375.78	266.82
375.97	243.42
376.17	243.42
376.37	229.37
376.56	241.08
376.76	276.18
376.95	325.33
377.15	283.20
377.35	266.82
377.54	243.42
377.74	241.08
377.93	203.63
378.13	224.69
378.33	301.93
378.52	325.33
378.72	292.57
378.91	287.89
379.11	264.48
379.31	325.33
379.50	322.99
379.70	220.01
379.89	327.68
380.09	311.29
380.28	327.68
380.48	250.44
380.68	292.57
380.87	278.52
381.07	339.38
381.26	259.80
381.46	334.70
381.65	379.17
381.85	285.55
382.04	271.50
382.24	367.46
382.43	341.72
382.63	355.76
382.83	393.21
383.02	344.06
383.22	358.10
383.41	374.49
383.61	283.20
383.80	372.15
384.00	341.72
384.19	379.17
384.39	393.21
384.58	358.10
384.78	320.65
384.97	421.30
385.17	374.49
385.36	400.23
385.56	388.53
385.75	425.98
385.95	470.45
386.14	503.22
386.34	402.57
386.53	425.98
386.72	318.31
386.92	360.44
387.11	468.11
387.31	400.23
387.50	477.47
387.70	449.38
387.89	388.53
388.09	440.02
388.28	456.40
388.48	416.62
388.67	477.47
388.86	442.36
389.06	468.11
389.25	503.22
389.45	440.02
389.64	524.28
389.84	465.77
390.03	400.23
390.22	475.13
390.42	358.10
390.61	531.30
390.81	470.45
391.00	533.64
391.19	545.34
391.39	571.09
391.58	535.98
391.78	489.17
391.97	533.64
392.16	568.75
392.36	519.60
392.55	510.24
392.75	608.54
392.94	512.58
393.13	540.66
393.33	447.04
393.52	575.77
393.71	573.43
393.91	528.96
394.10	575.77
394.29	564.07
394.49	521.94
394.68	617.90
394.88	519.60
395.07	624.92
395.26	596.84
395.46	725.57
395.65	587.47
395.84	566.41
396.04	697.48
396.23	697.48
396.42	613.22
396.62	653.01
396.81	592.16
397.00	685.78
397.19	706.84
397.39	669.39
397.58	678.76
397.77	641.31
397.97	674.07
398.16	603.86
398.35	634.29
398.55	671.73
398.74	730.25
398.93	774.72
399.12	746.63
399.32	685.78
399.51	706.84
399.70	741.95
399.90	770.04
400.09	739.61
400.28	812.17
400.47	753.65
400.67	812.17
400.86	781.74
401.05	748.97
401.24	784.08
401.44	910.47
401.63	739.61
401.82	816.85
402.01	788.76
402.21	833.23
402.40	833.23
402.59	833.23
402.78	887.06
402.97	868.34
403.17	896.43
403.36	791.10
403.55	800.46
403.74	894.08
403.93	987.71
404.13	823.87
404.32	847.27
404.51	880.04
404.70	957.28
404.89	875.36
405.09	938.55
405.28	929.19
405.47	943.24
405.66	959.62
405.85	990.05
406.05	1020.47
406.24	987.71
406.43	999.41
406.62	952.60
406.81	1053.24
407.00	1020.47
407.20	1046.22
407.39	1050.90
407.58	1097.71
407.77	1109.41
407.96	1060.26
408.15	1071.97
408.34	1132.82
408.54	1116.44
408.73	1125.80
408.92	1107.07
409.11	1107.07
409.30	1184.31
409.49	1053.24
409.68	1132.82
409.87	1153.88
410.07	1207.72
410.26	1224.10
410.45	1235.80
410.64	1111.75
410.83	1177.29
411.02	1207.72
411.21	1280.27
411.40	1259.21
411.59	1282.61
411.78	1231.12
411.98	1310.70
412.17	1245.16
412.36	1261.55
412.55	1341.13
412.74	1371.55
412.93	1390.28
413.12	1345.81
413.31	1441.77
413.50	1437.09
413.69	1373.89
413.88	1497.94
414.07	1306.02
414.26	1493.26
414.45	1423.05
414.64	1437.09
414.83	1638.38
415.02	1526.03
415.22	1589.22
415.41	1507.30
415.60	1596.25
415.79	1612.63
415.98	1626.67
416.17	1561.14
416.36	1575.18
416.55	1626.67
416.74	1654.76
416.93	1617.31
417.12	1652.42
417.31	1699.23
417.50	1645.40
417.69	1837.32
417.88	1673.48
418.07	1795.19
418.26	1727.32
418.45	1661.78
418.64	1806.89
418.83	1732.00
419.02	1729.66
419.21	1849.02
419.39	1837.32
419.58	1757.74
419.77	1851.36
419.96	1797.53
420.15	1905.20
420.34	1898.17
420.53	1919.24
420.72	1919.24
420.91	1886.47
421.10	1984.77
421.29	1980.09
421.48	1891.15
421.67	1891.15
421.86	1905.20
422.05	1942.64
422.24	2010.52
422.43	1935.62
422.61	1940.30
422.80	2073.71
422.99	2026.90
423.18	2045.63
423.37	2022.22
423.56	1973.07
423.75	2010.52
423.94	2010.52
424.13	1844.34
424.32	1863.07
424.50	2005.84
424.69	2057.33
424.88	2059.67
425.07	1970.73
425.26	2118.18
425.45	1970.73
425.64	2050.31
425.83	2029.24
426.01	2005.84
426.20	2008.18
426.39	2017.54
426.58	2033.93
426.77	2024.56
426.96	2197.76
427.15	2017.54
427.33	2059.67
427.52	2115.84
427.71	2129.89
427.90	2139.25
428.09	2127.55
428.28	2223.51
428.46	2176.70
428.65	2253.94
428.84	2296.07
429.03	2300.75
429.22	2155.63
429.40	2289.04
429.59	2300.75
429.78	2165.00
429.97	2129.89
430.16	2218.83
430.34	2305.43
430.53	2277.34
430.72	2443.52
430.91	2314.79
431.10	2300.75
431.28	2345.22
431.47	2415.43
431.66	2373.30
431.85	2434.16
432.03	2427.14
432.22	2565.23
432.41	2448.20
432.60	2527.78
432.79	2422.45
432.97	2518.42
433.16	2342.88
433.35	2572.25
433.54	2455.22
433.72	2403.73
433.91	2438.84
434.10	2513.74
434.28	2464.58
434.47	2586.29
434.66	2523.10
434.85	2562.89
435.03	2569.91
435.22	2574.59
435.41	2630.76
435.59	2698.64
435.78	2602.68
435.97	2661.19
436.16	2612.04
436.34	2717.36
436.53	2696.30
436.72	2787.58
436.90	2677.57
437.09	2766.51
437.28	2661.19
437.46	2801.62
437.65	2677.57
437.84	2850.77
438.02	2665.87
438.21	2822.69
438.40	2789.92
438.58	2904.60
438.77	2885.88
438.96	2916.31
439.14	2930.35
439.33	2925.67
439.52	2956.10
439.70	2995.89
439.89	2979.50
440.08	2960.78
440.26	3122.27
440.45	3049.72
440.63	3119.93
440.82	3023.97
441.01	3054.40
441.19	3197.17
441.38	3272.07
441.57	3290.79
441.75	3293.13
441.94	3213.56
442.12	3251.00
442.31	3363.35
442.50	3349.31
442.68	3286.11
442.87	3358.67
443.05	3421.86
443.24	3349.31
443.43	3393.78
443.61	3377.39
443.80	3349.31
443.98	3323.56
444.17	3393.78
444.35	3351.65
444.54	3382.07
444.73	3487.40
444.91	3506.12
445.10	3440.59
445.28	3398.46
445.47	3461.65
445.65	3445.27
445.84	3344.63
446.02	3475.70
446.21	3520.17
446.39	3461.65
446.58	3412.50
446.77	3370.37
446.95	3501.44
447.14	3428.88
447.32	3515.48
447.51	3499.10
447.69	3578.68
447.88	3569.32
448.06	3618.47
448.25	3386.76
448.43	3459.31
448.62	3672.30
448.80	3463.99
448.99	3566.98
449.17	3646.55
449.36	3564.64
449.54	3716.77
449.73	3611.45
449.91	3705.07
450.10	3726.13
450.28	3988.27
450.46	3805.71
450.65	3676.98
450.83	3815.07
451.02	3761.24
451.20	3712.09
451.39	3852.52
451.57	3737.84
451.76	3836.14
451.94	3822.09
452.13	3875.93
452.31	3822.09
452.49	3676.98
452.68	3859.54
452.86	3784.65
453.05	3833.80
453.23	3922.74
453.42	3873.59
453.60	3831.46
453.78	3836.14
453.97	3941.46
454.15	3992.95
454.34	4037.42
454.52	4131.05
454.70	3901.67
454.89	4060.83
455.07	4131.05
455.26	4098.28
455.44	4168.49
455.62	4091.26
455.81	4058.49
455.99	4128.70
456.17	4170.83
456.36	4032.74
456.54	4152.11
456.73	4315.95
456.91	4273.82
457.09	4236.37
457.28	4388.50
457.46	4290.20
457.64	4383.82
457.83	4514.89
458.01	4327.65
458.19	4372.12
458.38	4376.80
458.56	4339.35
458.74	4376.80
458.93	4341.69
459.11	4393.19
459.29	4409.57
459.48	4545.32
459.66	4610.86
459.84	4580.43
460.03	4444.68
460.21	4568.73
460.39	4634.26
460.57	4461.06
460.76	4505.53
460.94	4702.14
461.12	4655.33
461.31	4603.83
461.49	4706.82
461.67	4629.58
461.85	4741.93
462.04	4723.20
462.22	4877.68
462.40	4681.07
462.59	4718.52
462.77	4634.26
462.95	4758.31
463.13	4786.40
463.32	4765.33
463.50	4952.57
463.68	4910.44
463.86	4835.55
464.05	4732.56
464.23	4716.18
464.41	4760.65
464.59	4786.40
464.78	4985.34
464.96	4985.34
465.14	4830.87
465.32	5029.81
465.50	5020.45
465.69	5177.26
465.87	4901.08
466.05	4889.38
466.23	5179.61
466.41	5195.99
466.60	5221.74
466.78	5004.07
466.96	5060.24
467.14	5172.58
467.32	5046.20
467.51	5334.08
467.69	4999.38
467.87	5144.50
468.05	5170.24
468.23	5186.63
468.41	5238.12
468.60	5198.33
468.78	5287.27
468.96	5163.22
469.14	5212.37
469.32	5416.00
469.50	5313.02
469.69	5359.83
469.87	5451.11
470.05	5413.66
470.23	5268.55
470.41	5434.72
470.59	5479.19
470.77	5362.17
470.95	5439.40
471.14	5673.46
471.32	5460.47
471.50	5619.63
471.68	5526.00
471.86	5680.48
472.04	5687.50
472.22	5783.46
472.40	5579.84
472.58	5853.68
472.77	5900.49
472.95	5750.70
473.13	5813.89
473.31	5790.49
473.49	5825.59
473.67	5902.83
473.85	6005.81
474.03	5935.60
474.21	5947.30
474.39	6104.12
474.57	6080.71
474.75	6122.84
474.93	6230.51
475.12	6214.12
475.30	6258.59
475.48	6010.50
475.66	6155.61
475.84	6242.21
476.02	6342.85
476.20	6300.72
476.38	6511.37
476.56	6537.12
476.74	6546.48
476.92	6705.63
477.10	6546.48
477.28	6736.06
477.46	6593.29
477.64	6867.13
477.82	6700.95
478.00	6876.49
478.18	6967.77
478.36	6686.91
478.54	6995.86
478.72	7131.61
478.90	7143.32
479.08	7084.80
479.26	7148.00
479.44	7396.09
479.62	7330.56
479.80	7508.44
479.98	7510.78
480.16	7456.95
480.34	7588.02
480.52	7639.51
480.70	7672.28
480.88	7742.49
481.06	7765.90
481.24	7756.54
481.41	7618.44
481.59	8023.36
481.77	8154.43
481.95	7918.03
482.13	8030.38
482.31	8269.11
482.49	8259.75
482.67	8098.25
482.85	8304.22
483.03	8351.03
483.21	8568.70
483.39	8608.49
483.57	8674.03
483.74	8645.94
483.92	8674.03
484.10	8645.94
484.28	8861.27
484.46	8968.93
484.64	9240.44
484.82	9097.66
485.00	9130.43
485.18	9184.26
485.35	9504.92
485.53	9448.74
485.71	9500.23
485.89	9650.03
486.07	9472.15
486.25	9671.09
486.43	9813.87
486.61	9827.91
486.78	9867.70
486.96	9970.68
487.14	10253.89
487.32	9764.72
487.50	10176.65
487.68	10387.30
487.85	10214.10
488.03	10314.74
488.21	10630.71
488.39	10700.93
488.57	10494.96
488.75	10766.46
488.92	10810.93
489.10	11171.38
489.28	11154.99
489.46	11101.16
489.64	11044.99
489.81	11459.26
489.99	11356.28
490.17	11316.49
490.35	11564.59
490.53	11632.46
490.70	11566.93
490.88	11477.99
491.06	11747.15
491.24	11576.29
491.41	11939.07
491.59	12112.27
491.77	11974.18
491.95	12280.79
492.13	12269.09
492.30	12374.41
492.48	12266.75
492.66	12423.56
492.84	12486.76
493.01	12776.98
493.19	12437.61
493.37	12666.98
493.54	12936.14
493.72	12856.56
493.90	12805.07
494.08	13167.85
494.25	12978.27
494.43	13097.64
494.61	13125.72
494.79	13195.94
494.96	13350.42
495.14	13329.35
495.32	13579.79
495.49	13446.38
495.67	13862.99
495.85	13668.73
496.02	13965.98
496.20	14071.30
496.38	13951.93
496.55	14019.81
496.73	14396.64
496.91	13984.70
497.09	14157.90
497.26	14424.72
497.44	14253.86
497.62	14150.88
497.79	14609.62
497.97	14513.66
498.14	14946.66
498.32	14920.92
498.50	14967.73
498.67	14986.45
498.85	14822.61
499.03	15229.87
499.20	14988.79
499.38	15070.71
499.56	15204.12
499.73	15515.41
499.91	15463.92
500.08	15456.90
500.26	15323.49
500.44	15393.70
500.61	15431.15
500.79	15311.78
500.97	15971.82
501.14	15805.64
501.32	15744.78
501.49	15922.66
501.67	15789.25
501.84	15929.69
502.02	15910.96
502.20	15992.88
502.37	16374.39
502.55	15941.39
502.72	16191.83
502.90	16350.98
503.07	16306.51
503.25	16458.65
503.43	16173.10
503.60	16475.03
503.78	16730.15
503.95	16409.50
504.13	16486.73
504.30	16711.42
504.48	16606.10
504.65	16648.23
504.83	17195.92
505.01	17153.79
505.18	16805.05
505.36	17322.30
505.53	17053.14
505.71	17172.51
505.88	17277.83
506.06	17153.79
506.23	17245.07
506.41	17245.07
506.58	17209.96
506.76	17415.93
506.93	17509.55
507.11	17273.15
507.28	17429.97
507.46	17668.70
507.63	17703.81
507.81	17935.53
507.98	17743.60
508.16	17806.80
508.33	17668.70
508.50	17551.68
508.68	17827.86
508.85	17862.97
509.03	18274.90
509.20	18139.15
509.38	18080.64
509.55	18429.38
509.73	18382.57
509.90	18410.65
510.08	18429.38
510.25	18352.14
510.42	18515.98
510.60	18370.86
510.77	18415.34
510.95	18888.12
511.12	18562.79
511.30	18778.12
511.47	18843.65
511.64	18883.44
511.82	19063.66
511.99	18930.25
512.17	19227.50
512.34	18869.40
512.51	19325.80
512.69	19403.04
512.86	19117.50
513.04	19246.23
513.21	19473.26
513.38	19796.25
513.56	19601.99
513.73	19447.51
513.90	19391.34
514.08	19386.66
514.25	19609.01
514.43	19594.96
514.60	19751.78
514.77	19929.66
514.95	19906.26
515.12	19861.79
515.29	19798.59
515.47	20292.44
515.64	20161.37
515.81	19910.94
515.99	20130.95
516.16	20702.04
516.33	20444.58
516.51	20334.57
516.68	20346.28
516.85	20322.87
517.03	20650.55
517.20	20505.43
517.37	20744.17
517.54	20697.36
517.72	20676.29
517.89	20636.50
518.06	20601.40
518.24	20842.47
518.41	20545.22
518.58	20788.64
518.75	20713.74
518.93	21018.01
519.10	21088.23
519.27	20980.56
519.45	21319.94
519.62	20886.94
519.79	21137.38
519.96	21109.29
520.14	21525.91
520.31	21029.71
520.48	21315.26
520.65	21483.78
520.83	21326.96
521.00	21387.82
521.17	21575.06
521.34	21401.86
521.52	21369.09
521.69	21656.98
521.86	21568.04
522.03	21722.51
522.20	21972.95
522.38	22031.46
522.55	21795.07
522.72	21837.20
522.89	22097.00
523.07	22017.42
523.24	22057.21
523.41	22050.19
523.58	22106.36
523.75	22143.81
523.92	22181.26
524.10	22045.51
524.27	22188.28
524.44	22544.04
524.61	22806.18
524.78	22572.13
524.96	22298.28
525.13	22754.69
525.30	22562.76
525.47	22586.17
525.64	22808.52
525.81	22670.43
525.98	22604.89
526.16	22780.43
526.33	22768.73
526.50	23101.09
526.67	22644.68
526.84	22719.58
527.01	22979.38
527.18	22892.78
527.36	23154.92
527.53	23215.77
527.70	23491.96
527.87	23087.04
528.04	22988.74
528.21	23234.50
528.38	23091.73
528.55	23473.23
528.72	23269.61
528.89	23183.01
529.07	23463.87
529.24	23346.84
529.41	23339.82
529.58	23363.23
529.75	23232.16
529.92	23754.10
530.09	23644.09
530.26	24182.42
530.43	24095.82
530.60	23653.45
530.77	23749.42
530.94	23716.65
531.11	23573.88
531.28	23744.73
531.46	24315.83
531.63	23999.85
531.80	23850.06
531.97	24203.48
532.14	24095.82
532.31	24147.31
532.48	24156.67
532.65	24112.20
532.82	24184.76
532.99	24247.95
533.16	24121.56
533.33	24470.30
533.50	24903.30
533.67	24072.41
533.84	24308.80
534.01	24706.70
534.18	24325.19
534.35	24524.13
534.52	24608.39
534.69	24680.95
534.86	24648.18
535.03	24819.04
535.20	24959.47
535.37	24524.13
535.54	24685.63
535.71	24641.16
535.88	24961.81
536.05	25177.14
536.22	25184.16
536.38	25223.95
536.55	24840.11
536.72	25266.08
536.89	25001.60
537.06	24971.18
537.23	25062.46
537.40	25170.12
537.57	25191.19
537.74	25216.93
537.91	25472.05
538.08	25338.64
538.25	25268.42
538.42	25448.64
538.59	25560.99
538.75	25387.79
538.92	25268.42
539.09	25350.34
539.26	25228.63
539.43	25399.49
539.60	25694.40
539.77	25668.66
539.94	25795.04
540.11	25436.94
540.28	25727.17
540.44	25671.00
540.61	25469.71
540.78	25806.75
540.95	25678.02
541.12	25568.01
541.29	25708.44
541.46	25675.68
541.62	26010.37
541.79	25762.28
541.96	25799.73
542.13	25785.68
542.30	25771.64
542.47	26092.29
542.63	26590.83
542.80	26054.84
542.97	26513.59
543.14	26658.70
543.31	26103.99
543.48	26101.65
543.64	26436.35
543.81	26773.39
543.98	26558.06
544.15	26871.69
544.32	26389.54
544.48	26778.07
544.65	26478.48
544.82	26590.83
544.99	26391.88
545.16	26710.19
545.32	26314.64
545.49	26939.57
545.66	27035.53
545.83	26869.35
546.00	26752.32
546.16	26780.41
546.33	26644.66
546.50	26913.82
546.67	27101.06
546.83	26469.12
547.00	27154.90
547.17	26780.41
547.34	27026.17
547.50	27220.43
547.67	27325.75
547.84	27087.02
548.00	27232.13
548.17	27363.20
548.34	27122.13
548.51	27487.25
548.67	27410.01
548.84	27180.64
549.01	27283.62
549.18	27292.99
549.34	27339.80
549.51	27173.62
549.68	27271.92
549.84	27391.29
550.01	27365.54
550.18	27222.77
550.34	27470.87
550.51	27695.56
550.68	27695.56
550.84	27260.22
551.01	28077.07
551.18	27236.81
551.34	27754.07
551.51	27246.18
551.68	27447.46
551.84	27400.65
552.01	27957.70
552.18	28048.98
552.34	27948.34
552.51	27597.26
552.68	27590.24
552.84	27955.36
553.01	28053.66
553.18	28020.89
553.34	28243.24
553.51	28294.74
553.67	27924.93
553.84	28226.86
554.01	28226.86
554.17	27810.25
554.34	28245.58
554.51	28112.17
554.67	27948.34
554.84	28032.60
555.00	28098.13
555.17	28222.18
555.33	28156.64
555.50	28229.20
555.67	28395.38
555.83	28538.15
556.00	28261.97
556.16	28561.56
556.33	28416.44
556.50	28079.41
556.66	28617.73
556.83	28285.37
556.99	28570.92
557.16	28779.23
557.32	28758.16
557.49	28807.31
557.65	27948.34
557.82	28486.66
557.98	28285.37
558.15	28804.97
558.32	28776.89
558.48	28652.84
558.65	28732.42
558.81	28505.38
558.98	28575.60
559.14	29146.69
559.31	28723.05
559.47	28666.88
559.64	28725.39
559.80	28795.61
559.97	28966.47
560.13	28489.00
560.30	28826.04
560.46	28748.80
560.63	28847.10
560.79	29036.69
560.96	28634.11
561.12	28826.04
561.29	28879.87
561.45	28760.50
561.61	29118.60
561.78	29137.33
561.94	29113.92
562.11	28924.34
562.27	28961.79
562.44	29120.95
562.60	28931.36
562.77	29209.89
562.93	28807.31
563.10	29486.07
563.26	29069.45
563.42	29322.23
563.59	28978.17
563.75	29163.08
563.92	28964.13
564.08	29179.46
564.24	29219.25
564.41	28889.23
564.57	28893.91
564.74	28896.25
564.90	29556.28
565.07	29191.16
565.23	29034.35
565.39	29282.44
565.56	29560.97
565.72	29207.55
565.88	29394.79
566.05	29095.20
566.21	29041.37
566.38	29113.92
566.54	29418.19
566.70	29193.50
566.87	29153.71
567.03	29441.60
567.19	30043.12
567.36	29149.03
567.52	29680.33
567.68	29769.27
567.85	29359.68
568.01	29565.65
568.17	29050.73
568.34	29425.22
568.50	29523.52
568.66	29560.97
568.83	29905.02
568.99	29109.24
569.15	29780.98
569.32	29092.86
569.48	29324.57
569.64	29600.76
569.81	29418.19
569.97	29668.63
570.13	29731.83
570.30	29584.37
570.46	29457.98
570.62	29638.20
570.78	29553.94
570.95	29223.93
571.11	29556.28
571.27	29221.59
571.43	29469.69
571.60	29443.94
571.76	29532.88
571.92	29277.76
572.09	29780.98
572.25	29923.75
572.41	29759.91
572.57	29621.82
572.74	29820.77
572.90	29427.56
573.06	29654.59
573.22	29851.19
573.38	29886.30
573.55	29738.85
573.71	29874.60
573.87	29848.85
574.03	29483.73
574.20	29457.98
574.36	29881.62
574.52	29483.73
574.68	29385.43
574.84	29823.11
575.01	29933.11
575.17	29858.21
575.33	29394.79
575.49	29642.88
575.65	30024.39
575.82	29614.80
575.98	29832.47
576.14	29825.45
576.30	29750.55
576.46	29998.65
576.62	29790.34
576.79	29605.44
576.95	29600.76
577.11	29905.02
577.27	29692.04
577.43	29750.55
577.59	30073.54
577.75	29741.19
577.92	29872.26
578.08	29642.88
578.24	30089.93
578.40	30073.54
578.56	29532.88
578.72	29722.46
578.88	30087.59
579.04	29902.68
579.21	30000.99
579.37	30071.20
579.53	30141.42
579.69	29661.61
579.85	29937.79
580.01	29514.16
580.17	29968.22
580.33	29670.97
580.49	29820.77
580.65	30073.54
580.82	29923.75
580.98	29820.77
581.14	29670.97
581.30	30010.35
581.46	29645.23
581.62	29930.77
581.78	29722.46
581.94	30043.12
582.10	29605.44
582.26	29369.04
582.42	29699.06
582.58	30235.04
582.74	29972.90
582.90	30071.20
583.06	29560.97
583.22	29790.34
583.38	29916.73
583.54	30176.53
583.70	30143.76
583.86	30136.74
584.02	30075.88
584.18	30225.68
584.34	29890.98
584.50	30000.99
584.66	29874.60
584.82	29722.46
584.98	29935.45
585.14	29923.75
585.30	29841.83
585.46	30274.83
585.62	29902.68
585.78	30190.57
585.94	29792.68
586.10	29900.34
586.26	30204.61
586.42	30448.03
586.58	30024.39
586.74	29818.42
586.90	29324.57
587.06	29940.13
587.22	30401.22
587.38	30101.63
587.54	30110.99
587.70	30080.56
587.86	30368.45
588.02	30218.66
588.18	30335.68
588.34	30300.58
588.49	30246.74
588.65	30059.50
588.81	29853.53
588.97	30136.74
589.13	30221.00
589.29	30307.60
589.45	30118.01
589.61	30272.49
589.77	30305.26
589.93	30347.39
590.08	30237.38
590.24	30384.83
590.40	30412.92
590.56	30553.35
590.72	29944.81
590.88	29921.41
591.04	30543.99
591.20	30628.25
591.35	30302.92
591.51	30506.54
591.67	30476.12
591.83	30972.31
591.99	30649.32
592.15	30305.26
592.31	30457.39
592.46	30228.02
592.62	30558.03
592.78	30157.80
592.94	30340.36
593.10	30551.01
593.26	30595.48
593.41	30478.46
593.57	30307.60
593.73	30717.19
593.89	30436.33
594.05	30569.74
594.20	29930.77
594.36	30628.25
594.52	30551.01
594.68	30125.04
594.84	30015.03
594.99	30632.93
595.15	30398.88
595.31	30623.57
595.47	30429.30
595.62	30654.00
595.78	30635.27
595.94	30579.10
596.10	30132.06
596.25	30513.56
596.41	30356.75
596.57	30436.33
596.73	30347.39
596.88	30471.43
597.04	30714.85
597.20	30525.27
597.36	30595.48
597.51	30724.21
597.67	30260.79
597.83	30408.24
597.99	30450.37
598.14	30485.48
598.30	30389.52
598.46	30497.18
598.61	30745.28
598.77	30794.43
598.93	30328.66
599.09	31159.55
599.24	31206.36
599.40	30857.62
599.56	30904.43
599.71	30277.17
599.87	30803.79
600.03	30579.10
600.18	30424.62
600.34	30239.72
600.50	30471.43
600.65	30403.56
600.81	30431.65
600.97	31005.08
601.12	30925.50
601.28	31021.46
601.44	30522.93
601.59	30696.13
601.75	30272.49
601.91	30771.02
602.06	30504.20
602.22	30616.55
602.37	30462.07
602.53	30630.59
602.69	30558.03
602.84	30529.95
603.00	30370.79
603.16	30761.66
603.31	30761.66
603.47	30569.74
603.62	30387.18
603.78	30749.96
603.94	30611.87
604.09	30288.87
604.25	30265.47
604.40	30307.60
604.56	30443.35
604.71	30953.58
604.87	30611.87
605.03	30565.06
605.18	30443.35
605.34	30668.04
605.49	30632.93
605.65	30511.22
605.80	30295.89
605.96	30174.19
606.12	30387.18
606.27	30918.48
606.43	30340.36
606.58	30759.32
606.74	30436.33
606.89	30431.65
607.05	30132.06
607.20	30211.64
607.36	30614.21
607.51	30607.19
607.67	30529.95
607.82	30359.09
607.98	30274.83
608.13	30628.25
608.29	30712.51
608.44	30452.71
608.60	30391.86
608.75	30742.94
608.91	30560.37
609.06	30443.35
609.22	30614.21
609.37	30396.54
609.53	29921.41
609.68	30410.58
609.84	30305.26
609.99	30150.78
610.15	30464.41
610.30	29780.98
610.46	30209.29
610.61	30352.07
610.76	30190.57
610.92	30415.26
611.07	30597.82
611.23	30359.09
611.38	30059.50
611.54	30015.03
611.69	29919.07
611.84	29984.60
612.00	29757.57
612.15	29914.39
612.31	30384.83
612.46	29972.90
612.62	29895.66
612.77	30305.26
612.92	30342.70
613.08	30333.34
613.23	30342.70
613.39	29834.81
613.54	30054.82
613.69	29933.11
613.85	29869.92
614.00	30185.89
614.15	30110.99
614.31	29893.32
614.46	29858.21
614.62	30274.83
614.77	30155.46
614.92	30050.14
615.08	29551.60
615.23	30008.01
615.38	29909.71
615.54	29776.30
615.69	29944.81
615.84	29687.36
616.00	30555.69
616.15	29642.88
616.30	29895.66
616.46	29738.85
616.61	29914.39
616.76	29813.74
616.92	29848.85
617.07	30101.63
617.22	29563.31
617.37	29694.38
617.53	29413.51
617.68	29432.24
617.83	29619.48
617.99	29591.39
618.14	29532.88
618.29	29586.71
618.45	29876.94
618.60	29832.47
618.75	29699.06
618.90	29680.33
619.06	29869.92
619.21	29504.79
619.36	29277.76
619.51	29427.56
619.67	29142.01
619.82	29467.34
619.97	29839.49
620.12	29010.94
620.28	29331.59
620.43	29422.87
620.58	29640.54
620.73	29436.92
620.89	29755.23
621.04	29462.66
621.19	29408.83
621.34	28978.17
621.49	29507.13
621.65	29244.99
621.80	29113.92
621.95	29088.18
622.10	29371.38
622.25	28720.71
622.41	29291.80
622.56	29034.35
622.71	29160.73
622.86	29216.91
623.01	29235.63
623.16	29305.85
623.32	29149.03
623.47	29069.45
623.62	29181.80
623.77	29010.94
623.92	29001.58
624.07	29071.79
624.23	28971.15
624.38	28877.53
624.53	29036.69
624.68	28926.68
624.83	29067.11
624.98	28940.72
625.13	29177.12
625.29	28875.19
625.44	28872.85
625.59	28615.39
625.74	28706.67
625.89	28914.98
626.04	28795.61
626.19	28540.49
626.34	28510.07
626.49	28393.04
626.65	28168.35
626.80	28737.10
626.95	28807.31
627.10	28683.27
627.25	28606.03
627.40	28538.15
627.55	28329.84
627.70	28446.87
627.85	28608.37
628.00	28589.64
628.15	28283.03
628.30	28444.53
628.45	28268.99
628.60	28568.58
628.76	28343.89
628.91	28732.42
629.06	28577.94
629.21	28327.50
629.36	28563.90
629.51	28182.39
629.66	27988.13
629.81	28046.64
629.96	28421.13
630.11	28510.07
630.26	27985.79
630.41	28245.58
630.56	28044.30
630.71	28006.85
630.86	28477.30
631.01	28341.55
631.16	28339.21
631.31	27960.04
631.46	28070.04
631.61	28512.41
631.76	28208.14
631.91	27985.79
632.06	27803.22
632.21	27936.63
632.36	27775.14
632.51	27597.26
632.66	27894.50
632.81	27653.43
632.96	27976.42
633.10	28088.77
633.25	27875.78
633.40	28025.57
633.55	27983.44
633.70	27714.28
633.85	27669.81
634.00	27615.98
634.15	27880.46
634.30	27604.28
634.45	27702.58
634.60	27786.84
634.75	27725.99
634.90	27946.00
635.05	27913.23
635.19	27798.54
635.34	27889.82
635.49	27557.47
635.64	27770.46
635.79	27723.65
635.94	27615.98
636.09	27817.27
636.24	27864.08
636.39	27470.87
636.53	27695.56
636.68	27241.50
636.83	27494.27
636.98	27779.82
637.13	27513.00
637.28	27498.95
637.43	27316.39
637.57	27267.24
637.72	27445.12
637.87	27330.44
638.02	27290.65
638.17	27182.98
638.32	27501.29
638.46	27222.77
638.61	27290.65
638.76	27012.12
638.91	27218.09
639.06	27330.44
639.20	27417.04
639.35	27782.16
639.50	27325.75
639.65	27857.06
639.80	27543.42
639.94	27491.93
640.09	27063.61
640.24	27171.28
640.39	27197.02
640.54	27297.67
640.68	26799.13
640.83	26803.82
640.98	27023.83
641.13	26831.90
641.27	26892.76
641.42	27173.62
641.57	27117.45
641.72	26787.43
641.86	26906.80
642.01	26890.41
642.16	27056.59
642.31	26920.84
642.45	26686.79
642.60	26649.34
642.75	26476.14
642.90	27080.00
643.04	26789.77
643.19	26897.44
643.34	26906.80
643.48	26684.45
643.63	26651.68
643.78	26534.65
643.93	26703.17
644.07	26544.02
644.22	26855.31
644.37	26747.64
644.51	26654.02
644.66	26888.07
644.81	26363.79
644.95	26398.90
645.10	26293.58
645.25	26553.38
645.39	26569.76
645.54	26544.02
645.69	26663.38
645.83	26267.83
645.98	26672.74
646.13	26614.23
646.27	26721.90
646.42	26429.33
646.57	26504.23
646.71	26448.05
646.86	26485.50
647.00	26410.60
647.15	26396.56
647.30	26136.76
647.44	26120.38
647.59	26251.45
647.74	26218.68
647.88	26342.73
648.03	26548.70
648.17	26621.25
648.32	26398.90
648.47	26457.42
648.61	26038.46
648.76	26525.29
648.90	26174.21
649.05	26326.35
649.20	26134.42
649.34	26040.80
649.49	25876.96
649.63	26485.50
649.78	25820.79
649.92	25809.09
650.07	25694.40
650.21	26183.57
650.36	26445.71
650.51	26050.16
650.65	26068.89
650.80	25883.98
650.94	25778.66
651.09	26038.46
651.23	25855.90
651.38	25834.83
651.52	25933.14
651.67	25722.49
651.81	26031.44
651.96	25862.92
652.10	25511.84
652.25	25998.67
652.39	25891.01
652.54	25961.22
652.68	25799.73
652.83	25851.22
652.97	25668.66
653.12	25668.66
653.26	25565.67
653.41	25717.81
653.55	25539.93
653.70	25432.26
653.84	25441.62
653.99	25652.27
654.13	25383.11
654.27	25621.84
654.42	25191.19
654.56	25312.89
654.71	25687.38
654.85	25333.96
655.00	25696.74
655.14	25385.45
655.29	25722.49
655.43	25638.23
655.57	25415.88
655.72	25088.20
655.86	25303.53
656.01	25596.10
656.15	25172.46
656.30	25404.17
656.44	25352.68
656.58	25039.05
656.73	25219.27
656.87	25254.38
657.01	25460.35
657.16	25312.89
657.30	25081.18
657.45	25551.63
657.59	25156.08
657.73	25238.00
657.88	25085.86
658.02	24940.75
658.16	25123.31
658.31	24882.24
658.45	24959.47
658.60	24755.85
658.74	25317.57
658.88	25036.71
659.03	24519.45
659.17	24774.57
659.31	25003.94
659.46	24751.17
659.60	24711.38
659.74	25081.18
659.89	24570.94
660.03	24526.47
660.17	24849.47
660.32	24510.09
660.46	24744.14
660.60	24217.52
660.74	24573.28
660.89	24287.74
661.03	24306.46
661.17	24322.85
661.32	24528.81
661.46	24456.26
661.60	24577.97
661.74	24386.04
661.89	24584.99
662.03	24343.91
662.17	24353.27
662.31	24231.57
662.46	24222.20
662.60	24369.66
662.74	23667.50
662.88	24257.31
663.03	24034.96
663.17	23821.97
663.31	23683.88
663.45	23770.48
663.60	24266.67
663.74	24151.99
663.88	24332.21
664.02	23981.13
664.17	23955.38
664.31	23733.03
664.45	23903.89
664.59	23726.01
664.73	24041.98
664.88	23442.81
665.02	23545.79
665.16	23419.40
665.30	23147.90
665.44	23578.56
665.59	23599.62
665.73	23463.87
665.87	23417.06
666.01	23393.65
666.15	23384.29
666.29	23281.31
666.44	23578.56
666.58	23377.27
666.72	23063.64
666.86	23005.13
667.00	23234.50
667.14	22993.42
667.28	22977.04
667.43	23075.34
667.57	22986.40
667.71	23063.64
667.85	23089.38
667.99	22958.31
668.13	23164.28
668.27	22792.14
668.41	22888.10
668.56	22932.57
668.70	22958.31
668.84	22647.02
668.98	22984.06
669.12	23119.81
669.26	22831.93
669.40	22792.14
669.54	22644.68
669.68	22546.38
669.82	22541.70
669.96	22518.29
670.10	22459.78
670.25	22085.30
670.39	22319.35
670.53	22403.61
670.67	22373.18
670.81	22218.71
670.95	22019.76
671.09	22504.25
671.23	22333.39
671.37	22181.26
671.51	22295.94
671.65	21888.69
671.79	22183.60
671.93	21853.58
672.07	22019.76
672.21	21734.21
672.35	21961.25
672.49	21668.68
672.63	21734.21
672.77	21692.08
672.91	21757.62
673.05	21245.04
673.19	21745.92
673.33	21441.65
673.47	21685.06
673.61	21532.93
673.75	21678.04
673.89	21830.18
674.03	21341.00
674.17	21458.03
674.31	21348.03
674.45	21404.20
674.59	21214.62
674.73	21338.66
674.87	20943.11
675.01	20968.86
675.15	21006.31
675.29	20982.90
675.43	21022.69
675.56	21057.80
675.70	21041.42
675.84	21078.86
675.98	20507.77
676.12	20746.51
676.26	20903.32
676.40	21067.16
676.54	20636.50
676.68	20425.86
676.82	20500.75
676.96	20650.55
677.10	20355.64
677.23	19999.88
677.37	20180.10
677.51	20416.49
677.65	20315.85
677.79	20016.26
677.93	19695.61
678.07	19927.32
678.21	20034.99
678.34	19992.86
678.48	20065.41
678.62	19852.42
678.76	19599.65
678.90	19494.32
679.04	19466.24
679.18	19723.69
679.31	19260.27
679.45	19208.78
679.59	19147.92
679.73	19417.08
679.87	19260.27
680.00	19264.95
680.14	18965.36
680.28	18960.68
680.42	18972.38
680.56	19070.68
680.70	18995.79
680.83	19164.31
680.97	18988.77
681.11	18586.19
681.25	18836.63
681.39	18848.33
681.52	18787.48
681.66	18759.39
681.80	18415.34
681.94	18375.55
682.07	18515.98
682.21	18455.12
682.35	18176.60
682.49	18045.53
682.62	17905.10
682.76	18036.17
682.90	18352.14
683.04	17727.22
683.17	17989.36
683.31	17846.58
683.45	17996.38
683.59	17970.63
683.72	17867.65
683.86	17750.62
684.00	17654.66
684.13	17865.31
684.27	17764.67
684.41	17326.99
684.55	17228.68
684.68	17329.33
684.82	17525.93
684.96	17270.81
685.09	17104.64
685.23	17106.98
685.37	17062.51
685.50	17303.58
685.64	17121.02
685.78	17060.16
685.91	17160.81
686.05	16875.26
686.19	16596.74
686.32	16926.75
686.46	16444.60
686.60	16449.28
686.73	16669.30
686.87	16238.64
687.01	16514.82
687.14	16418.86
687.28	16334.60
687.42	16421.20
687.55	16093.52
687.69	16189.49
687.82	16060.76
687.96	16016.29
688.10	16278.43
688.23	16116.93
688.37	16072.46
688.50	15796.28
688.64	15925.00
688.78	15754.15
688.91	15810.32
689.05	15775.21
689.18	15796.28
689.32	15129.22
689.46	15192.42
689.59	15384.34
689.73	15222.84
689.86	15344.55
690.00	15192.42
690.13	15534.14
690.27	15218.16
690.41	15194.76
690.54	15056.67
690.68	15342.21
690.81	14792.19
690.95	15070.71
691.08	15023.90
691.22	14836.66
691.35	14867.08
691.49	14668.14
691.62	14806.23
691.76	14738.35
691.89	14459.83
692.03	14387.27
692.16	14438.76
692.30	14445.79
692.43	14370.89
692.57	14190.67
692.70	14202.37
692.84	14024.49
692.97	14111.09
693.11	14403.66
693.24	14354.51
693.38	13970.66
693.51	14146.20
693.65	13998.74
693.78	13790.44
693.92	13949.59
694.05	13862.99
694.19	13970.66
694.32	13357.44
694.45	13837.25
694.59	13479.15
694.72	13249.77
694.86	13296.58
694.99	13247.43
695.13	13334.03
695.26	13310.63
695.39	13303.60
695.53	13378.50
695.66	13256.79
695.80	13212.32
695.93	13226.37
696.07	13146.79
696.20	13083.59
696.33	12926.78
696.47	13160.83
696.60	12961.89
696.73	12594.42
696.87	12690.38
697.00	12622.51
697.14	12556.97
697.27	12458.67
697.40	12444.63
697.54	12236.32
697.67	12133.34
697.80	12154.40
697.94	12173.13
698.07	12346.33
698.21	11922.69
698.34	12091.21
698.47	11918.01
698.61	12166.10
698.74	11941.41
698.87	12088.87
699.01	11946.09
699.14	11861.84
699.27	11822.05
699.40	11934.39
699.54	11548.20
699.67	11541.18
699.80	11510.75
699.94	11503.73
700.07	11304.79
700.20	11234.57
700.34	11440.54
700.47	11173.72
700.60	11262.66
700.73	11396.07
700.87	11211.17
701.00	11302.45
701.13	11250.96
701.26	10995.84
701.40	11112.86
701.53	11150.31
701.66	11068.39
701.79	10862.43
701.93	11026.26
702.06	10689.23
702.19	10813.28
702.32	10668.16
702.46	10562.84
702.59	10576.88
702.72	10441.13
702.85	10473.90
702.99	10394.32
703.12	10382.62
703.25	10216.44
703.38	10354.53
703.51	10434.11
703.65	10174.31
703.78	10338.15
703.91	10546.45
704.04	10111.11
704.17	10106.43
704.31	10118.14
704.44	9961.32
704.57	9970.68
704.70	9877.06
704.83	9631.30
704.96	9703.86
705.10	9727.27
705.23	9827.91
>>>>>End Processed Spectral Data<<<<<
