SpectraSuite Data File
++++++++++++++++++++++++++++++++++++
Date: Fri Oct 18 13:58:15 GMT-05:00 2013
User: bianchi
Dark Spectrum Present: No
Reference Spectrum Present: No
Number of Sampled Component Spectra: 1
Spectrometers: USB2+H05261
Integration Time (usec): 50000 (USB2+H05261)
Spectra Averaged: 1 (USB2+H05261)
Boxcar Smoothing: 0 (USB2+H05261)
Correct for Electrical Dark: No (USB2+H05261)
Strobe/Lamp Enabled: No (USB2+H05261)
Correct for Detector Non-linearity: No (USB2+H05261)
Correct for Stray Light: No (USB2+H05261)
Number of Pixels in Processed Spectrum: 2048
>>>>>Begin Processed Spectral Data<<<<<
365.73	0.00
365.92	0.00
366.12	0.00
366.32	0.00
366.52	0.00
366.72	0.00
366.91	0.00
367.11	0.00
367.31	0.00
367.51	0.00
367.70	0.00
367.90	0.00
368.10	0.00
368.30	0.00
368.49	0.00
368.69	0.00
368.89	0.00
369.09	0.00
369.28	0.00
369.48	0.00
369.68	0.00
369.87	0.00
370.07	0.00
370.27	7.02
370.47	0.00
370.66	102.98
370.86	77.24
371.06	131.07
371.25	95.96
371.45	98.30
371.65	177.88
371.84	119.37
372.04	147.45
372.24	138.09
372.44	280.86
372.63	252.78
372.83	175.54
373.03	159.16
373.22	257.46
373.42	203.63
373.62	234.05
373.81	196.60
374.01	262.14
374.21	297.25
374.40	236.39
374.60	355.76
374.79	205.97
374.99	308.95
375.19	299.59
375.38	297.25
375.58	234.05
375.78	318.31
375.97	210.65
376.17	280.86
376.37	262.14
376.56	276.18
376.76	304.27
376.95	248.10
377.15	276.18
377.35	229.37
377.54	264.48
377.74	313.63
377.93	318.31
378.13	271.50
378.33	299.59
378.52	220.01
378.72	290.23
378.91	287.89
379.11	332.36
379.31	175.54
379.50	337.04
379.70	276.18
379.89	276.18
380.09	315.97
380.28	301.93
380.48	278.52
380.68	283.20
380.87	346.40
381.07	273.84
381.26	290.23
381.46	315.97
381.65	339.38
381.85	313.63
382.04	304.27
382.24	360.44
382.43	353.42
382.63	292.57
382.83	238.73
383.02	348.74
383.22	304.27
383.41	276.18
383.61	346.40
383.80	402.57
384.00	283.20
384.19	383.85
384.39	397.89
384.58	447.04
384.78	334.70
384.97	383.85
385.17	322.99
385.36	367.46
385.56	367.46
385.75	416.62
385.95	365.12
386.14	404.91
386.34	386.19
386.53	355.76
386.72	411.93
386.92	383.85
387.11	428.32
387.31	390.87
387.50	376.83
387.70	404.91
387.89	428.32
388.09	470.45
388.28	449.38
388.48	369.80
388.67	472.79
388.86	472.79
389.06	362.78
389.25	486.83
389.45	411.93
389.64	416.62
389.84	444.70
390.03	524.28
390.22	449.38
390.42	407.25
390.61	500.87
390.81	365.12
391.00	479.81
391.19	503.22
391.39	451.72
391.58	454.06
391.78	564.07
391.97	486.83
392.16	461.09
392.36	550.03
392.55	594.50
392.75	559.39
392.94	510.24
393.13	596.84
393.33	545.34
393.52	571.09
393.71	594.50
393.91	554.71
394.10	629.60
394.29	622.58
394.49	521.94
394.68	571.09
394.88	550.03
395.07	550.03
395.26	575.77
395.46	638.97
395.65	638.97
395.84	650.67
396.04	638.97
396.23	620.24
396.42	592.16
396.62	599.18
396.81	582.79
397.00	617.90
397.19	676.41
397.39	627.26
397.58	578.11
397.77	695.14
397.97	636.63
398.16	720.88
398.35	727.91
398.55	653.01
398.74	627.26
398.93	739.61
399.12	718.54
399.32	699.82
399.51	798.12
399.70	753.65
399.90	720.88
400.09	709.18
400.28	770.04
400.47	716.20
400.67	765.36
400.86	720.88
401.05	739.61
401.24	795.78
401.44	814.51
401.63	887.06
401.82	727.91
402.01	755.99
402.21	788.76
402.40	704.50
402.59	753.65
402.78	882.38
402.97	858.98
403.17	844.93
403.36	826.21
403.55	926.85
403.74	887.06
403.93	856.64
404.13	891.74
404.32	903.45
404.51	898.77
404.70	805.14
404.89	898.77
405.09	823.87
405.28	912.81
405.47	933.87
405.66	964.30
405.85	966.64
406.05	917.49
406.24	1041.54
406.43	882.38
406.62	1036.86
406.81	978.34
407.00	943.24
407.20	966.64
407.39	976.00
407.58	1055.58
407.77	1114.10
407.96	1123.46
408.15	1041.54
408.34	1027.50
408.54	1123.46
408.73	1055.58
408.92	1011.11
409.11	1128.14
409.30	1083.67
409.49	1151.54
409.68	1142.18
409.87	1064.94
410.07	1170.27
410.26	1137.50
410.45	1184.31
410.64	1238.14
410.83	1240.48
411.02	1228.78
411.21	1324.74
411.40	1158.57
411.59	1142.18
411.78	1181.97
411.98	1268.57
412.17	1221.76
412.36	1270.91
412.55	1320.06
412.74	1310.70
412.93	1334.11
413.12	1259.21
413.31	1427.73
413.50	1348.15
413.69	1430.07
413.88	1366.87
414.07	1526.03
414.26	1481.56
414.45	1511.99
414.64	1462.83
414.83	1533.05
415.02	1526.03
415.22	1486.24
415.41	1577.52
415.60	1643.06
415.79	1650.08
415.98	1652.42
416.17	1598.59
416.36	1629.01
416.55	1547.09
416.74	1607.95
416.93	1685.19
417.12	1631.35
417.31	1647.74
417.50	1671.14
417.69	1701.57
417.88	1699.23
418.07	1739.02
418.26	1778.81
418.45	1706.25
418.64	1813.92
418.83	1708.59
419.02	1678.16
419.21	1839.66
419.39	1724.97
419.58	1806.89
419.77	1785.83
419.96	1816.26
420.15	1832.64
420.34	1809.23
420.53	1764.76
420.72	1909.88
420.91	1963.71
421.10	1909.88
421.29	1968.39
421.48	1921.58
421.67	1867.75
421.86	1989.46
422.05	1893.49
422.24	1940.30
422.43	1933.28
422.61	1935.62
422.80	2031.58
422.99	1909.88
423.18	2026.90
423.37	2052.65
423.56	2078.40
423.75	1998.82
423.94	1998.82
424.13	1797.53
424.32	1963.71
424.50	1963.71
424.69	2043.29
424.88	2167.34
425.07	2047.97
425.26	1952.01
425.45	2010.52
425.64	1954.35
425.83	2005.84
426.01	2012.86
426.20	2022.22
426.39	2017.54
426.58	2062.01
426.77	2111.16
426.96	2052.65
427.15	2050.31
427.33	2017.54
427.52	2167.34
427.71	2083.08
427.90	2022.22
428.09	2087.76
428.28	2223.51
428.46	2267.98
428.65	2204.78
428.84	2377.98
429.03	2328.83
429.22	2162.66
429.40	2202.44
429.59	2122.87
429.78	2200.10
429.97	2169.68
430.16	2242.23
430.34	2265.64
430.53	2380.32
430.72	2310.11
430.91	2263.30
431.10	2230.53
431.28	2340.54
431.47	2429.48
431.66	2483.31
431.85	2401.39
432.03	2406.07
432.22	2478.63
432.41	2324.15
432.60	2345.22
432.79	2354.58
432.97	2516.08
433.16	2452.88
433.35	2417.77
433.54	2443.52
433.72	2480.97
433.91	2506.71
434.10	2623.74
434.28	2513.74
434.47	2548.84
434.66	2654.17
434.85	2574.59
435.03	2630.76
435.22	2689.28
435.41	2658.85
435.59	2635.44
435.78	2537.14
435.97	2609.70
436.16	2722.04
436.34	2637.78
436.53	2654.17
436.72	2810.98
436.90	2717.36
437.09	2715.02
437.28	2696.30
437.46	2633.10
437.65	2780.56
437.84	2843.75
438.02	2839.07
438.21	2806.30
438.40	2752.47
438.58	2801.62
438.77	2928.01
438.96	2743.11
439.14	2864.82
439.33	2958.44
439.52	2944.39
439.70	2970.14
439.89	3087.17
440.08	2967.80
440.26	2977.16
440.45	2935.03
440.63	3194.83
440.82	3187.81
441.01	3145.68
441.19	3115.25
441.38	3204.19
441.57	3117.59
441.75	3265.05
441.94	3272.07
442.12	3325.90
442.31	3325.90
442.50	3206.53
442.68	3239.30
442.87	3297.81
443.05	3363.35
443.24	3389.10
443.43	3368.03
443.61	3396.12
443.80	3461.65
443.98	3243.98
444.17	3248.66
444.35	3321.22
444.54	3365.69
444.73	3398.46
444.91	3487.40
445.10	3309.52
445.28	3442.93
445.47	3302.50
445.65	3449.95
445.84	3447.61
446.02	3456.97
446.21	3438.25
446.39	3349.31
446.58	3442.93
446.77	3475.70
446.95	3353.99
447.14	3393.78
447.32	3595.06
447.51	3475.70
447.69	3473.36
447.88	3541.23
448.06	3487.40
448.25	3581.02
448.43	3466.33
448.62	3478.04
448.80	3534.21
448.99	3581.02
449.17	3625.49
449.36	3449.95
449.54	3571.66
449.73	3637.19
449.91	3653.58
450.10	3625.49
450.28	3698.05
450.46	3777.62
450.65	3754.22
450.83	3646.55
451.02	3712.09
451.20	3868.91
451.39	3754.22
451.57	3896.99
451.76	3836.14
451.94	3901.67
452.13	3878.27
452.31	3964.87
452.49	3669.96
452.68	3911.04
452.86	3850.18
453.05	3871.25
453.23	3992.95
453.42	3782.31
453.60	3735.50
453.78	3927.42
453.97	3772.94
454.15	3918.06
454.34	3817.41
454.52	3976.57
454.70	3868.91
454.89	4126.36
455.07	3967.21
455.26	3988.27
455.44	4170.83
455.62	4100.62
455.81	4028.06
455.99	4128.70
456.17	4189.56
456.36	4023.38
456.54	4152.11
456.73	4241.05
456.91	4362.76
457.09	4280.84
457.28	4264.46
457.46	4386.16
457.64	4421.27
457.83	4245.73
458.01	4227.01
458.19	4472.76
458.38	4241.05
458.56	4421.27
458.74	4388.50
458.93	4339.35
459.11	4411.91
459.29	4498.51
459.48	4512.55
459.66	4390.84
459.84	4456.38
460.03	4500.85
460.21	4346.37
460.39	4503.19
460.57	4493.83
460.76	4580.43
460.94	4582.77
461.12	4500.85
461.31	4634.26
461.49	4594.47
461.67	4564.04
461.85	4678.73
462.04	4655.33
462.22	5088.32
462.40	4788.74
462.59	4725.54
462.77	4755.97
462.95	4798.10
463.13	4641.28
463.32	4681.07
463.50	4617.88
463.68	4894.06
463.86	4933.85
464.05	4744.27
464.23	5034.49
464.41	4823.84
464.59	4802.78
464.78	4994.70
464.96	4812.14
465.14	4800.44
465.32	4882.36
465.50	5074.28
465.69	4940.87
465.87	4805.12
466.05	5067.26
466.23	5029.81
466.41	5069.60
466.60	5118.75
466.78	4961.94
466.96	5041.51
467.14	4992.36
467.32	5142.16
467.51	5139.82
467.69	4805.12
467.87	5085.98
468.05	5170.24
468.23	5069.60
468.41	5188.97
468.60	5067.26
468.78	5266.21
468.96	5280.25
469.14	5226.42
469.32	5291.95
469.50	5254.50
469.69	5231.10
469.87	5467.49
470.05	5352.81
470.23	5460.47
470.41	5418.34
470.59	5462.81
470.77	5291.95
470.95	5577.50
471.14	5596.22
471.32	5526.00
471.50	5509.62
471.68	5575.16
471.86	5654.73
472.04	5554.09
472.22	5806.87
472.40	5636.01
472.58	5558.77
472.77	5715.59
472.95	5846.66
473.13	6019.86
473.31	5863.04
473.49	5734.31
473.67	5809.21
473.85	5727.29
474.03	5973.05
474.21	5954.32
474.39	6141.57
474.57	6115.82
474.75	6239.87
474.93	6270.30
475.12	6099.44
475.30	6324.13
475.48	6216.46
475.66	6200.08
475.84	5930.92
476.02	6228.17
476.20	6274.98
476.38	6296.04
476.56	6457.54
476.74	6623.72
476.92	6654.14
477.10	6490.31
477.28	6651.80
477.46	6597.97
477.64	6796.92
477.82	6796.92
478.00	6916.28
478.18	6918.62
478.36	6974.80
478.54	6967.77
478.72	7056.72
478.90	7180.76
479.08	7180.76
479.26	7349.28
479.44	7419.50
479.62	7131.61
479.80	7248.64
479.98	7358.64
480.16	7639.51
480.34	7398.43
480.52	7595.04
480.70	7597.38
480.88	7445.24
481.06	7723.77
481.24	7573.97
481.41	7831.43
481.59	8051.44
481.77	7974.21
481.95	7957.82
482.13	7948.46
482.31	8011.65
482.49	8219.96
482.67	8231.66
482.85	8390.82
483.03	8411.89
483.21	8493.80
483.39	8531.25
483.57	8624.87
483.74	8589.77
483.92	8685.73
484.10	8578.06
484.28	8870.63
484.46	9074.26
484.64	9186.60
484.82	9149.15
485.00	9163.20
485.18	9397.25
485.35	9329.38
485.53	9249.80
485.71	9411.29
485.89	9582.15
486.07	9570.45
486.25	9535.34
486.43	9451.08
486.61	9708.54
486.78	10024.51
486.96	9937.91
487.14	9912.17
487.32	9996.43
487.50	9865.36
487.68	9973.02
487.85	10403.68
488.03	10506.66
488.21	10406.02
488.39	10654.12
488.57	10600.29
488.75	10560.50
488.92	10661.14
489.10	10944.34
489.28	10876.47
489.46	11073.07
489.64	10890.51
489.81	11178.40
489.99	11138.61
490.17	11339.90
490.35	11250.96
490.53	11236.91
490.70	11892.26
490.88	11531.82
491.06	11824.39
491.24	11845.45
491.41	11793.96
491.59	11714.38
491.77	11824.39
491.95	12128.66
492.13	12016.31
492.30	12072.48
492.48	12269.09
492.66	12381.43
492.84	12252.70
493.01	12617.83
493.19	12362.71
493.37	12901.03
493.54	12566.34
493.72	12870.61
493.90	12776.98
494.08	12727.83
494.25	13062.53
494.43	13074.23
494.61	13132.75
494.79	13465.10
494.96	13289.56
495.14	13530.64
495.32	13425.31
495.49	13540.00
495.67	13345.73
495.85	13493.19
496.02	13781.07
496.20	13811.50
496.38	13818.52
496.55	14118.11
496.73	14099.39
496.91	13963.64
497.09	14422.38
497.26	14211.73
497.44	14256.20
497.62	14221.10
497.79	14654.09
497.97	14558.13
498.14	14848.36
498.32	14789.85
498.50	14778.14
498.67	15169.01
498.85	14869.42
499.03	15220.50
499.20	15014.54
499.38	14941.98
499.56	15087.09
499.73	15260.29
499.91	15197.10
500.08	15459.24
500.26	15328.17
500.44	15417.11
500.61	15403.07
500.79	15508.39
500.97	15618.39
501.14	15838.41
501.32	15777.55
501.49	15700.31
501.67	15723.72
501.84	15976.50
502.02	15815.00
502.20	16091.18
502.37	15955.43
502.55	16067.78
502.72	16222.25
502.90	16105.23
503.07	15967.13
503.25	16166.08
503.43	16409.50
503.60	16748.87
503.78	16334.60
503.95	16425.88
504.13	16475.03
504.30	16695.04
504.48	16278.43
504.65	16563.97
504.83	16741.85
505.01	16879.94
505.18	17025.06
505.36	16912.71
505.53	16695.04
505.71	17095.27
505.88	17177.19
506.06	16592.06
506.23	17219.32
506.41	17123.36
506.58	17139.74
506.76	17444.01
506.93	17408.90
507.11	17404.22
507.28	17350.39
507.46	17387.84
507.63	17687.43
507.81	17645.30
507.98	17483.80
508.16	17743.60
508.33	17776.37
508.50	17972.97
508.68	17755.30
508.85	17886.37
509.03	18216.39
509.20	18134.47
509.38	18462.15
509.55	18387.25
509.73	18375.55
509.90	18431.72
510.08	18270.22
510.25	18359.16
510.42	18253.84
510.60	18588.53
510.77	18417.68
510.95	18745.35
511.12	18466.83
511.30	18810.89
511.47	18759.39
511.64	18965.36
511.82	19033.24
511.99	18836.63
512.17	18970.04
512.34	19084.73
512.51	19173.67
512.69	19176.01
512.86	19314.10
513.04	19477.94
513.21	19208.78
513.38	19477.94
513.56	19501.34
513.73	19630.07
513.90	19227.50
514.08	19562.20
514.25	19419.42
514.43	19803.27
514.60	19585.60
514.77	19775.19
514.95	19632.41
515.12	19702.63
515.29	19819.66
515.47	19955.41
515.64	19831.36
515.81	19653.48
515.99	20100.52
516.16	20552.24
516.33	20177.76
516.51	20727.78
516.68	20393.09
516.85	20154.35
517.03	20430.54
517.20	20173.08
517.37	20322.87
517.54	20507.77
517.72	20659.91
517.89	20739.49
518.06	20428.20
518.24	20718.42
518.41	20475.01
518.58	20547.56
518.75	20744.17
518.93	20893.96
519.10	20688.00
519.27	20950.14
519.45	20659.91
519.62	21259.09
519.79	21034.39
519.96	20978.22
520.14	21062.48
520.31	20863.54
520.48	21474.42
520.65	21156.10
520.83	21099.93
521.00	21436.97
521.17	21163.12
521.34	21413.56
521.52	21434.63
521.69	21724.85
521.86	21500.16
522.03	21813.79
522.20	21982.31
522.38	21783.37
522.55	21750.60
522.72	21834.86
522.89	21764.64
523.07	22192.96
523.24	21891.03
523.41	22148.49
523.58	21869.97
523.75	22333.39
523.92	21851.24
524.10	21961.25
524.27	22155.51
524.44	22384.88
524.61	22686.81
524.78	22389.56
524.96	22134.45
525.13	22223.39
525.30	22288.92
525.47	22434.03
525.64	22792.14
525.81	22452.76
525.98	22658.73
526.16	22560.42
526.33	22778.09
526.50	22726.60
526.67	22740.64
526.84	22977.04
527.01	22951.29
527.18	22845.97
527.36	23222.80
527.53	22789.80
527.70	23150.24
527.87	23227.48
528.04	23061.30
528.21	23248.54
528.38	23346.84
528.55	22970.02
528.72	23103.43
528.89	23227.48
529.07	23140.88
529.24	23002.78
529.41	23674.52
529.58	23360.89
529.75	23398.34
529.92	23304.71
530.09	23679.20
530.26	23611.32
530.43	23648.77
530.60	23330.46
530.77	23728.35
530.94	23548.13
531.11	23501.32
531.28	23775.16
531.46	23833.68
531.63	23733.03
531.80	23735.37
531.97	24013.90
532.14	24205.82
532.31	24088.79
532.48	24023.26
532.65	24144.97
532.82	24231.57
532.99	24051.34
533.16	23826.65
533.33	23861.76
533.50	24142.63
533.67	24486.68
533.84	24058.37
534.01	24247.95
534.18	24271.36
534.35	24521.79
534.52	24723.08
534.69	24489.03
534.86	24489.03
535.03	24762.87
535.20	24498.39
535.37	24575.62
535.54	24734.78
535.71	24594.35
535.88	24996.92
536.05	24917.34
536.22	24858.83
536.38	24940.75
536.55	24669.25
536.72	25060.12
536.89	24563.92
537.06	24769.89
537.23	24910.32
537.40	24875.21
537.57	24805.00
537.74	24943.09
537.91	25151.40
538.08	25277.79
538.25	25055.43
538.42	25139.69
538.59	25352.68
538.75	25179.48
538.92	25120.97
539.09	25120.97
539.26	25221.61
539.43	25605.46
539.60	25287.15
539.77	25610.14
539.94	25507.16
540.11	25350.34
540.28	25940.16
540.44	25518.86
540.61	25497.80
540.78	25380.77
540.95	25579.71
541.12	25663.97
541.29	25460.35
541.46	25804.41
541.62	25825.47
541.79	25507.16
541.96	25551.63
542.13	25965.90
542.30	25891.01
542.47	25968.24
542.63	25755.26
542.80	26111.02
542.97	26286.56
543.14	26249.11
543.31	26167.19
543.48	26176.55
543.64	26092.29
543.81	26190.59
543.98	26651.68
544.15	26064.21
544.32	26515.93
544.48	26707.85
544.65	26560.40
544.82	26511.25
544.99	26396.56
545.16	26590.83
545.32	26171.87
545.49	26679.77
545.66	26883.39
545.83	27051.91
546.00	27110.43
546.16	26508.91
546.33	26726.58
546.50	26429.33
546.67	26555.72
546.83	26787.43
547.00	26785.09
547.17	26953.61
547.34	27117.45
547.50	26960.63
547.67	27222.77
547.84	26991.06
548.00	27094.04
548.17	27058.93
548.34	26838.92
548.51	27227.45
548.67	27091.70
548.84	27332.78
549.01	26852.97
549.18	27484.91
549.34	27407.67
549.51	27290.65
549.68	27145.53
549.84	27049.57
550.01	27096.38
550.18	27447.46
550.34	27524.70
550.51	27814.93
550.68	27349.16
550.84	27353.84
551.01	27658.11
551.18	27412.35
551.34	27122.13
551.51	27501.29
551.68	27381.93
551.84	27639.39
552.01	27323.41
552.18	27707.26
552.34	27709.60
552.51	27913.23
552.68	27700.24
552.84	27835.99
553.01	27630.02
553.18	27831.31
553.34	27803.22
553.51	27838.33
553.67	27550.45
553.84	27887.48
554.01	27967.06
554.17	27634.71
554.34	27817.27
554.51	27557.47
554.67	27828.97
554.84	28156.64
555.00	28191.75
555.17	27981.10
555.33	28276.01
555.50	27915.57
555.67	27828.97
555.83	28046.64
556.00	28039.62
556.16	28226.86
556.33	27941.32
556.50	27934.29
556.66	28240.90
556.83	28362.61
556.99	28362.61
557.16	28222.18
557.32	28584.96
557.49	28259.63
557.65	28259.63
557.82	28360.27
557.98	28231.54
558.15	28285.37
558.32	28292.40
558.48	28699.65
558.65	28659.86
558.81	29029.66
558.98	28418.78
559.14	28355.59
559.31	28276.01
559.47	28313.46
559.64	28716.03
559.80	28659.86
559.97	28524.11
560.13	28723.05
560.30	28526.45
560.46	28842.42
560.63	28601.35
560.79	28924.34
560.96	28758.16
561.12	29013.28
561.29	28528.79
561.45	28512.41
561.61	29195.84
561.78	28851.78
561.94	28931.36
562.11	28814.34
562.27	28601.35
562.44	29301.17
562.60	28638.80
562.77	28732.42
562.93	28882.21
563.10	28769.86
563.26	28957.11
563.42	29259.04
563.59	29053.07
563.75	29003.92
563.92	28891.57
564.08	29085.84
564.24	29383.09
564.41	28568.58
564.57	28863.49
564.74	28837.74
564.90	28875.19
565.07	28957.11
565.23	29085.84
565.39	28800.29
565.56	29170.10
565.72	29146.69
565.88	28943.06
566.05	28833.06
566.21	28966.47
566.38	28833.06
566.54	29244.99
566.70	29247.33
566.87	29310.53
567.03	29067.11
567.19	29408.83
567.36	29310.53
567.52	29095.20
567.68	29244.99
567.85	28816.68
568.01	29759.91
568.17	29041.37
568.34	29628.84
568.50	29277.76
568.66	29418.19
568.83	29624.16
568.99	29497.77
569.15	29380.74
569.32	29006.26
569.48	29174.78
569.64	29252.02
569.81	29755.23
569.97	29160.73
570.13	29186.48
570.30	29460.32
570.46	29593.73
570.62	29465.00
570.78	29369.04
570.95	28872.85
571.11	29628.84
571.27	28957.11
571.43	29305.85
571.60	29467.34
571.76	29156.05
571.92	29441.60
572.09	29385.43
572.25	29706.08
572.41	29619.48
572.57	29472.03
572.74	29617.14
572.90	29165.42
573.06	29160.73
573.22	29088.18
573.38	29614.80
573.55	29743.53
573.71	29919.07
573.87	29921.41
574.03	29418.19
574.20	29567.99
574.36	29422.87
574.52	29846.51
574.68	29474.37
574.84	29558.63
575.01	29666.29
575.17	29614.80
575.33	29427.56
575.49	29399.47
575.65	29355.00
575.82	29867.58
575.98	29926.09
576.14	29701.40
576.30	29551.60
576.46	29390.11
576.62	29598.41
576.79	29731.83
576.95	29570.33
577.11	29500.11
577.27	29493.09
577.43	29607.78
577.59	29673.31
577.75	29579.69
577.92	29483.73
578.08	29465.00
578.24	29500.11
578.40	30082.91
578.56	29558.63
578.72	29769.27
578.88	29785.66
579.04	29689.70
579.21	29682.67
579.37	29802.04
579.53	29624.16
579.69	29376.06
579.85	29530.54
580.01	29621.82
580.17	29425.22
580.33	29563.31
580.49	29364.36
580.65	29759.91
580.82	30036.09
580.98	29841.83
581.14	29926.09
581.30	30038.44
581.46	29830.13
581.62	29759.91
581.78	29589.05
581.94	30015.03
582.10	29827.79
582.26	29752.89
582.42	29846.51
582.58	29844.17
582.74	29654.59
582.90	29979.92
583.06	29778.64
583.22	29233.29
583.38	29855.87
583.54	29809.06
583.70	30080.56
583.86	29720.12
584.02	29647.57
584.18	30302.92
584.34	30211.64
584.50	29961.20
584.66	29780.98
584.82	29837.15
584.98	29951.84
585.14	29799.70
585.30	29745.87
585.46	29635.86
585.62	29692.04
585.78	29996.31
585.94	29839.49
586.10	30103.97
586.26	30258.45
586.42	30045.46
586.58	30272.49
586.74	30139.08
586.90	29605.44
587.06	29645.23
587.22	30078.22
587.38	29186.48
587.54	30260.79
587.70	30059.50
587.86	29846.51
588.02	29916.73
588.18	30307.60
588.34	30354.41
588.49	30071.20
588.65	29727.14
588.81	29975.24
588.97	30136.74
589.13	30204.61
589.29	30223.34
589.45	30237.38
589.61	30277.17
589.77	30331.00
589.93	30204.61
590.08	30518.25
590.24	30167.16
590.40	30272.49
590.56	30377.81
590.72	30202.27
590.88	30202.27
591.04	30153.12
591.20	30511.22
591.35	30459.73
591.51	30869.33
591.67	30733.57
591.83	30307.60
591.99	30398.88
592.15	30426.96
592.31	30167.16
592.46	30029.07
592.62	30328.66
592.78	30178.87
592.94	30029.07
593.10	30178.87
593.26	30672.72
593.41	30614.21
593.57	30110.99
593.73	30260.79
593.89	30277.17
594.05	30452.71
594.20	30298.23
594.36	29965.88
594.52	30300.58
594.68	30024.39
594.84	30244.40
594.99	30136.74
595.15	30209.29
595.31	30499.52
595.47	30459.73
595.62	30431.65
595.78	30368.45
595.94	30192.91
596.10	30618.89
596.25	30466.75
596.41	30195.25
596.57	30300.58
596.73	30644.63
596.88	30064.18
597.04	30221.00
597.20	30431.65
597.36	30518.25
597.51	30646.97
597.67	30331.00
597.83	30429.30
597.99	30249.08
598.14	30108.65
598.30	30305.26
598.46	30417.60
598.61	30366.11
598.77	30078.22
598.93	30595.48
599.09	30628.25
599.24	30768.68
599.40	30462.07
599.56	30464.41
599.71	30008.01
599.87	30551.01
600.03	30368.45
600.18	30415.26
600.34	30391.86
600.50	30347.39
600.65	30565.06
600.81	30401.22
600.97	30614.21
601.12	30476.12
601.28	30635.27
601.44	30789.75
601.59	30588.46
601.75	30462.07
601.91	30455.05
602.06	30405.90
602.22	30155.46
602.37	30588.46
602.53	30150.78
602.69	30464.41
602.84	30316.96
603.00	30471.43
603.16	30682.08
603.31	30698.47
603.47	30565.06
603.62	30473.78
603.78	30354.41
603.94	30232.70
604.09	30539.31
604.25	30361.43
604.40	30195.25
604.56	30176.53
604.71	30497.18
604.87	30572.08
605.03	30157.80
605.18	30555.69
605.34	30398.88
605.49	30185.89
605.65	29860.55
605.80	30281.85
605.96	30387.18
606.12	30298.23
606.27	30649.32
606.43	30221.00
606.58	30553.35
606.74	30546.33
606.89	30562.72
607.05	30553.35
607.20	30356.75
607.36	30450.37
607.51	30249.08
607.67	29989.28
607.82	30185.89
607.98	30412.92
608.13	30515.90
608.29	30328.66
608.44	30487.82
608.60	30424.62
608.75	30043.12
608.91	30504.20
609.06	30143.76
609.22	30436.33
609.37	29865.24
609.53	29900.34
609.68	30497.18
609.84	29797.36
609.99	30120.35
610.15	30141.42
610.30	30071.20
610.46	30321.64
610.61	29975.24
610.76	30270.15
610.92	30082.91
611.07	29837.15
611.23	29963.54
611.38	30101.63
611.54	30235.04
611.69	29755.23
611.84	30157.80
612.00	30190.57
612.15	29947.15
612.31	30040.78
612.46	29844.17
612.62	29780.98
612.77	29780.98
612.92	30188.23
613.08	29841.83
613.23	30293.55
613.39	30185.89
613.54	29591.39
613.69	29961.20
613.85	29502.45
614.00	29734.17
614.15	29553.94
614.31	29848.85
614.46	30143.76
614.62	29928.43
614.77	29888.64
614.92	29736.51
615.08	29818.42
615.23	30036.09
615.38	29935.45
615.54	29631.18
615.69	29677.99
615.84	29582.03
616.00	29773.95
616.15	29635.86
616.30	29717.78
616.46	29582.03
616.61	29450.96
616.76	29750.55
616.92	29720.12
617.07	29663.95
617.22	29085.84
617.37	29383.09
617.53	29387.77
617.68	29291.80
617.83	29303.51
617.99	29359.68
618.14	29331.59
618.29	29490.75
618.45	29654.59
618.60	29570.33
618.75	29350.32
618.90	29846.51
619.06	29289.46
619.21	29195.84
619.36	29205.20
619.51	29298.83
619.67	29202.86
619.82	28926.68
619.97	29125.63
620.12	29312.87
620.28	29085.84
620.43	29097.54
620.58	29308.19
620.73	28858.81
620.89	29638.20
621.04	29350.32
621.19	29537.56
621.34	29083.50
621.49	28816.68
621.65	28854.12
621.80	28968.81
621.95	28790.93
622.10	29172.44
622.25	28828.38
622.41	29184.14
622.56	29462.66
622.71	29261.38
622.86	29071.79
623.01	29092.86
623.16	28851.78
623.32	28697.31
623.47	29057.75
623.62	29034.35
623.77	28924.34
623.92	28828.38
624.07	28882.21
624.23	28634.11
624.38	28914.98
624.53	29015.62
624.68	29102.22
624.83	28978.17
624.98	29113.92
625.13	28797.95
625.29	28868.17
625.44	28790.93
625.59	28451.55
625.74	28704.33
625.89	28657.52
626.04	28599.01
626.19	28678.58
626.34	28591.98
626.49	28465.60
626.65	28563.90
626.80	28823.70
626.95	28474.96
627.10	28596.67
627.25	28404.74
627.40	28196.43
627.55	28077.07
627.70	28519.43
627.85	27924.93
628.00	28407.08
628.15	28037.28
628.30	28100.47
628.45	28411.76
628.60	28126.22
628.76	27962.38
628.91	28364.95
629.06	28357.93
629.21	28465.60
629.36	28285.37
629.51	28444.53
629.66	28325.16
629.81	28458.57
629.96	27985.79
630.11	27938.97
630.26	28084.09
630.41	27812.59
630.56	27924.93
630.71	27920.25
630.86	27922.59
631.01	28018.55
631.16	28121.54
631.31	28011.53
631.46	28147.28
631.61	28091.11
631.76	28154.30
631.91	28379.00
632.06	27927.27
632.21	27452.14
632.36	27931.95
632.51	27349.16
632.66	27735.35
632.81	27527.04
632.96	28306.44
633.10	27697.90
633.25	27828.97
633.40	28180.05
633.55	27782.16
633.70	27709.60
633.85	27676.83
634.00	27545.76
634.15	27503.64
634.30	27747.05
634.45	27402.99
634.60	27737.69
634.75	27660.45
634.90	27749.39
635.05	27662.79
635.19	27351.50
635.34	27828.97
635.49	27812.59
635.64	27213.41
635.79	27714.28
635.94	27243.84
636.09	27618.32
636.24	27360.86
636.39	27325.75
636.53	27292.99
636.68	27438.10
636.83	27143.19
636.98	27599.60
637.13	27431.08
637.28	27110.43
637.43	27473.21
637.57	27660.45
637.72	27660.45
637.87	27339.80
638.02	27248.52
638.17	27288.31
638.32	27080.00
638.46	27220.43
638.61	26911.48
638.76	26766.37
638.91	27091.70
639.06	26810.84
639.20	27094.04
639.35	27407.67
639.50	27044.89
639.65	27051.91
639.80	27220.43
639.94	27248.52
640.09	27353.84
640.24	27398.31
640.39	27075.32
640.54	27082.34
640.68	26738.28
640.83	26771.05
640.98	27365.54
641.13	26478.48
641.27	27072.98
641.42	26899.78
641.57	26691.47
641.72	26771.05
641.86	26771.05
642.01	26679.77
642.16	26817.86
642.31	26869.35
642.45	26363.79
642.60	26590.83
642.75	26539.33
642.90	26419.97
643.04	26665.72
643.19	26590.83
643.34	26841.26
643.48	26794.45
643.63	26764.03
643.78	26361.45
643.93	26670.40
644.07	26583.80
644.22	26450.39
644.37	26492.52
644.51	26693.81
644.66	26735.94
644.81	26426.99
644.95	26391.88
645.10	26485.50
645.25	26398.90
645.39	26396.56
645.54	26199.96
645.69	26251.45
645.83	26536.99
645.98	26321.66
646.13	26223.36
646.27	26544.02
646.42	26061.87
646.57	26361.45
646.71	26022.08
646.86	26167.19
647.00	26487.84
647.15	25886.32
647.30	25996.33
647.44	26089.95
647.59	26108.68
647.74	26080.59
647.88	25858.24
648.03	26054.84
648.17	26450.39
648.32	26078.25
648.47	26649.34
648.61	26202.30
648.76	26270.17
648.90	25989.31
649.05	26490.18
649.20	25998.67
649.34	26092.29
649.49	25743.55
649.63	26038.46
649.78	25984.63
649.92	25558.65
650.07	26368.48
650.21	25834.83
650.36	25750.57
650.51	26078.25
650.65	26043.14
650.80	25638.23
650.94	25844.20
651.09	25645.25
651.23	25532.90
651.38	25729.51
651.52	25661.63
651.67	25895.69
651.81	25542.27
651.96	25752.91
652.10	26022.08
652.25	25977.61
652.39	25886.32
652.54	25837.17
652.68	25439.28
652.83	26036.12
652.97	26178.89
653.12	25364.39
653.26	25834.83
653.41	25483.75
653.55	25413.54
653.70	25460.35
653.84	25399.49
653.99	25294.17
654.13	25331.62
654.27	25493.12
654.42	25626.53
654.56	25406.52
654.71	25481.41
654.85	25268.42
655.00	25205.23
655.14	25586.74
655.29	25233.32
655.43	25876.96
655.57	25097.56
655.72	25331.62
655.86	25013.31
656.01	24938.41
656.15	24854.15
656.30	25113.95
656.44	25053.09
656.58	25048.41
656.73	25186.50
656.87	25184.16
657.01	24748.82
657.16	25296.51
657.30	25584.40
657.45	25315.23
657.59	24870.53
657.73	25048.41
657.88	25366.73
658.02	24690.31
658.16	24952.45
658.31	24704.35
658.45	24966.49
658.60	24762.87
658.74	24975.86
658.88	24950.11
659.03	24395.40
659.17	24751.17
659.31	24547.54
659.46	24940.75
659.60	24875.21
659.74	24760.53
659.89	24601.37
660.03	24924.36
660.17	24493.71
660.32	24421.15
660.46	24315.83
660.60	24170.71
660.74	24503.07
660.89	24180.07
661.03	23868.78
661.17	24355.61
661.32	24163.69
661.46	24491.37
661.60	24334.55
661.74	24606.05
661.89	24460.94
662.03	24402.43
662.17	24355.61
662.31	24119.22
662.46	24093.47
662.60	24067.73
662.74	24201.14
662.88	24222.20
663.03	24025.60
663.17	23878.15
663.31	23711.97
663.45	23580.90
663.60	23606.64
663.74	24046.66
663.88	24034.96
664.02	23700.26
664.17	24041.98
664.31	23618.35
664.45	23742.39
664.59	23828.99
664.73	23950.70
664.88	23276.63
665.02	23295.35
665.16	23501.32
665.30	23229.82
665.44	23585.58
665.59	23054.28
665.73	23243.86
665.87	23243.86
666.01	23674.52
666.15	23683.88
666.29	23178.33
666.44	23183.01
666.58	22953.63
666.72	22834.27
666.86	22960.66
667.00	23400.68
667.14	23110.45
667.28	23047.26
667.43	22963.00
667.57	22787.46
667.71	22806.18
667.85	22960.66
667.99	22951.29
668.13	22721.92
668.27	22754.69
668.41	23037.89
668.56	22625.96
668.70	22682.13
668.84	22883.42
668.98	22691.49
669.12	22986.40
669.26	22787.46
669.40	22728.94
669.54	22309.99
669.68	22476.16
669.82	22192.96
669.96	22054.87
670.10	22075.93
670.25	22298.28
670.39	22101.68
670.53	22017.42
670.67	22132.11
670.81	22050.19
670.95	22237.43
671.09	22199.98
671.23	22104.02
671.37	22045.51
671.51	22050.19
671.65	22094.66
671.79	21909.75
671.93	21921.46
672.07	22298.28
672.21	21654.64
672.35	21570.38
672.49	21652.30
672.63	22015.08
672.77	21483.78
672.91	21652.30
673.05	21893.37
673.19	21675.70
673.33	21486.12
673.47	21497.82
673.61	21544.63
673.75	21516.54
673.89	21336.32
674.03	21605.49
674.17	21221.64
674.31	21312.92
674.45	21130.36
674.59	21151.42
674.73	21109.29
674.87	21102.27
675.01	21034.39
675.15	21123.33
675.29	20842.47
675.43	21071.84
675.56	20695.02
675.70	20751.19
675.84	20615.44
675.98	20243.29
676.12	20650.55
676.26	20849.49
676.40	20870.56
676.54	20629.48
676.68	20400.11
676.82	19941.36
676.96	20278.40
677.10	20334.57
677.23	20250.32
677.37	20142.65
677.51	20091.16
677.65	20091.16
677.79	19859.45
677.93	19761.14
678.07	19403.04
678.21	19953.07
678.34	19838.38
678.48	19337.51
678.62	19772.85
678.76	19711.99
678.90	19578.58
679.04	19597.31
679.18	19606.67
679.31	18984.09
679.45	19307.08
679.59	19473.26
679.73	19044.94
679.87	18953.66
680.00	19007.49
680.14	18792.16
680.28	18881.10
680.42	18956.00
680.56	18850.67
680.70	19143.24
680.83	19040.26
680.97	18637.69
681.11	18647.05
681.25	18490.23
681.39	18583.85
681.52	18382.57
681.66	18583.85
681.80	18225.75
681.94	18441.08
682.07	18394.27
682.21	17867.65
682.35	17865.31
682.49	18342.78
682.62	18099.36
682.76	17820.84
682.90	17886.37
683.04	17877.01
683.17	18052.55
683.31	18012.76
683.45	18038.51
683.59	17851.27
683.72	17844.24
683.86	17539.97
684.00	17525.93
684.13	17289.54
684.27	17338.69
684.41	17418.27
684.55	17394.86
684.68	17373.80
684.82	17221.66
684.96	17132.72
685.09	17032.08
685.23	16863.56
685.37	16966.54
685.50	17092.93
685.64	17200.60
685.78	17268.47
685.91	17315.28
686.05	17006.33
686.19	16919.73
686.32	16840.15
686.46	16435.24
686.60	16432.90
686.73	16451.63
686.87	16456.31
687.01	16386.09
687.14	16470.35
687.28	16243.32
687.42	16123.95
687.55	15978.84
687.69	16137.99
687.82	16119.27
687.96	16072.46
688.10	15850.11
688.23	15990.54
688.37	15742.44
688.50	15559.88
688.64	15922.66
688.78	15829.04
688.91	15590.31
689.05	15660.52
689.18	15721.38
689.32	15220.50
689.46	15225.18
689.59	15414.77
689.73	15145.61
689.86	15316.47
690.00	15325.83
690.13	15089.43
690.27	15044.96
690.41	15059.01
690.54	15101.14
690.68	14960.70
690.81	15201.78
690.95	15150.29
691.08	15152.63
691.22	14941.98
691.35	14532.39
691.49	14609.62
691.62	14761.76
691.76	14347.48
691.89	14532.39
692.03	14141.52
692.16	14310.04
692.30	14239.82
692.43	14457.49
692.57	14153.22
692.70	14228.12
692.84	14204.71
692.97	13930.87
693.11	13961.30
693.24	14068.96
693.38	13961.30
693.51	13832.57
693.65	14005.77
693.78	13811.50
693.92	13713.20
694.05	13582.13
694.19	13547.02
694.32	13607.87
694.45	13582.13
694.59	13474.46
694.72	13301.26
694.86	13186.58
694.99	13235.73
695.13	13315.31
695.26	12884.65
695.39	12954.87
695.53	13261.48
695.66	13156.15
695.80	13062.53
695.93	12891.67
696.07	12961.89
696.20	13109.34
696.33	12901.03
696.47	12772.30
696.60	12915.08
696.73	12809.75
696.87	12641.23
697.00	12725.49
697.14	12496.12
697.27	12348.67
697.40	12496.12
697.54	12161.42
697.67	12306.54
697.80	12191.85
697.94	12145.04
698.07	12159.08
698.21	12236.32
698.34	12198.87
698.47	12262.07
698.61	11936.73
698.74	11913.33
698.87	11819.71
699.01	11836.09
699.14	11939.07
699.27	11712.04
699.40	11482.67
699.54	11669.91
699.67	11573.95
699.80	11281.38
699.94	11459.26
700.07	11300.11
700.20	11494.37
700.34	11227.55
700.47	11077.76
700.60	11201.80
700.73	11375.00
700.87	11295.43
701.00	11178.40
701.13	11183.08
701.26	10867.11
701.40	11164.36
701.53	11094.14
701.66	11012.22
701.79	11061.37
701.93	10796.89
702.06	10654.12
702.19	10429.43
702.32	10569.86
702.46	10448.15
702.59	10551.14
702.72	10443.47
702.85	10312.40
702.99	10310.06
703.12	10478.58
703.25	10134.52
703.38	10291.34
703.51	10242.18
703.65	10305.38
703.78	10464.54
703.91	10036.22
704.04	10274.95
704.17	10150.90
704.31	10068.98
704.44	9895.78
704.57	9956.64
704.70	9825.57
704.83	9675.77
704.96	9678.12
705.10	9593.86
705.23	9598.54
>>>>>End Processed Spectral Data<<<<<
