SpectraSuite Data File
++++++++++++++++++++++++++++++++++++
Date: Fri Oct 18 13:58:06 GMT-05:00 2013
User: bianchi
Dark Spectrum Present: No
Reference Spectrum Present: No
Number of Sampled Component Spectra: 1
Spectrometers: USB2+H05261
Integration Time (usec): 50000 (USB2+H05261)
Spectra Averaged: 1 (USB2+H05261)
Boxcar Smoothing: 0 (USB2+H05261)
Correct for Electrical Dark: No (USB2+H05261)
Strobe/Lamp Enabled: No (USB2+H05261)
Correct for Detector Non-linearity: No (USB2+H05261)
Correct for Stray Light: No (USB2+H05261)
Number of Pixels in Processed Spectrum: 2048
>>>>>Begin Processed Spectral Data<<<<<
365.73	0.00
365.92	0.00
366.12	0.00
366.32	0.00
366.52	0.00
366.72	0.00
366.91	0.00
367.11	0.00
367.31	0.00
367.51	0.00
367.70	0.00
367.90	0.00
368.10	0.00
368.30	0.00
368.49	0.00
368.69	0.00
368.89	0.00
369.09	0.00
369.28	0.00
369.48	0.00
369.68	0.00
369.87	0.00
370.07	0.00
370.27	0.00
370.47	0.00
370.66	37.45
370.86	91.28
371.06	138.09
371.25	154.48
371.45	138.09
371.65	79.58
371.84	138.09
372.04	177.88
372.24	184.90
372.44	156.82
372.63	180.22
372.83	220.01
373.03	224.69
373.22	248.10
373.42	222.35
373.62	191.92
373.81	280.86
374.01	241.08
374.21	245.76
374.40	255.12
374.60	351.08
374.79	208.31
374.99	229.37
375.19	212.99
375.38	205.97
375.58	198.95
375.78	222.35
375.97	227.03
376.17	266.82
376.37	369.80
376.56	280.86
376.76	332.36
376.95	304.27
377.15	280.86
377.35	348.74
377.54	313.63
377.74	231.71
377.93	229.37
378.13	259.80
378.33	280.86
378.52	325.33
378.72	287.89
378.91	273.84
379.11	353.42
379.31	283.20
379.50	313.63
379.70	203.63
379.89	344.06
380.09	255.12
380.28	308.95
380.48	301.93
380.68	276.18
380.87	341.72
381.07	315.97
381.26	355.76
381.46	320.65
381.65	325.33
381.85	299.59
382.04	320.65
382.24	379.17
382.43	322.99
382.63	346.40
382.83	318.31
383.02	330.02
383.22	344.06
383.41	280.86
383.61	468.11
383.80	327.68
384.00	358.10
384.19	318.31
384.39	285.55
384.58	418.96
384.78	315.97
384.97	393.21
385.17	369.80
385.36	358.10
385.56	411.93
385.75	308.95
385.95	360.44
386.14	442.36
386.34	454.06
386.53	355.76
386.72	433.00
386.92	386.19
387.11	400.23
387.31	440.02
387.50	493.85
387.70	463.43
387.89	451.72
388.09	409.59
388.28	402.57
388.48	369.80
388.67	486.83
388.86	437.68
389.06	400.23
389.25	489.17
389.45	479.81
389.64	440.02
389.84	543.00
390.03	505.56
390.22	533.64
390.42	468.11
390.61	507.90
390.81	449.38
391.00	433.00
391.19	507.90
391.39	517.26
391.58	524.28
391.78	512.58
391.97	580.45
392.16	454.06
392.36	564.07
392.55	528.96
392.75	575.77
392.94	596.84
393.13	545.34
393.33	505.56
393.52	526.62
393.71	519.60
393.91	589.82
394.10	568.75
394.29	592.16
394.49	592.16
394.68	676.41
394.88	645.99
395.07	526.62
395.26	613.22
395.46	634.29
395.65	636.63
395.84	636.63
396.04	634.29
396.23	650.67
396.42	589.82
396.62	599.18
396.81	589.82
397.00	653.01
397.19	603.86
397.39	760.67
397.58	683.44
397.77	641.31
397.97	645.99
398.16	678.76
398.35	610.88
398.55	741.95
398.74	685.78
398.93	793.44
399.12	760.67
399.32	671.73
399.51	730.25
399.70	716.20
399.90	753.65
400.09	798.12
400.28	826.21
400.47	795.78
400.67	903.45
400.86	755.99
401.05	720.88
401.24	763.01
401.44	760.67
401.63	844.93
401.82	802.80
402.01	807.48
402.21	777.06
402.40	873.02
402.59	739.61
402.78	905.79
402.97	821.53
403.17	901.11
403.36	931.53
403.55	814.51
403.74	898.77
403.93	887.06
404.13	926.85
404.32	875.36
404.51	875.36
404.70	931.53
404.89	858.98
405.09	1025.15
405.28	957.28
405.47	980.68
405.66	896.43
405.85	1008.77
406.05	1055.58
406.24	1001.75
406.43	997.07
406.62	994.73
406.81	1043.88
407.00	1015.79
407.20	903.45
407.39	1043.88
407.58	1069.62
407.77	1086.01
407.96	997.07
408.15	1015.79
408.34	1114.10
408.54	1090.69
408.73	1153.88
408.92	1048.56
409.11	1149.20
409.30	1071.97
409.49	1116.44
409.68	1193.67
409.87	1231.12
410.07	1207.72
410.26	1093.03
410.45	1191.33
410.64	1247.51
410.83	1184.31
411.02	1205.38
411.21	1242.82
411.40	1193.67
411.59	1303.68
411.78	1238.14
411.98	1296.66
412.17	1294.32
412.36	1249.85
412.55	1313.04
412.74	1343.47
412.93	1369.21
413.12	1294.32
413.31	1416.02
413.50	1465.18
413.69	1411.34
413.88	1401.98
414.07	1472.20
414.26	1458.15
414.45	1493.26
414.64	1509.65
414.83	1605.61
415.02	1528.37
415.22	1650.08
415.41	1652.42
415.60	1584.54
415.79	1598.59
415.98	1572.84
416.17	1549.43
416.36	1624.33
416.55	1640.72
416.74	1626.67
416.93	1671.14
417.12	1671.14
417.31	1783.49
417.50	1806.89
417.69	1577.52
417.88	1753.06
418.07	1769.44
418.26	1708.59
418.45	1827.96
418.64	1820.94
418.83	1764.76
419.02	1694.55
419.21	1743.70
419.39	1797.53
419.58	1842.00
419.77	1872.43
419.96	1825.62
420.15	1884.13
420.34	1898.17
420.53	1898.17
420.72	1956.69
420.91	1907.54
421.10	1994.14
421.29	1977.75
421.48	1788.17
421.67	1994.14
421.86	1961.37
422.05	1963.71
422.24	1895.83
422.43	1954.35
422.61	2153.29
422.80	2040.95
422.99	2033.93
423.18	2085.42
423.37	2069.03
423.56	1963.71
423.75	1966.05
423.94	2043.29
424.13	1937.96
424.32	1895.83
424.50	2069.03
424.69	1851.36
424.88	2143.93
425.07	2024.56
425.26	1991.80
425.45	1877.11
425.64	2094.78
425.83	1956.69
426.01	2132.23
426.20	2073.71
426.39	1944.99
426.58	2113.50
426.77	2106.48
426.96	2029.24
427.15	2092.44
427.33	2132.23
427.52	2017.54
427.71	2235.21
427.90	2083.08
428.09	2143.93
428.28	2200.10
428.46	2179.04
428.65	2216.49
428.84	2349.90
429.03	2209.47
429.22	2265.64
429.40	2204.78
429.59	2307.77
429.78	2270.32
429.97	2150.95
430.16	2265.64
430.34	2328.83
430.53	2424.80
430.72	2424.80
430.91	2438.84
431.10	2345.22
431.28	2429.48
431.47	2408.41
431.66	2417.77
431.85	2312.45
432.03	2377.98
432.22	2385.01
432.41	2504.37
432.60	2471.61
432.79	2394.37
432.97	2415.43
433.16	2431.82
433.35	2560.55
433.54	2506.71
433.72	2576.93
433.91	2581.61
434.10	2623.74
434.28	2607.36
434.47	2619.06
434.66	2600.34
434.85	2649.49
435.03	2623.74
435.22	2665.87
435.41	2642.46
435.59	2609.70
435.78	2663.53
435.97	2675.23
436.16	2605.02
436.34	2712.68
436.53	2661.19
436.72	2754.81
436.90	2633.10
437.09	2958.44
437.28	2684.59
437.46	2712.68
437.65	2761.83
437.84	2782.90
438.02	2820.35
438.21	2750.13
438.40	2764.17
438.58	2946.73
438.77	2970.14
438.96	2885.88
439.14	2935.03
439.33	2881.20
439.52	3012.27
439.70	3063.76
439.89	3061.42
440.08	3012.27
440.26	3077.80
440.45	3101.21
440.63	3105.89
440.82	3138.66
441.01	2998.23
441.19	3169.09
441.38	3190.15
441.57	3276.75
441.75	3307.18
441.94	3302.50
442.12	3414.84
442.31	3358.67
442.50	3288.45
442.68	3279.09
442.87	3349.31
443.05	3379.73
443.24	3396.12
443.43	3426.54
443.61	3473.36
443.80	3515.48
443.98	3449.95
444.17	3295.47
444.35	3438.25
444.54	3473.36
444.73	3456.97
444.91	3463.99
445.10	3527.19
445.28	3566.98
445.47	3440.59
445.65	3468.67
445.84	3531.87
446.02	3473.36
446.21	3543.57
446.39	3407.82
446.58	3398.46
446.77	3545.91
446.95	3375.05
447.14	3522.51
447.32	3606.77
447.51	3503.78
447.69	3566.98
447.88	3536.55
448.06	3492.08
448.25	3562.30
448.43	3716.77
448.62	3581.02
448.80	3641.87
448.99	3391.44
449.17	3691.02
449.36	3630.17
449.54	3620.81
449.73	3648.90
449.91	3702.73
450.10	3716.77
450.28	3794.01
450.46	3908.69
450.65	3784.65
450.83	3880.61
451.02	3716.77
451.20	3847.84
451.39	3735.50
451.57	3864.22
451.76	3885.29
451.94	3817.41
452.13	3864.22
452.31	3810.39
452.49	3852.52
452.68	3824.44
452.86	3889.97
453.05	3962.53
453.23	3887.63
453.42	3953.16
453.60	3901.67
453.78	3957.85
453.97	3847.84
454.15	4046.79
454.34	3985.93
454.52	4121.68
454.70	4011.68
454.89	4067.85
455.07	3997.64
455.26	4035.08
455.44	4114.66
455.62	4063.17
455.81	4100.62
455.99	4152.11
456.17	4173.18
456.36	4201.26
456.54	4170.83
456.73	4201.26
456.91	4472.76
457.09	4362.76
457.28	4414.25
457.46	4294.88
457.64	4458.72
457.83	4329.99
458.01	4320.63
458.19	4498.51
458.38	4341.69
458.56	4468.08
458.74	4386.16
458.93	4454.04
459.11	4393.19
459.29	4540.64
459.48	4521.92
459.66	4585.11
459.84	4615.54
460.03	4592.13
460.21	4601.49
460.39	4559.36
460.57	4650.64
460.76	4456.38
460.94	4723.20
461.12	4535.96
461.31	4704.48
461.49	4786.40
461.67	4580.43
461.85	4746.61
462.04	4779.37
462.22	4830.87
462.40	4716.18
462.59	4795.76
462.77	4898.74
462.95	4826.18
463.13	4814.48
463.32	4805.12
463.50	4746.61
463.68	4882.36
463.86	4791.08
464.05	4980.66
464.23	4858.95
464.41	5025.13
464.59	4812.14
464.78	5029.81
464.96	4788.74
465.14	4947.89
465.32	4992.36
465.50	5090.67
465.69	5097.69
465.87	4947.89
466.05	4987.68
466.23	5050.88
466.41	5085.98
466.60	5125.77
466.78	5160.88
466.96	4985.34
467.14	5130.45
467.32	5181.95
467.51	5296.63
467.69	5128.11
467.87	5235.78
468.05	5291.95
468.23	5116.41
468.41	5069.60
468.60	5219.39
468.78	5320.04
468.96	5242.80
469.14	5172.58
469.32	5399.62
469.50	5188.97
469.69	5366.85
469.87	5607.92
470.05	5357.49
470.23	5406.64
470.41	5341.10
470.59	5614.95
470.77	5320.04
470.95	5322.38
471.14	5561.11
471.32	5495.58
471.50	5490.90
471.68	5584.52
471.86	5708.57
472.04	5680.48
472.22	5710.91
472.40	5652.39
472.58	5949.64
472.77	5895.81
472.95	5694.52
473.13	6078.37
473.31	5975.39
473.49	5935.60
473.67	5905.17
473.85	5928.58
474.03	6003.47
474.21	6129.86
474.39	6174.33
474.57	6244.55
474.75	6188.38
474.93	6267.95
475.12	6207.10
475.30	6310.08
475.48	6057.31
475.66	6375.62
475.84	6274.98
476.02	6317.11
476.20	6363.92
476.38	6520.73
476.56	6649.46
476.74	6712.66
476.92	6473.92
477.10	6523.07
477.28	6766.49
477.46	6619.04
477.64	6927.99
477.82	6775.85
478.00	6775.85
478.18	7054.37
478.36	6906.92
478.54	7082.46
478.72	7150.34
478.90	7126.93
479.08	7274.38
479.26	7267.36
479.44	7274.38
479.62	7447.58
479.80	7325.88
479.98	7611.42
480.16	7791.64
480.34	7508.44
480.52	7726.11
480.70	7698.02
480.88	7810.37
481.06	7744.83
481.24	7721.43
481.41	7953.14
481.59	8009.31
481.77	8067.83
481.95	8112.30
482.13	8131.02
482.31	8004.63
482.49	8339.33
482.67	8428.27
482.85	8524.23
483.03	8582.74
483.21	8711.47
483.39	8608.49
483.57	8751.26
483.74	8664.66
483.92	8840.20
484.10	8964.25
484.28	8819.14
484.46	9050.85
484.64	9331.72
484.82	9123.41
485.00	9259.16
485.18	9259.16
485.35	9385.55
485.53	9586.83
485.71	9521.30
485.89	9687.48
486.07	9535.34
486.25	9617.26
486.43	9554.07
486.61	9788.12
486.78	9832.59
486.96	10010.47
487.14	10001.11
487.32	10176.65
487.50	10417.72
487.68	10422.41
487.85	10452.83
488.03	10583.90
488.21	10707.95
488.39	10698.59
488.57	10836.68
488.75	10827.32
488.92	11070.73
489.10	11194.78
489.28	10970.09
489.46	11201.80
489.64	11136.27
489.81	11375.00
489.99	11384.37
490.17	11318.83
490.35	11571.61
490.53	11609.06
490.70	11810.34
490.88	11812.68
491.06	11960.14
491.24	11880.56
491.41	12030.35
491.59	12170.79
491.77	12032.69
491.95	12379.09
492.13	12432.93
492.30	12531.23
492.48	12397.82
492.66	12627.19
492.84	12421.22
493.01	12683.36
493.19	12524.21
493.37	12807.41
493.54	12891.67
493.72	12929.12
493.90	12929.12
494.08	12875.29
494.25	13245.09
494.43	13289.56
494.61	13383.18
494.79	13383.18
494.96	13467.44
495.14	13493.19
495.32	13724.90
495.49	13837.25
495.67	13661.71
495.85	13795.12
496.02	14120.45
496.20	14061.94
496.38	14251.52
496.55	14190.67
496.73	14319.40
496.91	14417.70
497.09	14319.40
497.26	14436.42
497.44	14459.83
497.62	14541.75
497.79	14567.49
497.97	14581.54
498.14	15002.83
498.32	14939.64
498.50	15070.71
498.67	15124.54
498.85	15016.88
499.03	15136.24
499.20	15339.87
499.38	15414.77
499.56	15473.28
499.73	15300.08
499.91	15578.61
500.08	15489.67
500.26	15440.51
500.44	15520.09
500.61	15382.00
500.79	15431.15
500.97	15779.89
501.14	16273.74
501.32	16123.95
501.49	16121.61
501.67	15709.68
501.84	16236.30
502.02	16210.55
502.20	16334.60
502.37	16299.49
502.55	16163.74
502.72	16390.77
502.90	16402.47
503.07	16400.13
503.25	16561.63
503.43	16334.60
503.60	16856.54
503.78	16833.13
503.95	16617.80
504.13	16720.79
504.30	16877.60
504.48	16835.47
504.65	17149.11
504.83	17085.91
505.01	17123.36
505.18	17270.81
505.36	17151.45
505.53	16999.31
505.71	17018.04
505.88	17216.98
506.06	17074.21
506.23	17570.40
506.41	17582.10
506.58	17439.33
506.76	17879.35
506.93	17530.61
507.11	17380.82
507.28	17820.84
507.46	17834.88
507.63	17933.18
507.81	18097.02
507.98	17879.35
508.16	18122.77
508.33	17830.20
508.50	17947.23
508.68	18312.35
508.85	18338.10
509.03	18370.86
509.20	18382.57
509.38	18735.99
509.55	18625.98
509.73	18813.23
509.90	18705.56
510.08	18649.39
510.25	18724.29
510.42	18562.79
510.60	18960.68
510.77	18984.09
510.95	18963.02
511.12	18689.18
511.30	19091.75
511.47	19012.17
511.64	19213.46
511.82	19278.99
511.99	19176.01
512.17	19381.98
512.34	19417.08
512.51	19789.23
512.69	19239.20
512.86	19566.88
513.04	19829.02
513.21	19646.46
513.38	19552.84
513.56	19873.49
513.73	19601.99
513.90	19939.02
514.08	19814.98
514.25	19817.32
514.43	20023.28
514.60	20009.24
514.77	20313.51
514.95	20255.00
515.12	19948.39
515.29	20074.77
515.47	20074.77
515.64	20271.38
515.81	20442.24
515.99	20271.38
516.16	20582.67
516.33	20444.58
516.51	20833.11
516.68	20418.83
516.85	20339.26
517.03	20877.58
517.20	20746.51
517.37	20875.24
517.54	20908.01
517.72	20709.06
517.89	20922.05
518.06	20755.87
518.24	20779.28
518.41	20996.95
518.58	20924.39
518.75	21411.22
518.93	20854.17
519.10	21490.80
519.27	21319.94
519.45	21303.56
519.62	21514.20
519.79	21364.41
519.96	21460.37
520.14	21446.33
520.31	21069.50
520.48	21385.47
520.65	21724.85
520.83	21839.54
521.00	21617.19
521.17	21642.93
521.34	21696.77
521.52	22019.76
521.69	21682.72
521.86	22230.41
522.03	21923.80
522.20	22244.45
522.38	21958.91
522.55	22092.32
522.72	22031.46
522.89	22214.02
523.07	22590.85
523.24	22036.14
523.41	22696.17
523.58	22167.21
523.75	22478.50
523.92	22408.29
524.10	22548.72
524.27	22532.34
524.44	22764.05
524.61	22522.98
524.78	22974.70
524.96	22934.91
525.13	22731.28
525.30	22745.33
525.47	22899.80
525.64	22614.26
525.81	23126.83
525.98	23510.68
526.16	22855.33
526.33	23433.44
526.50	23173.64
526.67	23346.84
526.84	22946.61
527.01	23332.80
527.18	23264.92
527.36	23396.00
527.53	23623.03
527.70	23616.01
527.87	23229.82
528.04	23765.80
528.21	23838.36
528.38	23580.90
528.55	23716.65
528.72	23435.78
528.89	23695.58
529.07	23875.80
529.24	23915.59
529.41	23960.06
529.58	23618.35
529.75	23875.80
529.92	23548.13
530.09	23878.15
530.26	23922.62
530.43	23866.44
530.60	23852.40
530.77	23864.10
530.94	24032.62
531.11	24123.90
531.28	24044.32
531.46	24304.12
531.63	23955.38
531.80	24617.75
531.97	24105.18
532.14	24414.13
532.31	24449.24
532.48	24306.46
532.65	24503.07
532.82	24685.63
532.99	24514.77
533.16	24423.49
533.33	24830.74
533.50	24926.71
533.67	24748.82
533.84	24463.28
534.01	24687.97
534.18	24620.10
534.35	25046.07
534.52	24718.40
534.69	24821.38
534.86	24889.26
535.03	24615.41
535.20	24624.78
535.37	25151.40
535.54	24952.45
535.71	24702.01
535.88	25060.12
536.05	24847.13
536.22	24982.88
536.38	25465.03
536.55	24940.75
536.72	25348.00
536.89	24931.39
537.06	25338.64
537.23	25486.09
537.40	25390.13
537.57	25439.28
537.74	25270.76
537.91	25722.49
538.08	25553.97
538.25	25633.55
538.42	25720.15
538.59	25357.36
538.75	25568.01
538.92	25734.19
539.09	25741.21
539.26	25514.18
539.43	25813.77
539.60	25429.92
539.77	25654.61
539.94	25891.01
540.11	25710.78
540.28	26040.80
540.44	25900.37
540.61	25809.09
540.78	26043.14
540.95	26150.81
541.12	26345.07
541.29	26321.66
541.46	25860.58
541.62	25933.14
541.79	26368.48
541.96	25788.02
542.13	26012.71
542.30	26410.60
542.47	26476.14
542.63	26492.52
542.80	26630.62
542.97	26724.24
543.14	26923.18
543.31	26387.20
543.48	26518.27
543.64	26679.77
543.81	26859.99
543.98	26862.33
544.15	26951.27
544.32	27246.18
544.48	26918.50
544.65	26775.73
544.82	27147.87
544.99	26848.29
545.16	27063.61
545.32	27061.27
545.49	27300.01
545.66	27379.59
545.83	27440.44
546.00	27164.26
546.16	26995.74
546.33	27065.96
546.50	26923.18
546.67	27374.91
546.83	26796.79
547.00	27082.34
547.17	27262.56
547.34	27314.05
547.50	27686.20
547.67	27779.82
547.84	27615.98
548.00	27318.73
548.17	27351.50
548.34	27393.63
548.51	27793.86
548.67	27756.41
548.84	27508.32
549.01	27679.18
549.18	27608.96
549.34	27559.81
549.51	27686.20
549.68	27531.72
549.84	27754.07
550.01	27559.81
550.18	28023.23
550.34	27885.14
550.51	27812.59
550.68	27936.63
550.84	27669.81
551.01	27871.10
551.18	27777.48
551.34	27311.71
551.51	28058.34
551.68	27634.71
551.84	28348.57
552.01	27784.50
552.18	28329.84
552.34	28056.00
552.51	28608.37
552.68	28123.88
552.84	28018.55
553.01	28533.47
553.18	28009.19
553.34	28500.70
553.51	28294.74
553.67	28559.22
553.84	28704.33
554.01	28629.43
554.17	28489.00
554.34	28374.31
554.51	28416.44
554.67	28659.86
554.84	28353.25
555.00	28575.60
555.17	28659.86
555.33	28842.42
555.50	28327.50
555.67	28533.47
555.83	28591.98
556.00	28489.00
556.16	28599.01
556.33	28460.91
556.50	28727.74
556.66	28952.43
556.83	28451.55
556.99	29095.20
557.16	28870.51
557.32	28411.76
557.49	28989.88
557.65	28416.44
557.82	28943.06
557.98	28884.55
558.15	28987.53
558.32	28783.91
558.48	29116.26
558.65	29184.14
558.81	29200.52
558.98	29057.75
559.14	28835.40
559.31	29153.71
559.47	28840.08
559.64	29062.43
559.80	29074.13
559.97	29443.94
560.13	29191.16
560.30	29270.74
560.46	29048.39
560.63	28971.15
560.79	29120.95
560.96	29062.43
561.12	29270.74
561.29	28699.65
561.45	29352.66
561.61	29404.15
561.78	29453.30
561.94	29476.71
562.11	29493.09
562.27	29298.83
562.44	29434.58
562.60	29174.78
562.77	28996.90
562.93	29319.89
563.10	29511.81
563.26	29280.10
563.42	29677.99
563.59	29544.58
563.75	29418.19
563.92	29759.91
564.08	29551.60
564.24	29160.73
564.41	29209.89
564.57	29357.34
564.74	29818.42
564.90	29689.70
565.07	29883.96
565.23	29563.31
565.39	29305.85
565.56	29598.41
565.72	29582.03
565.88	29556.28
566.05	29872.26
566.21	29589.05
566.38	29317.55
566.54	29340.96
566.70	29759.91
566.87	30099.29
567.03	29560.97
567.19	29993.97
567.36	29619.48
567.52	29731.83
567.68	29841.83
567.85	30235.04
568.01	29722.46
568.17	29701.40
568.34	29436.92
568.50	29811.40
568.66	29792.68
568.83	29928.43
568.99	29722.46
569.15	29612.46
569.32	29710.76
569.48	29743.53
569.64	30064.18
569.81	30113.33
569.97	29909.71
570.13	30012.69
570.30	29612.46
570.46	29830.13
570.62	29975.24
570.78	29869.92
570.95	29804.38
571.11	30403.56
571.27	29898.00
571.43	30199.93
571.60	29783.32
571.76	30129.72
571.92	29907.37
572.09	30340.36
572.25	30218.66
572.41	30391.86
572.57	30316.96
572.74	30005.67
572.90	29235.63
573.06	30209.29
573.22	30127.38
573.38	30066.52
573.55	30078.22
573.71	30455.05
573.87	30340.36
574.03	30195.25
574.20	30080.56
574.36	30242.06
574.52	30476.12
574.68	30038.44
574.84	30480.80
575.01	29986.94
575.17	30080.56
575.33	29965.88
575.49	30471.43
575.65	30396.54
575.82	30164.82
575.98	30125.04
576.14	30272.49
576.30	29839.49
576.46	30319.30
576.62	30017.37
576.79	30450.37
576.95	30206.95
577.11	30199.93
577.27	30508.88
577.43	30389.52
577.59	30253.76
577.75	30059.50
577.92	30146.10
578.08	29998.65
578.24	30398.88
578.40	30305.26
578.56	30345.05
578.72	30232.70
578.88	30473.78
579.04	30551.01
579.21	30115.67
579.37	30962.95
579.53	30267.81
579.69	30450.37
579.85	30267.81
580.01	29855.87
580.17	30031.41
580.33	30286.53
580.49	30391.86
580.65	30419.94
580.82	30785.07
580.98	30235.04
581.14	30342.70
581.30	30221.00
581.46	30272.49
581.62	30038.44
581.78	30225.68
581.94	30607.19
582.10	30260.79
582.26	30211.64
582.42	30057.16
582.58	30574.42
582.74	30305.26
582.90	30354.41
583.06	30466.75
583.22	30316.96
583.38	30462.07
583.54	30551.01
583.70	30263.13
583.86	30169.51
584.02	30256.11
584.18	30499.52
584.34	30466.75
584.50	30597.82
584.66	30597.82
584.82	30031.41
584.98	30326.32
585.14	30321.64
585.30	30185.89
585.46	30457.39
585.62	30235.04
585.78	30328.66
585.94	30387.18
586.10	30623.57
586.26	30595.48
586.42	30721.87
586.58	30562.72
586.74	30866.98
586.90	30408.24
587.06	30216.32
587.22	30623.57
587.38	30221.00
587.54	30471.43
587.70	30202.27
587.86	30487.82
588.02	30717.19
588.18	30876.35
588.34	30459.73
588.49	30866.98
588.65	30235.04
588.81	30281.85
588.97	30745.28
589.13	30576.76
589.29	30646.97
589.45	30885.71
589.61	30939.54
589.77	30815.49
589.93	30693.79
590.08	31056.57
590.24	31065.93
590.40	31180.62
590.56	30764.00
590.72	30707.83
590.88	30735.92
591.04	30993.37
591.20	30808.47
591.35	30958.27
591.51	31201.68
591.67	30684.42
591.83	31166.57
591.99	30939.54
592.15	31023.80
592.31	30862.30
592.46	30864.64
592.62	30913.80
592.78	30445.69
592.94	30740.60
593.10	30829.54
593.26	30562.72
593.41	31356.16
593.57	30909.11
593.73	31098.70
593.89	30576.76
594.05	30955.93
594.20	31051.89
594.36	30869.33
594.52	31070.61
594.68	30834.22
594.84	30497.18
594.99	31211.04
595.15	30855.28
595.31	31398.29
595.47	30618.89
595.62	31054.23
595.78	30733.57
595.94	31033.16
596.10	31103.38
596.25	30717.19
596.41	31119.76
596.57	30871.67
596.73	31000.40
596.88	30752.30
597.04	31047.21
597.20	30885.71
597.36	31084.65
597.51	31021.46
597.67	31381.90
597.83	30721.87
597.99	30820.17
598.14	30951.24
598.30	30993.37
598.46	30850.60
598.61	31103.38
598.77	31091.68
598.93	31070.61
599.09	31349.14
599.24	31391.26
599.40	31115.08
599.56	31260.20
599.71	31014.44
599.87	31332.75
600.03	31225.09
600.18	30859.96
600.34	31140.83
600.50	30864.64
600.65	31262.54
600.81	31246.15
600.97	31314.03
601.12	31178.28
601.28	31627.66
601.44	31262.54
601.59	31110.40
601.75	30974.65
601.91	31288.28
602.06	30869.33
602.22	31178.28
602.37	31143.17
602.53	31026.14
602.69	31398.29
602.84	30974.65
603.00	30862.30
603.16	31304.67
603.31	31124.44
603.47	30979.33
603.62	31056.57
603.78	31459.14
603.94	30845.92
604.09	31119.76
604.25	30890.39
604.40	30836.56
604.56	30909.11
604.71	31388.92
604.87	31192.32
605.03	31182.96
605.18	31222.75
605.34	31257.85
605.49	30761.66
605.65	30632.93
605.80	30520.59
605.96	30618.89
606.12	30874.01
606.27	31124.44
606.43	30911.46
606.58	30682.08
606.74	31033.16
606.89	31065.93
607.05	31096.36
607.20	31180.62
607.36	31000.40
607.51	31140.83
607.67	30532.29
607.82	30927.84
607.98	31175.94
608.13	30682.08
608.29	30747.62
608.44	30965.29
608.60	30918.48
608.75	31428.71
608.91	30698.47
609.06	30897.41
609.22	30829.54
609.37	30911.46
609.53	30785.07
609.68	30878.69
609.84	30405.90
609.99	30782.73
610.15	30459.73
610.30	30906.77
610.46	31187.64
610.61	30822.51
610.76	31264.88
610.92	31255.51
611.07	30558.03
611.23	30586.12
611.38	30822.51
611.54	30478.46
611.69	30532.29
611.84	30504.20
612.00	30637.61
612.15	30654.00
612.31	30827.20
612.46	30773.36
612.62	30492.50
612.77	30513.56
612.92	30775.70
613.08	30771.02
613.23	30925.50
613.39	30443.35
613.54	30625.91
613.69	30284.19
613.85	30314.62
614.00	30457.39
614.15	30485.48
614.31	30202.27
614.46	30396.54
614.62	30551.01
614.77	31056.57
614.92	30590.80
615.08	30103.97
615.23	30272.49
615.38	30668.04
615.54	30171.85
615.69	30305.26
615.84	30188.23
616.00	30171.85
616.15	30199.93
616.30	30429.30
616.46	30450.37
616.61	30527.61
616.76	29970.56
616.92	30181.21
617.07	30258.45
617.22	30127.38
617.37	29909.71
617.53	30321.64
617.68	30228.02
617.83	30366.11
617.99	30040.78
618.14	29890.98
618.29	30347.39
618.45	29708.42
618.60	30110.99
618.75	30033.75
618.90	29998.65
619.06	30221.00
619.21	30125.04
619.36	30047.80
619.51	29998.65
619.67	29963.54
619.82	29565.65
619.97	30256.11
620.12	29614.80
620.28	29521.18
620.43	30080.56
620.58	30080.56
620.73	30265.47
620.89	30047.80
621.04	30164.82
621.19	29809.06
621.34	30068.86
621.49	29692.04
621.65	29865.24
621.80	30141.42
621.95	29769.27
622.10	29619.48
622.25	29649.91
622.41	29556.28
622.56	29703.74
622.71	29685.01
622.86	29764.59
623.01	29804.38
623.16	29453.30
623.32	29631.18
623.47	29788.00
623.62	29661.61
623.77	29507.13
623.92	29502.45
624.07	29729.48
624.23	29474.37
624.38	29879.28
624.53	29600.76
624.68	29876.94
624.83	29869.92
624.98	29443.94
625.13	29483.73
625.29	29619.48
625.44	29387.77
625.59	29425.22
625.74	29364.36
625.89	29280.10
626.04	29371.38
626.19	29195.84
626.34	29060.09
626.49	29127.97
626.65	29099.88
626.80	29053.07
626.95	29003.92
627.10	28959.45
627.25	29039.03
627.40	28973.49
627.55	28676.24
627.70	29024.98
627.85	28636.45
628.00	29076.48
628.15	28926.68
628.30	28931.36
628.45	29223.93
628.60	28968.81
628.76	28945.41
628.91	28797.95
629.06	29008.60
629.21	29036.69
629.36	28709.01
629.51	28744.12
629.66	29027.32
629.81	29083.50
629.96	28608.37
630.11	28847.10
630.26	28762.84
630.41	28765.18
630.56	28744.12
630.71	28402.40
630.86	28435.17
631.01	28613.05
631.16	28833.06
631.31	28496.02
631.46	28608.37
631.61	28821.36
631.76	28922.00
631.91	28746.46
632.06	28395.38
632.21	28655.18
632.36	28594.32
632.51	28414.10
632.66	28758.16
632.81	28016.21
632.96	28390.70
633.10	28343.89
633.25	28683.27
633.40	28591.98
633.55	28446.87
633.70	28144.94
633.85	28261.97
634.00	28219.84
634.15	28444.53
634.30	28238.56
634.45	28151.96
634.60	28161.33
634.75	28339.21
634.90	28105.15
635.05	28641.14
635.19	28327.50
635.34	28374.31
635.49	28395.38
635.64	28201.11
635.79	28276.01
635.94	28023.23
636.09	27922.59
636.24	28030.26
636.39	27803.22
636.53	28151.96
636.68	27948.34
636.83	28002.17
636.98	27988.13
637.13	27770.46
637.28	28084.09
637.43	28025.57
637.57	28067.70
637.72	27545.76
637.87	27831.31
638.02	28180.05
638.17	27852.38
638.32	27503.64
638.46	27941.32
638.61	27899.19
638.76	27676.83
638.91	27384.27
639.06	27262.56
639.20	28151.96
639.35	27906.21
639.50	27590.24
639.65	28137.92
639.80	28119.20
639.94	27754.07
640.09	27871.10
640.24	27807.90
640.39	27725.99
640.54	27665.13
640.68	27754.07
640.83	27388.95
640.98	27407.67
641.13	27197.02
641.27	27655.77
641.42	27580.87
641.57	27501.29
641.72	27653.43
641.86	27246.18
642.01	27524.70
642.16	27145.53
642.31	27278.94
642.45	27445.12
642.60	27269.58
642.75	27143.19
642.90	27152.55
643.04	27723.65
643.19	26813.18
643.34	27110.43
643.48	27096.38
643.63	27557.47
643.78	26991.06
643.93	27103.40
644.07	27517.68
644.22	27150.21
644.37	27487.25
644.51	27232.13
644.66	27115.11
644.81	26792.11
644.95	27131.49
645.10	27028.51
645.25	27033.19
645.39	26965.31
645.54	26829.56
645.69	27009.78
645.83	27042.55
645.98	27271.92
646.13	26649.34
646.27	27175.96
646.42	26991.06
646.57	27068.30
646.71	26817.86
646.86	26864.67
647.00	27126.81
647.15	26890.41
647.30	26731.26
647.44	26637.64
647.59	26808.50
647.74	26780.41
647.88	26536.99
648.03	26752.32
648.17	27264.90
648.32	26845.94
648.47	26824.88
648.61	26471.46
648.76	27164.26
648.90	26834.24
649.05	26960.63
649.20	26426.99
649.34	26487.84
649.49	26398.90
649.63	26284.22
649.78	26703.17
649.92	26096.97
650.07	26558.06
650.21	26532.31
650.36	26710.19
650.51	26197.62
650.65	26689.13
650.80	26309.96
650.94	26127.40
651.09	26462.10
651.23	26349.75
651.38	26501.89
651.52	26551.04
651.67	25928.45
651.81	26534.65
651.96	26281.88
652.10	26251.45
652.25	26302.94
652.39	26508.91
652.54	26628.27
652.68	26391.88
652.83	26464.44
652.97	26277.19
653.12	26258.47
653.26	26214.00
653.41	26651.68
653.55	26178.89
653.70	25692.06
653.84	26033.78
653.99	26160.17
654.13	26078.25
654.27	26106.34
654.42	26008.03
654.56	26026.76
654.71	26246.77
654.85	26417.63
655.00	26019.74
655.14	25954.20
655.29	26111.02
655.43	26010.37
655.57	25638.23
655.72	25891.01
655.86	25949.52
656.01	25907.39
656.15	25446.30
656.30	25694.40
656.44	25661.63
656.58	25628.87
656.73	25656.95
656.87	25649.93
657.01	25682.70
657.16	25544.61
657.30	25769.30
657.45	25738.87
657.59	25673.34
657.73	25741.21
657.88	25769.30
658.02	25399.49
658.16	25563.33
658.31	25380.77
658.45	25680.36
658.60	25212.25
658.74	25207.57
658.88	25472.05
659.03	25333.96
659.17	25539.93
659.31	25443.96
659.46	25146.72
659.60	25678.02
659.74	25184.16
659.89	25188.85
660.03	25130.33
660.17	25214.59
660.32	25179.48
660.46	24781.59
660.60	24828.40
660.74	25135.01
660.89	24994.58
661.03	24943.09
661.17	24910.32
661.32	24790.95
661.46	25036.71
661.60	24797.98
661.74	25025.01
661.89	24947.77
662.03	24865.85
662.17	24877.55
662.31	24428.17
662.46	24439.87
662.60	24905.64
662.74	24678.61
662.88	24559.24
663.03	24730.10
663.17	24435.19
663.31	24472.64
663.45	24430.51
663.60	24460.94
663.74	24388.38
663.88	24308.80
664.02	24266.67
664.17	24524.13
664.31	24297.10
664.45	24388.38
664.59	24386.04
664.73	24397.74
664.88	24407.11
665.02	23840.70
665.16	23756.44
665.30	23843.04
665.44	24102.84
665.59	23681.54
665.73	23711.97
665.87	23491.96
666.01	23978.79
666.15	23695.58
666.29	23756.44
666.44	24168.37
666.58	23859.42
666.72	23339.82
666.86	23859.42
667.00	23929.64
667.14	23288.33
667.28	23824.31
667.43	23522.38
667.57	23641.75
667.71	23175.98
667.85	23447.49
667.99	23241.52
668.13	23683.88
668.27	23337.48
668.41	23534.09
668.56	23452.17
668.70	23330.46
668.84	23145.56
668.98	23513.02
669.12	23438.12
669.26	23089.38
669.40	23173.64
669.54	23122.15
669.68	22965.34
669.82	22738.30
669.96	23070.66
670.10	22855.33
670.25	22787.46
670.39	22352.12
670.53	22860.01
670.67	22438.72
670.81	23033.21
670.95	22948.95
671.09	22604.89
671.23	22642.34
671.37	22630.64
671.51	22635.32
671.65	22635.32
671.79	22682.13
671.93	22494.89
672.07	22476.16
672.21	22120.40
672.35	22141.47
672.49	22054.87
672.63	22106.36
672.77	21989.33
672.91	22167.21
673.05	21874.65
673.19	22031.46
673.33	21872.31
673.47	22003.38
673.61	21963.59
673.75	21984.65
673.89	22012.74
674.03	21603.14
674.17	21638.25
674.31	21820.81
674.45	21553.99
674.59	21745.92
674.73	21898.05
674.87	21507.18
675.01	21518.89
675.15	21474.42
675.29	21219.30
675.43	21235.68
675.56	21170.15
675.70	21109.29
675.84	21483.78
675.98	21172.49
676.12	21561.02
676.26	21380.79
676.40	21064.82
676.54	21216.96
676.68	21392.50
676.82	21039.08
676.96	20744.17
677.10	20652.89
677.23	20798.00
677.37	20444.58
677.51	20542.88
677.65	20430.54
677.79	20372.02
677.93	20163.72
678.07	20367.34
678.21	20173.08
678.34	20123.93
678.48	20184.78
678.62	20119.24
678.76	20142.65
678.90	20058.39
679.04	20278.40
679.18	19964.77
679.31	19812.63
679.45	19541.13
679.59	19749.44
679.73	19683.91
679.87	19499.00
680.00	19543.47
680.14	19194.73
680.28	19290.70
680.42	19609.01
680.56	19428.79
680.70	19253.25
680.83	19353.89
680.97	19185.37
681.11	19281.33
681.25	19042.60
681.39	18937.27
681.52	19295.38
681.66	18731.31
681.80	18820.25
681.94	18602.58
682.07	18902.17
682.21	18977.06
682.35	18530.02
682.49	18710.24
682.62	18436.40
682.76	18380.23
682.90	18511.30
683.04	18560.45
683.17	18265.54
683.31	18476.19
683.45	18394.27
683.59	18097.02
683.72	18160.22
683.86	17834.88
684.00	18092.34
684.13	17839.56
684.27	17720.20
684.41	17884.03
684.55	17507.21
684.68	17680.41
684.82	17420.61
684.96	17324.65
685.09	17598.49
685.23	17369.12
685.37	17362.09
685.50	17568.06
685.64	17544.66
685.78	17331.67
685.91	17486.14
686.05	17261.45
686.19	17188.89
686.32	17216.98
686.46	16877.60
686.60	16971.22
686.73	17095.27
686.87	17039.10
687.01	16592.06
687.14	16893.99
687.28	16439.92
687.42	16641.21
687.55	16652.91
687.69	16566.31
687.82	16685.68
687.96	16549.93
688.10	16517.16
688.23	16547.59
688.37	16336.94
688.50	16311.19
688.64	16299.49
688.78	16121.61
688.91	15779.89
689.05	16116.93
689.18	15810.32
689.32	15590.31
689.46	15625.42
689.59	15489.67
689.73	15829.04
689.86	15679.25
690.00	15915.64
690.13	15660.52
690.27	15892.24
690.41	15391.36
690.54	15293.06
690.68	15550.52
690.81	15723.72
690.95	15529.45
691.08	15061.35
691.22	15360.94
691.35	15091.77
691.49	15098.80
691.62	14932.62
691.76	14958.36
691.89	14775.80
692.03	14897.51
692.16	14602.60
692.30	14640.05
692.43	14558.13
692.57	14560.47
692.70	14464.51
692.84	14235.14
692.97	14579.20
693.11	14431.74
693.24	14164.92
693.38	14429.40
693.51	14113.43
693.65	14218.75
693.78	14054.92
693.92	14043.21
694.05	13984.70
694.19	14293.65
694.32	13764.69
694.45	13813.84
694.59	13923.85
694.72	13570.43
694.86	13380.84
694.99	13312.97
695.13	13748.31
695.26	13657.03
695.39	13654.69
695.53	13523.62
695.66	13525.96
695.80	13394.89
695.93	13322.33
696.07	13277.86
696.20	13490.85
696.33	13362.12
696.47	13008.70
696.60	13184.24
696.73	12894.01
696.87	13170.19
697.00	12844.86
697.14	12704.43
697.27	12718.47
697.40	12575.70
697.54	12521.87
697.67	12451.65
697.80	12681.02
697.94	12479.74
698.07	12475.06
698.21	12479.74
698.34	12608.47
698.47	12402.50
698.61	12201.21
698.74	12210.57
698.87	12318.24
699.01	12102.91
699.14	12065.46
699.27	12091.21
699.40	12035.03
699.54	12025.67
699.67	11772.89
699.80	12219.94
699.94	11707.36
700.07	11524.80
700.20	11690.98
700.34	11470.97
700.47	11410.11
700.60	11363.30
700.73	11447.56
700.87	11719.06
701.00	11115.20
701.13	11515.44
701.26	11459.26
701.40	11372.66
701.53	11396.07
701.66	10967.75
701.79	11295.43
701.93	11288.40
702.06	10991.16
702.19	10801.57
702.32	10731.36
702.46	10700.93
702.59	10743.06
702.72	10773.49
702.85	10712.63
702.99	10560.50
703.12	10443.47
703.25	10724.33
703.38	10682.20
703.51	10441.13
703.65	10415.38
703.78	10300.70
703.91	10317.08
704.04	10572.20
704.17	10429.43
704.31	10167.29
704.44	10101.75
704.57	10094.73
704.70	10328.78
704.83	10092.39
704.96	9905.15
705.10	9940.26
705.23	9874.72
>>>>>End Processed Spectral Data<<<<<
