SpectraSuite Data File
++++++++++++++++++++++++++++++++++++
Date: Fri Oct 18 13:58:43 GMT-05:00 2013
User: bianchi
Dark Spectrum Present: No
Reference Spectrum Present: No
Number of Sampled Component Spectra: 1
Spectrometers: USB2+H05261
Integration Time (usec): 50000 (USB2+H05261)
Spectra Averaged: 1 (USB2+H05261)
Boxcar Smoothing: 0 (USB2+H05261)
Correct for Electrical Dark: No (USB2+H05261)
Strobe/Lamp Enabled: No (USB2+H05261)
Correct for Detector Non-linearity: No (USB2+H05261)
Correct for Stray Light: No (USB2+H05261)
Number of Pixels in Processed Spectrum: 2048
>>>>>Begin Processed Spectral Data<<<<<
365.73	0.00
365.92	0.00
366.12	0.00
366.32	0.00
366.52	0.00
366.72	0.00
366.91	0.00
367.11	0.00
367.31	0.00
367.51	0.00
367.70	0.00
367.90	0.00
368.10	0.00
368.30	0.00
368.49	0.00
368.69	0.00
368.89	0.00
369.09	0.00
369.28	0.00
369.48	0.00
369.68	0.00
369.87	0.00
370.07	0.00
370.27	0.00
370.47	0.00
370.66	84.26
370.86	102.98
371.06	173.20
371.25	154.48
371.45	70.22
371.65	128.73
371.84	201.29
372.04	53.83
372.24	91.28
372.44	135.75
372.63	220.01
372.83	182.56
373.03	198.95
373.22	196.60
373.42	234.05
373.62	234.05
373.81	173.20
374.01	245.76
374.21	182.56
374.40	236.39
374.60	177.88
374.79	222.35
374.99	334.70
375.19	187.24
375.38	243.42
375.58	259.80
375.78	187.24
375.97	269.16
376.17	292.57
376.37	276.18
376.56	208.31
376.76	229.37
376.95	337.04
377.15	273.84
377.35	257.46
377.54	262.14
377.74	278.52
377.93	222.35
378.13	313.63
378.33	351.08
378.52	334.70
378.72	264.48
378.91	222.35
379.11	278.52
379.31	362.78
379.50	264.48
379.70	280.86
379.89	407.25
380.09	271.50
380.28	360.44
380.48	306.61
380.68	322.99
380.87	292.57
381.07	311.29
381.26	344.06
381.46	318.31
381.65	255.12
381.85	304.27
382.04	322.99
382.24	308.95
382.43	308.95
382.63	306.61
382.83	344.06
383.02	397.89
383.22	341.72
383.41	334.70
383.61	376.83
383.80	397.89
384.00	362.78
384.19	341.72
384.39	285.55
384.58	327.68
384.78	383.85
384.97	418.96
385.17	374.49
385.36	433.00
385.56	454.06
385.75	376.83
385.95	454.06
386.14	376.83
386.34	395.55
386.53	339.38
386.72	414.27
386.92	374.49
387.11	433.00
387.31	400.23
387.50	435.34
387.70	433.00
387.89	388.53
388.09	442.36
388.28	418.96
388.48	369.80
388.67	514.92
388.86	470.45
389.06	428.32
389.25	641.31
389.45	477.47
389.64	486.83
389.84	468.11
390.03	571.09
390.22	423.64
390.42	564.07
390.61	475.13
390.81	507.90
391.00	491.51
391.19	496.19
391.39	524.28
391.58	564.07
391.78	538.32
391.97	475.13
392.16	489.17
392.36	580.45
392.55	554.71
392.75	592.16
392.94	557.05
393.13	528.96
393.33	512.58
393.52	575.77
393.71	594.50
393.91	566.41
394.10	561.73
394.29	550.03
394.49	463.43
394.68	538.32
394.88	617.90
395.07	645.99
395.26	468.11
395.46	552.37
395.65	650.67
395.84	594.50
396.04	676.41
396.23	573.43
396.42	613.22
396.62	627.26
396.81	660.03
397.00	641.31
397.19	638.97
397.39	655.35
397.58	641.31
397.77	692.80
397.97	720.88
398.16	631.94
398.35	645.99
398.55	725.57
398.74	713.86
398.93	774.72
399.12	688.12
399.32	648.33
399.51	690.46
399.70	662.37
399.90	753.65
400.09	737.27
400.28	854.30
400.47	758.33
400.67	716.20
400.86	809.83
401.05	730.25
401.24	849.61
401.44	788.76
401.63	856.64
401.82	748.97
402.01	819.19
402.21	823.87
402.40	751.31
402.59	793.44
402.78	875.36
402.97	903.45
403.17	802.80
403.36	919.83
403.55	807.48
403.74	805.14
403.93	755.99
404.13	877.70
404.32	882.38
404.51	798.12
404.70	856.64
404.89	1011.11
405.09	954.94
405.28	1011.11
405.47	905.79
405.66	903.45
405.85	1076.65
406.05	971.32
406.24	973.66
406.43	821.53
406.62	1006.43
406.81	1050.90
407.00	1006.43
407.20	992.39
407.39	1004.09
407.58	1057.92
407.77	1046.22
407.96	978.34
408.15	1046.22
408.34	1039.20
408.54	1006.43
408.73	1001.75
408.92	1008.77
409.11	1188.99
409.30	1093.03
409.49	1163.25
409.68	1149.20
409.87	1231.12
410.07	1165.59
410.26	1235.80
410.45	1191.33
410.64	1128.14
410.83	1125.80
411.02	1207.72
411.21	1221.76
411.40	1186.65
411.59	1235.80
411.78	1146.86
411.98	1163.25
412.17	1245.16
412.36	1341.13
412.55	1291.98
412.74	1392.62
412.93	1444.11
413.12	1352.83
413.31	1329.42
413.50	1397.30
413.69	1409.00
413.88	1448.79
414.07	1320.06
414.26	1355.17
414.45	1425.39
414.64	1528.37
414.83	1474.54
415.02	1551.78
415.22	1448.79
415.41	1668.80
415.60	1610.29
415.79	1614.97
415.98	1523.69
416.17	1469.86
416.36	1671.14
416.55	1542.41
416.74	1687.53
416.93	1638.38
417.12	1664.12
417.31	1673.48
417.50	1689.87
417.69	1685.19
417.88	1816.26
418.07	1621.99
418.26	1687.53
418.45	1741.36
418.64	1804.55
418.83	1785.83
419.02	1710.93
419.21	1825.62
419.39	1727.32
419.58	1783.49
419.77	1741.36
419.96	1877.11
420.15	1846.68
420.34	1909.88
420.53	1781.15
420.72	1909.88
420.91	1860.73
421.10	1944.99
421.29	1940.30
421.48	1874.77
421.67	1959.03
421.86	1886.47
422.05	2036.27
422.24	1827.96
422.43	1989.46
422.61	2069.03
422.80	2045.63
422.99	2010.52
423.18	2050.31
423.37	2019.88
423.56	2010.52
423.75	2069.03
423.94	1982.43
424.13	1937.96
424.32	1975.41
424.50	1982.43
424.69	2005.84
424.88	2040.95
425.07	1919.24
425.26	1998.82
425.45	2043.29
425.64	1966.05
425.83	2008.18
426.01	2097.12
426.20	1987.11
426.39	1977.75
426.58	2036.27
426.77	2057.33
426.96	2136.91
427.15	2073.71
427.33	2129.89
427.52	2181.38
427.71	2172.02
427.90	2143.93
428.09	2162.66
428.28	2129.89
428.46	2157.97
428.65	2132.23
428.84	2282.02
429.03	2246.91
429.22	2092.44
429.40	2176.70
429.59	2181.38
429.78	2080.74
429.97	2165.00
430.16	2122.87
430.34	2204.78
430.53	2361.60
430.72	2293.72
430.91	2242.23
431.10	2333.51
431.28	2448.20
431.47	2420.11
431.66	2448.20
431.85	2300.75
432.03	2417.77
432.22	2452.88
432.41	2413.09
432.60	2422.45
432.79	2483.31
432.97	2420.11
433.16	2506.71
433.35	2420.11
433.54	2387.35
433.72	2459.90
433.91	2434.16
434.10	2495.01
434.28	2487.99
434.47	2483.31
434.66	2427.14
434.85	2614.38
435.03	2546.50
435.22	2588.63
435.41	2710.34
435.59	2626.08
435.78	2663.53
435.97	2672.89
436.16	2644.81
436.34	2668.21
436.53	2665.87
436.72	2799.28
436.90	2637.78
437.09	2703.32
437.28	2715.02
437.46	2731.41
437.65	2696.30
437.84	2822.69
438.02	2846.09
438.21	2712.68
438.40	2778.22
438.58	2848.43
438.77	2832.05
438.96	2654.17
439.14	2923.33
439.33	2874.18
439.52	2920.99
439.70	3038.02
439.89	2986.52
440.08	3021.63
440.26	2970.14
440.45	2967.80
440.63	3089.51
440.82	3122.27
441.01	3131.64
441.19	3124.62
441.38	3084.83
441.57	3169.09
441.75	3171.43
441.94	3274.41
442.12	3288.45
442.31	3377.39
442.50	3225.26
442.68	3194.83
442.87	3215.90
443.05	3276.75
443.24	3251.00
443.43	3513.14
443.61	3365.69
443.80	3403.14
443.98	3213.56
444.17	3218.24
444.35	3459.31
444.54	3468.67
444.73	3391.44
444.91	3442.93
445.10	3304.84
445.28	3363.35
445.47	3316.54
445.65	3454.63
445.84	3351.65
446.02	3431.23
446.21	3503.78
446.39	3473.36
446.58	3513.14
446.77	3353.99
446.95	3339.94
447.14	3335.26
447.32	3496.76
447.51	3548.25
447.69	3489.74
447.88	3440.59
448.06	3356.33
448.25	3440.59
448.43	3478.04
448.62	3466.33
448.80	3454.63
448.99	3548.25
449.17	3456.97
449.36	3529.53
449.54	3653.58
449.73	3805.71
449.91	3707.41
450.10	3794.01
450.28	3789.33
450.46	3772.94
450.65	3611.45
450.83	3845.50
451.02	3688.68
451.20	3716.77
451.39	3819.75
451.57	3688.68
451.76	3749.54
451.94	3761.24
452.13	3871.25
452.31	3775.28
452.49	3660.60
452.68	3805.71
452.86	3892.31
453.05	3950.82
453.23	3801.03
453.42	3789.33
453.60	3878.27
453.78	3859.54
453.97	3932.10
454.15	3812.73
454.34	3992.95
454.52	3911.04
454.70	3878.27
454.89	3974.23
455.07	4060.83
455.26	3988.27
455.44	4039.76
455.62	4152.11
455.81	4117.00
455.99	4088.92
456.17	4159.13
456.36	4163.81
456.54	4095.94
456.73	4287.86
456.91	4404.89
457.09	4283.18
457.28	4379.14
457.46	4271.48
457.64	4325.31
457.83	4294.88
458.01	4358.08
458.19	4386.16
458.38	4442.34
458.56	4510.21
458.74	4451.70
458.93	4325.31
459.11	4491.49
459.29	4264.46
459.48	4465.74
459.66	4365.10
459.84	4561.70
460.03	4507.87
460.21	4580.43
460.39	4617.88
460.57	4458.72
460.76	4468.08
460.94	4685.75
461.12	4634.26
461.31	4688.09
461.49	4704.48
461.67	4498.51
461.85	4730.22
462.04	4580.43
462.22	4833.21
462.40	4695.11
462.59	4711.50
462.77	4758.31
462.95	4772.35
463.13	4688.09
463.32	4760.65
463.50	4863.63
463.68	4816.82
463.86	4891.72
464.05	4882.36
464.23	4709.16
464.41	5011.09
464.59	4884.70
464.78	4901.08
464.96	4908.10
465.14	4980.66
465.32	4924.49
465.50	5055.56
465.69	5001.72
465.87	4936.19
466.05	4784.06
466.23	4896.40
466.41	5050.88
466.60	5268.55
466.78	5006.41
466.96	5034.49
467.14	4898.74
467.32	5041.51
467.51	5029.81
467.69	5102.37
467.87	5139.82
468.05	5156.20
468.23	5158.54
468.41	5008.75
468.60	5046.20
468.78	5254.50
468.96	5109.39
469.14	5160.88
469.32	5259.18
469.50	5203.01
469.69	5348.12
469.87	5352.81
470.05	5392.59
470.23	5263.86
470.41	5366.85
470.59	5418.34
470.77	5404.30
470.95	5397.28
471.14	5533.03
471.32	5425.36
471.50	5518.98
471.68	5626.65
471.86	5685.16
472.04	5507.28
472.22	5682.82
472.40	5678.14
472.58	5516.64
472.77	5556.43
472.95	5867.72
473.13	6040.92
473.31	5806.87
473.49	5867.72
473.67	5781.12
473.85	5795.17
474.03	6019.86
474.21	5874.74
474.39	5975.39
474.57	6033.90
474.75	6249.23
474.93	6143.91
475.12	6157.95
475.30	6183.70
475.48	5907.51
475.66	6047.94
475.84	6155.61
476.02	6221.14
476.20	6410.73
476.38	6396.68
476.56	6677.55
476.74	6581.59
476.92	6614.35
477.10	6630.74
477.28	6663.51
477.46	6628.40
477.64	6670.53
477.82	6729.04
478.00	6829.68
478.18	6918.62
478.36	7159.70
478.54	6939.69
478.72	7129.27
478.90	7019.27
479.08	7108.21
479.26	7115.23
479.44	7253.32
479.62	7232.26
479.80	7274.38
479.98	7454.61
480.16	7529.50
480.34	7410.14
480.52	7801.01
480.70	7538.87
480.88	7606.74
481.06	7864.20
481.24	7721.43
481.41	7747.17
481.59	7983.57
481.77	7721.43
481.95	8124.00
482.13	7927.39
482.31	8025.70
482.49	8222.30
482.67	8395.50
482.85	8229.32
483.03	8351.03
483.21	8524.23
483.39	8613.17
483.57	8484.44
483.74	8409.54
483.92	8514.87
484.10	8805.10
484.28	8915.10
484.46	9050.85
484.64	9228.73
484.82	9029.79
485.00	9118.73
485.18	9067.24
485.35	9371.50
485.53	9240.44
485.71	9249.80
485.89	9654.71
486.07	9500.23
486.25	9486.19
486.43	9556.41
486.61	9736.63
486.78	9729.61
486.96	10043.24
487.14	9757.69
487.32	9881.74
487.50	9994.09
487.68	10120.48
487.85	10352.19
488.03	10373.25
488.21	10619.01
488.39	10593.26
488.57	10640.08
488.75	10789.87
488.92	10808.59
489.10	10719.65
489.28	11049.67
489.46	11229.89
489.64	10977.11
489.81	11225.21
489.99	11112.86
490.17	11281.38
490.35	11330.53
490.53	11468.62
490.70	11641.82
490.88	11487.35
491.06	11866.52
491.24	11887.58
491.41	11826.73
491.59	12053.76
491.77	11932.05
491.95	12126.32
492.13	12205.89
492.30	12023.33
492.48	12224.62
492.66	12241.00
492.84	12264.41
493.01	12725.49
493.19	12720.81
493.37	12472.71
493.54	12863.58
493.72	12912.74
493.90	12924.44
494.08	13097.64
494.25	13207.64
494.43	12833.16
494.61	12964.23
494.79	13198.28
494.96	13193.60
495.14	13610.22
495.32	13444.04
495.49	13547.02
495.67	13455.74
495.85	13741.29
496.02	13703.84
496.20	13769.37
496.38	13488.51
496.55	14155.56
496.73	14284.29
496.91	14047.90
497.09	14242.16
497.26	14216.41
497.44	14513.66
497.62	14324.08
497.79	14471.53
497.97	14370.89
498.14	14654.09
498.32	14628.35
498.50	14677.50
498.67	15082.41
498.85	14775.80
499.03	14853.04
499.20	14904.53
499.38	15119.86
499.56	15049.64
499.73	15428.81
499.91	15417.11
500.08	15480.30
500.26	15279.02
500.44	15379.66
500.61	15183.06
500.79	15197.10
500.97	15704.99
501.14	15648.82
501.32	15903.94
501.49	15857.13
501.67	15838.41
501.84	16053.73
502.02	15999.90
502.20	15836.06
502.37	16159.06
502.55	15988.20
502.72	16262.04
502.90	16175.44
503.07	16142.67
503.25	16194.17
503.43	16156.72
503.60	16496.10
503.78	16491.41
503.95	16659.93
504.13	16238.64
504.30	16657.59
504.48	16582.70
504.65	16819.09
504.83	16601.42
505.01	17114.00
505.18	16833.13
505.36	17125.70
505.53	16943.14
505.71	16716.11
505.88	17102.29
506.06	16767.60
506.23	17071.87
506.41	17195.92
506.58	17317.62
506.76	17270.81
506.93	17343.37
507.11	17291.88
507.28	17444.01
507.46	17434.65
507.63	17575.08
507.81	17547.00
507.98	17759.98
508.16	17961.27
508.33	17715.51
508.50	17937.87
508.68	17867.65
508.85	18300.65
509.03	18068.94
509.20	18192.98
509.38	18216.39
509.55	18352.14
509.73	18523.00
509.90	18527.68
510.08	18326.39
510.25	18464.49
510.42	18274.90
510.60	18754.71
510.77	18469.17
510.95	18618.96
511.12	18658.75
511.30	18618.96
511.47	18647.05
511.64	18986.43
511.82	18647.05
511.99	18899.83
512.17	19197.07
512.34	18946.64
512.51	19353.89
512.69	18937.27
512.86	19253.25
513.04	19562.20
513.21	19454.53
513.38	19477.94
513.56	19241.54
513.73	19433.47
513.90	19599.65
514.08	19211.12
514.25	19646.46
514.43	19634.75
514.60	19426.45
514.77	19676.88
514.95	19749.44
515.12	19726.04
515.29	19414.74
515.47	19648.80
515.64	19791.57
515.81	19992.86
515.99	20159.03
516.16	20355.64
516.33	20325.21
516.51	20517.14
516.68	20355.64
516.85	20339.26
517.03	20163.72
517.20	20276.06
517.37	20250.32
517.54	20594.37
517.72	20407.13
517.89	20460.96
518.06	20634.16
518.24	20322.87
518.41	20669.27
518.58	20886.94
518.75	20716.08
518.93	20903.32
519.10	20929.07
519.27	20856.51
519.45	20891.62
519.62	20863.54
519.79	20919.71
519.96	21060.14
520.14	21486.12
520.31	21172.49
520.48	20922.05
520.65	21383.13
520.83	21453.35
521.00	21521.23
521.17	21308.24
521.34	21067.16
521.52	21399.52
521.69	21465.05
521.86	21759.96
522.03	21965.93
522.20	21933.16
522.38	21766.98
522.55	21605.49
522.72	21605.49
522.89	21858.26
523.07	22136.79
523.24	22015.08
523.41	22040.82
523.58	22099.34
523.75	22263.18
523.92	22038.48
524.10	21891.03
524.27	22073.59
524.44	22101.68
524.61	22448.08
524.78	22169.55
524.96	22228.07
525.13	22225.73
525.30	22239.77
525.47	22438.72
525.64	22593.19
525.81	22773.41
525.98	22476.16
526.16	23014.49
526.33	22532.34
526.50	22888.10
526.67	22717.24
526.84	22850.65
527.01	22618.94
527.18	23005.13
527.36	22600.21
527.53	22986.40
527.70	23173.64
527.87	23171.30
528.04	23285.99
528.21	23267.27
528.38	23271.95
528.55	22909.16
528.72	23192.37
528.89	23473.23
529.07	23573.88
529.24	23417.06
529.41	23403.02
529.58	23405.36
529.75	23428.76
529.92	23587.92
530.09	23426.42
530.26	23454.51
530.43	23520.04
530.60	23723.67
530.77	23662.82
530.94	23882.83
531.11	23463.87
531.28	23400.68
531.46	23697.92
531.63	23761.12
531.80	24058.37
531.97	23943.68
532.14	24154.33
532.31	23922.62
532.48	23653.45
532.65	23946.02
532.82	24088.79
532.99	24430.51
533.16	23995.17
533.33	24163.69
533.50	24346.25
533.67	24533.50
533.84	24503.07
534.01	24182.42
534.18	24018.58
534.35	24570.94
534.52	24505.41
534.69	24428.17
534.86	24404.77
535.03	24673.93
535.20	24709.04
535.37	24573.28
535.54	24849.47
535.71	24336.89
535.88	24783.93
536.05	24692.65
536.22	24982.88
536.38	25158.42
536.55	24844.79
536.72	25352.68
536.89	24959.47
537.06	24828.40
537.23	25069.48
537.40	25022.67
537.57	25078.84
537.74	24947.77
537.91	24844.79
538.08	25006.28
538.25	25289.49
538.42	25139.69
538.59	25638.23
538.75	24851.81
538.92	25259.06
539.09	25678.02
539.26	25364.39
539.43	25350.34
539.60	25144.38
539.77	25502.48
539.94	25448.64
540.11	25432.26
540.28	25656.95
540.44	25642.91
540.61	25254.38
540.78	25486.09
540.95	25359.70
541.12	25577.37
541.29	25441.62
541.46	25680.36
541.62	25317.57
541.79	25713.13
541.96	25584.40
542.13	25504.82
542.30	25876.96
542.47	26103.99
542.63	26326.35
542.80	26071.23
542.97	26143.78
543.14	26181.23
543.31	26171.87
543.48	25759.94
543.64	26204.64
543.81	26478.48
543.98	26469.12
544.15	26522.95
544.32	26506.57
544.48	26536.99
544.65	26703.17
544.82	26513.59
544.99	26522.95
545.16	26127.40
545.32	26511.25
545.49	26838.92
545.66	27110.43
545.83	26569.76
546.00	26920.84
546.16	26689.13
546.33	26651.68
546.50	26382.52
546.67	26656.36
546.83	26593.17
547.00	26733.60
547.17	26815.52
547.34	26885.73
547.50	26576.78
547.67	26820.20
547.84	26995.74
548.00	26951.27
548.17	27501.29
548.34	27091.70
548.51	27295.33
548.67	26988.72
548.84	26913.82
549.01	26946.59
549.18	27161.92
549.34	27178.30
549.51	27019.14
549.68	27351.50
549.84	26941.91
550.01	27269.58
550.18	27061.27
550.34	27300.01
550.51	27197.02
550.68	27517.68
550.84	27047.23
551.01	27337.46
551.18	27618.32
551.34	27381.93
551.51	27351.50
551.68	27466.19
551.84	27632.36
552.01	27618.32
552.18	27789.18
552.34	27517.68
552.51	27679.18
552.68	27742.37
552.84	27545.76
553.01	28079.41
553.18	27550.45
553.34	27875.78
553.51	27597.26
553.67	27978.76
553.84	28252.61
554.01	28006.85
554.17	27857.06
554.34	27775.14
554.51	28144.94
554.67	27953.02
554.84	27887.48
555.00	28245.58
555.17	27896.85
555.33	28166.01
555.50	27950.68
555.67	28056.00
555.83	28212.82
556.00	28292.40
556.16	28329.84
556.33	28173.03
556.50	28170.69
556.66	28503.04
556.83	28343.89
556.99	28922.00
557.16	28322.82
557.32	28327.50
557.49	28332.18
557.65	28020.89
557.82	28416.44
557.98	28290.06
558.15	28540.49
558.32	28306.44
558.48	28170.69
558.65	28606.03
558.81	28489.00
558.98	28678.58
559.14	28217.50
559.31	28158.99
559.47	28395.38
559.64	28547.51
559.80	28561.56
559.97	28898.59
560.13	28261.97
560.30	28432.83
560.46	28826.04
560.63	28491.34
560.79	28779.23
560.96	29060.09
561.12	28856.46
561.29	28437.51
561.45	28769.86
561.61	28442.19
561.78	28797.95
561.94	29053.07
562.11	28903.28
562.27	28390.70
562.44	28446.87
562.60	28795.61
562.77	28690.29
562.93	28599.01
563.10	28811.99
563.26	28409.42
563.42	29113.92
563.59	28716.03
563.75	28849.44
563.92	28924.34
564.08	28734.76
564.24	28453.89
564.41	29006.26
564.57	28730.08
564.74	28922.00
564.90	29160.73
565.07	29207.55
565.23	29062.43
565.39	29170.10
565.56	29254.36
565.72	29029.66
565.88	28994.56
566.05	29230.95
566.21	29053.07
566.38	29153.71
566.54	29249.67
566.70	28912.64
566.87	29008.60
567.03	29322.23
567.19	29582.03
567.36	29212.23
567.52	29273.08
567.68	28961.79
567.85	29205.20
568.01	29191.16
568.17	29069.45
568.34	29469.69
568.50	29383.09
568.66	29294.14
568.83	29600.76
568.99	29319.89
569.15	29200.52
569.32	29450.96
569.48	29090.52
569.64	29275.42
569.81	29151.37
569.97	29205.20
570.13	29567.99
570.30	29184.14
570.46	29776.30
570.62	29160.73
570.78	29324.57
570.95	29472.03
571.11	29535.22
571.27	29205.20
571.43	29455.64
571.60	29179.46
571.76	29390.11
571.92	29212.23
572.09	29504.79
572.25	29387.77
572.41	29539.90
572.57	29476.71
572.74	30080.56
572.90	29240.31
573.06	29266.06
573.22	29294.14
573.38	29476.71
573.55	29055.41
573.71	30185.89
573.87	29673.31
574.03	29720.12
574.20	29457.98
574.36	29689.70
574.52	29457.98
574.68	29427.56
574.84	29713.10
575.01	29600.76
575.17	29486.07
575.33	29259.04
575.49	29797.36
575.65	29399.47
575.82	29280.10
575.98	29764.59
576.14	29553.94
576.30	29305.85
576.46	29448.62
576.62	29567.99
576.79	29521.18
576.95	29450.96
577.11	29553.94
577.27	29862.90
577.43	29757.57
577.59	29338.62
577.75	30015.03
577.92	29502.45
578.08	29303.51
578.24	29366.70
578.40	29221.59
578.56	29605.44
578.72	29614.80
578.88	29776.30
579.04	29717.78
579.21	29659.27
579.37	29799.70
579.53	29734.17
579.69	29619.48
579.85	29586.71
580.01	29504.79
580.17	29685.01
580.33	29586.71
580.49	29553.94
580.65	29982.26
580.82	29811.40
580.98	29820.77
581.14	29757.57
581.30	29780.98
581.46	29830.13
581.62	29467.34
581.78	29572.67
581.94	29694.38
582.10	29687.36
582.26	29846.51
582.42	29560.97
582.58	29734.17
582.74	29750.55
582.90	29909.71
583.06	29982.26
583.22	29708.42
583.38	29610.12
583.54	29694.38
583.70	29860.55
583.86	29708.42
584.02	29493.09
584.18	29518.84
584.34	30146.10
584.50	30448.03
584.66	29876.94
584.82	29703.74
584.98	29837.15
585.14	29785.66
585.30	29640.54
585.46	29696.72
585.62	29647.57
585.78	29605.44
585.94	29631.18
586.10	29933.11
586.26	29788.00
586.42	29954.18
586.58	29804.38
586.74	29579.69
586.90	29584.37
587.06	29469.69
587.22	29921.41
587.38	29586.71
587.54	30235.04
587.70	30167.16
587.86	30164.82
588.02	29989.28
588.18	30127.38
588.34	30213.98
588.49	30237.38
588.65	29947.15
588.81	30206.95
588.97	30029.07
589.13	29703.74
589.29	29984.60
589.45	30036.09
589.61	29818.42
589.77	30338.02
589.93	30183.55
590.08	30230.36
590.24	30284.19
590.40	30380.15
590.56	30377.81
590.72	29921.41
590.88	30178.87
591.04	29748.21
591.20	30359.09
591.35	30370.79
591.51	30323.98
591.67	30410.58
591.83	30501.86
591.99	30094.61
592.15	30195.25
592.31	29827.79
592.46	29921.41
592.62	30199.93
592.78	30066.52
592.94	30022.05
593.10	30340.36
593.26	30419.94
593.41	30345.05
593.57	30125.04
593.73	30625.91
593.89	30281.85
594.05	30511.22
594.20	30206.95
594.36	29670.97
594.52	30059.50
594.68	29834.81
594.84	29820.77
594.99	30164.82
595.15	30197.59
595.31	30333.34
595.47	30260.79
595.62	30412.92
595.78	30061.84
595.94	30087.59
596.10	30340.36
596.25	30314.62
596.41	29919.07
596.57	29825.45
596.73	30267.81
596.88	30249.08
597.04	30436.33
597.20	30459.73
597.36	30438.67
597.51	30525.27
597.67	30132.06
597.83	30450.37
597.99	30251.42
598.14	30003.33
598.30	30157.80
598.46	30199.93
598.61	30103.97
598.77	30099.29
598.93	30373.13
599.09	30771.02
599.24	30710.17
599.40	30764.00
599.56	30499.52
599.71	30852.94
599.87	30256.11
600.03	30099.29
600.18	30221.00
600.34	30129.72
600.50	30441.01
600.65	30387.18
600.81	30441.01
600.97	30480.80
601.12	30462.07
601.28	30515.90
601.44	30373.13
601.59	30345.05
601.75	30380.15
601.91	30293.55
602.06	30258.45
602.22	30389.52
602.37	30094.61
602.53	30185.89
602.69	30490.16
602.84	30506.54
603.00	30724.21
603.16	30562.72
603.31	30522.93
603.47	30441.01
603.62	30361.43
603.78	30417.60
603.94	30492.50
604.09	30232.70
604.25	30239.72
604.40	30363.77
604.56	30457.39
604.71	30396.54
604.87	30368.45
605.03	30789.75
605.18	30206.95
605.34	30663.36
605.49	30579.10
605.65	30368.45
605.80	30417.60
605.96	30614.21
606.12	30609.53
606.27	30473.78
606.43	30443.35
606.58	30291.21
606.74	30342.70
606.89	30209.29
607.05	30600.16
607.20	30185.89
607.36	30494.84
607.51	30146.10
607.67	29965.88
607.82	29900.34
607.98	30164.82
608.13	30782.73
608.29	30031.41
608.44	30239.72
608.60	30279.51
608.75	30417.60
608.91	30485.48
609.06	30190.57
609.22	30387.18
609.37	30047.80
609.53	30281.85
609.68	30218.66
609.84	30038.44
609.99	30274.83
610.15	30113.33
610.30	29935.45
610.46	29853.53
610.61	30309.94
610.76	30260.79
610.92	30485.48
611.07	29820.77
611.23	29855.87
611.38	29820.77
611.54	29572.67
611.69	29961.20
611.84	29699.06
612.00	29942.47
612.15	30071.20
612.31	30466.75
612.46	29713.10
612.62	30092.27
612.77	29659.27
612.92	30244.40
613.08	29663.95
613.23	30300.58
613.39	29785.66
613.54	29715.44
613.69	29600.76
613.85	29783.32
614.00	29933.11
614.15	29750.55
614.31	29710.76
614.46	29898.00
614.62	29668.63
614.77	29844.17
614.92	29813.74
615.08	29509.47
615.23	29832.47
615.38	29820.77
615.54	29252.02
615.69	29855.87
615.84	29649.91
616.00	29436.92
616.15	29443.94
616.30	29717.78
616.46	29305.85
616.61	29558.63
616.76	29628.84
616.92	29546.92
617.07	29282.44
617.22	29565.65
617.37	29511.81
617.53	29521.18
617.68	29305.85
617.83	29254.36
617.99	29577.35
618.14	29099.88
618.29	29174.78
618.45	29638.20
618.60	29511.81
618.75	29556.28
618.90	29179.46
619.06	29476.71
619.21	29586.71
619.36	29294.14
619.51	29230.95
619.67	29228.61
619.82	28467.94
619.97	29331.59
620.12	28903.28
620.28	28737.10
620.43	29401.81
620.58	29394.79
620.73	28994.56
620.89	29305.85
621.04	28966.47
621.19	29369.04
621.34	28985.19
621.49	29195.84
621.65	28713.69
621.80	28854.12
621.95	29156.05
622.10	29120.95
622.25	28868.17
622.41	29041.37
622.56	28933.70
622.71	29315.21
622.86	28985.19
623.01	29244.99
623.16	29139.67
623.32	28723.05
623.47	28985.19
623.62	28828.38
623.77	28748.80
623.92	28591.98
624.07	28987.53
624.23	28982.85
624.38	28727.74
624.53	28800.29
624.68	28826.04
624.83	29078.82
624.98	28882.21
625.13	29174.78
625.29	29308.19
625.44	29116.26
625.59	28898.59
625.74	28341.55
625.89	28322.82
626.04	28762.84
626.19	28533.47
626.34	28273.67
626.49	28240.90
626.65	28739.44
626.80	28809.65
626.95	28519.43
627.10	28655.18
627.25	28741.78
627.40	28170.69
627.55	28439.85
627.70	28215.16
627.85	28343.89
628.00	28545.17
628.15	28158.99
628.30	28222.18
628.45	28362.61
628.60	28381.34
628.76	28416.44
628.91	28336.87
629.06	28135.58
629.21	28233.88
629.36	28271.33
629.51	27908.55
629.66	28435.17
629.81	28166.01
629.96	28168.35
630.11	28161.33
630.26	28383.68
630.41	28013.87
630.56	28051.32
630.71	28027.92
630.86	28259.63
631.01	28105.15
631.16	28053.66
631.31	28240.90
631.46	27873.44
631.61	28198.77
631.76	27688.54
631.91	28205.80
632.06	27419.38
632.21	27812.59
632.36	27756.41
632.51	27309.37
632.66	27740.03
632.81	27484.91
632.96	27901.53
633.10	27798.54
633.25	27747.05
633.40	27812.59
633.55	27552.79
633.70	27821.95
633.85	27452.14
634.00	27615.98
634.15	27639.39
634.30	27662.79
634.45	27438.10
634.60	27534.06
634.75	27597.26
634.90	27611.30
635.05	27466.19
635.19	27267.24
635.34	27608.96
635.49	27412.35
635.64	27648.75
635.79	27489.59
635.94	27398.31
636.09	27201.71
636.24	27241.50
636.39	27182.98
636.53	27288.31
636.68	27276.60
636.83	27363.20
636.98	27634.71
637.13	27505.98
637.28	27473.21
637.43	27374.91
637.57	27480.23
637.72	27456.82
637.87	26984.04
638.02	27063.61
638.17	27101.06
638.32	27213.41
638.46	27044.89
638.61	27054.25
638.76	27147.87
638.91	26848.29
639.06	27037.87
639.20	26977.01
639.35	27316.39
639.50	27269.58
639.65	27197.02
639.80	27115.11
639.94	27063.61
640.09	27197.02
640.24	26817.86
640.39	27075.32
640.54	27016.80
640.68	27030.85
640.83	27213.41
640.98	26862.33
641.13	26321.66
641.27	26836.58
641.42	26789.77
641.57	26544.02
641.72	26892.76
641.86	26717.22
642.01	26766.37
642.16	26897.44
642.31	26366.13
642.45	26649.34
642.60	26192.94
642.75	26356.77
642.90	26412.95
643.04	26314.64
643.19	26597.85
643.34	26466.78
643.48	26672.74
643.63	26485.50
643.78	26787.43
643.93	26602.53
644.07	26534.65
644.22	26677.43
644.37	26668.06
644.51	26642.32
644.66	26473.80
644.81	26436.35
644.95	26754.66
645.10	25970.58
645.25	26553.38
645.39	26464.44
645.54	26478.48
645.69	26094.63
645.83	26087.61
645.98	26597.85
646.13	26436.35
646.27	26618.91
646.42	26309.96
646.57	25956.54
646.71	26403.58
646.86	26171.87
647.00	26298.26
647.15	26127.40
647.30	26232.72
647.44	26099.31
647.59	26148.46
647.74	25795.04
647.88	26066.55
648.03	26101.65
648.17	26387.20
648.32	26574.44
648.47	26225.70
648.61	26232.72
648.76	26080.59
648.90	26274.85
649.05	25907.39
649.20	25755.26
649.34	25879.30
649.49	25621.84
649.63	25696.74
649.78	25542.27
649.92	25816.11
650.07	25949.52
650.21	26181.23
650.36	25652.27
650.51	25612.48
650.65	25652.27
650.80	25898.03
650.94	26043.14
651.09	25827.81
651.23	25830.15
651.38	25558.65
651.52	25675.68
651.67	25436.94
651.81	25834.83
651.96	25502.48
652.10	25703.76
652.25	25689.72
652.39	25486.09
652.54	25715.47
652.68	25467.37
652.83	25708.44
652.97	25509.50
653.12	25369.07
653.26	25483.75
653.41	25542.27
653.55	25617.16
653.70	25333.96
653.84	25333.96
653.99	25383.11
654.13	25568.01
654.27	25289.49
654.42	25294.17
654.56	25462.69
654.71	25294.17
654.85	25570.35
655.00	25626.53
655.14	25373.75
655.29	25378.43
655.43	25095.22
655.57	25593.76
655.72	25331.62
655.86	25200.55
656.01	25245.02
656.15	25151.40
656.30	25146.72
656.44	25081.18
656.58	24762.87
656.73	25106.93
656.87	25003.94
657.01	25017.99
657.16	25116.29
657.30	25170.12
657.45	25193.53
657.59	25113.95
657.73	25069.48
657.88	25050.75
658.02	24751.17
658.16	24844.79
658.31	25022.67
658.45	24879.89
658.60	24580.31
658.74	24720.74
658.88	24783.93
659.03	24512.43
659.17	24870.53
659.31	24580.31
659.46	24936.07
659.60	24968.84
659.74	24765.21
659.89	24723.08
660.03	24690.31
660.17	24652.86
660.32	24376.68
660.46	24395.40
660.60	24294.76
660.74	24343.91
660.89	24025.60
661.03	24322.85
661.17	24238.59
661.32	24084.11
661.46	24130.92
661.60	24521.79
661.74	24093.47
661.89	24222.20
662.03	24219.86
662.17	23833.68
662.31	24102.84
662.46	23960.06
662.60	24203.48
662.74	24194.12
662.88	23910.91
663.03	23838.36
663.17	23828.99
663.31	23513.02
663.45	23723.67
663.60	23545.79
663.74	23557.49
663.88	23784.52
664.02	23594.94
664.17	23501.32
664.31	23779.84
664.45	23662.82
664.59	23494.30
664.73	23536.43
664.88	23665.16
665.02	23433.44
665.16	23278.97
665.30	23374.93
665.44	23328.12
665.59	23398.34
665.73	23133.86
665.87	22902.14
666.01	23515.36
666.15	23587.92
666.29	22981.72
666.44	23211.09
666.58	23091.73
666.72	22815.54
666.86	23051.94
667.00	23295.35
667.14	22939.59
667.28	22995.76
667.43	22993.42
667.57	22740.64
667.71	22616.60
667.85	22686.81
667.99	22754.69
668.13	22394.25
668.27	22855.33
668.41	22967.68
668.56	22906.82
668.70	22658.73
668.84	22574.47
668.98	22602.55
669.12	22787.46
669.26	22520.63
669.40	22604.89
669.54	22597.87
669.68	22602.55
669.82	22567.45
669.96	22405.95
670.10	22134.45
670.25	22485.53
670.39	22293.60
670.53	22150.83
670.67	21933.16
670.81	22300.62
670.95	22085.30
671.09	22115.72
671.23	22005.72
671.37	22199.98
671.51	22256.15
671.65	22263.18
671.79	21734.21
671.93	21970.61
672.07	21598.46
672.21	21888.69
672.35	21685.06
672.49	21858.26
672.63	21453.35
672.77	21493.14
672.91	21312.92
673.05	21542.29
673.19	21387.82
673.33	21521.23
673.47	21425.26
673.61	21411.22
673.75	21160.78
673.89	21198.23
674.03	21446.33
674.17	21144.40
674.31	21095.25
674.45	21055.46
674.59	21252.06
674.73	21298.88
674.87	21120.99
675.01	21135.04
675.15	20580.33
675.29	20837.79
675.43	21008.65
675.56	20975.88
675.70	20603.74
675.84	20882.26
675.98	19871.15
676.12	20568.63
676.26	20755.87
676.40	20760.55
676.54	20568.63
676.68	20545.22
676.82	20376.70
676.96	20491.39
677.10	20093.50
677.23	20355.64
677.37	19885.19
677.51	19941.36
677.65	20053.71
677.79	19939.02
677.93	19639.44
678.07	20004.56
678.21	19541.13
678.34	19487.30
678.48	19576.24
678.62	19796.25
678.76	19435.81
678.90	19192.39
679.04	19601.99
679.18	19487.30
679.31	19297.72
679.45	19246.23
679.59	18965.36
679.73	19157.28
679.87	19073.03
680.00	18813.23
680.14	19227.50
680.28	18913.87
680.42	18974.72
680.56	18888.12
680.70	18963.02
680.83	18867.06
680.97	18738.33
681.11	18761.73
681.25	18579.17
681.39	18389.59
681.52	18567.47
681.66	18497.25
681.80	18595.56
681.94	18300.65
682.07	18490.23
682.21	18291.29
682.35	18078.30
682.49	18209.37
682.62	17741.26
682.76	17954.25
682.90	18188.30
683.04	17703.81
683.17	17923.82
683.31	17710.83
683.45	17865.31
683.59	17554.02
683.72	17767.01
683.86	17493.16
684.00	17603.17
684.13	17289.54
684.27	17364.43
684.41	17364.43
684.55	17053.14
684.68	17095.27
684.82	17376.14
684.96	16957.18
685.09	16886.97
685.23	16954.84
685.37	16994.63
685.50	16994.63
685.64	17125.70
685.78	17172.51
685.91	16933.78
686.05	16931.44
686.19	16758.24
686.32	16702.06
686.46	16430.56
686.60	16374.39
686.73	15962.45
686.87	16390.77
687.01	16107.57
687.14	16187.14
687.28	16023.31
687.42	16170.76
687.55	15927.35
687.69	16255.02
687.82	16016.29
687.96	15866.49
688.10	16067.78
688.23	16018.63
688.37	15737.76
688.50	16018.63
688.64	15882.88
688.78	15580.95
688.91	15583.29
689.05	15587.97
689.18	15690.95
689.32	15194.76
689.46	15201.78
689.59	15316.47
689.73	15410.09
689.86	15382.00
690.00	15335.19
690.13	15337.53
690.27	15281.36
690.41	15260.29
690.54	15344.55
690.68	15061.35
690.81	15166.67
690.95	15030.92
691.08	14906.87
691.22	15000.49
691.35	14750.06
691.49	14831.97
691.62	14677.50
691.76	14675.16
691.89	14284.29
692.03	14410.68
692.16	14277.27
692.30	14361.53
692.43	14410.68
692.57	14157.90
692.70	14368.55
692.84	14225.78
692.97	13785.76
693.11	14326.42
693.24	14017.47
693.38	13837.25
693.51	13977.68
693.65	14054.92
693.78	13544.68
693.92	13724.90
694.05	13687.45
694.19	13455.74
694.32	13441.70
694.45	13493.19
694.59	13535.32
694.72	13240.41
694.86	13160.83
694.99	13259.13
695.13	13245.09
695.26	13345.73
695.39	12868.27
695.53	13123.38
695.66	13153.81
695.80	12999.34
695.93	13165.51
696.07	13018.06
696.20	12966.57
696.33	13001.68
696.47	12737.20
696.60	12819.11
696.73	12842.52
696.87	12666.98
697.00	12386.12
697.14	12196.53
697.27	12114.61
697.40	12374.41
697.54	12198.87
697.67	12161.42
697.80	12189.51
697.94	12098.23
698.07	11791.62
698.21	12086.53
698.34	12131.00
698.47	11985.88
698.61	11962.48
698.74	12119.29
698.87	11981.20
699.01	11719.06
699.14	11953.12
699.27	11854.81
699.40	11562.25
699.54	11604.38
699.67	11559.91
699.80	11468.62
699.94	11332.87
700.07	11384.37
700.20	11124.57
700.34	11138.61
700.47	11295.43
700.60	11206.48
700.73	11052.01
700.87	11080.10
701.00	11101.16
701.13	11145.63
701.26	11180.74
701.40	10998.18
701.53	11140.95
701.66	10991.16
701.79	10509.01
701.93	10960.73
702.06	10757.10
702.19	10700.93
702.32	10630.71
702.46	10721.99
702.59	10420.06
702.72	10450.49
702.85	10375.59
702.99	10319.42
703.12	10216.44
703.25	10296.02
703.38	10239.84
703.51	10286.65
703.65	10106.43
703.78	10073.67
703.91	10169.63
704.04	10312.40
704.17	9884.08
704.31	10017.49
704.44	9795.14
704.57	9823.23
704.70	9937.91
704.83	9586.83
704.96	9633.64
705.10	9741.31
705.23	9582.15
>>>>>End Processed Spectral Data<<<<<
