SpectraSuite Data File
++++++++++++++++++++++++++++++++++++
Date: Fri Oct 18 13:58:39 GMT-05:00 2013
User: bianchi
Dark Spectrum Present: No
Reference Spectrum Present: No
Number of Sampled Component Spectra: 1
Spectrometers: USB2+H05261
Integration Time (usec): 50000 (USB2+H05261)
Spectra Averaged: 1 (USB2+H05261)
Boxcar Smoothing: 0 (USB2+H05261)
Correct for Electrical Dark: No (USB2+H05261)
Strobe/Lamp Enabled: No (USB2+H05261)
Correct for Detector Non-linearity: No (USB2+H05261)
Correct for Stray Light: No (USB2+H05261)
Number of Pixels in Processed Spectrum: 2048
>>>>>Begin Processed Spectral Data<<<<<
365.73	53.83
365.92	53.83
366.12	53.83
366.32	0.00
366.52	0.00
366.72	0.00
366.91	0.00
367.11	0.00
367.31	0.00
367.51	0.00
367.70	0.00
367.90	0.00
368.10	0.00
368.30	0.00
368.49	0.00
368.69	0.00
368.89	0.00
369.09	0.00
369.28	0.00
369.48	0.00
369.68	0.00
369.87	0.00
370.07	0.00
370.27	0.00
370.47	0.00
370.66	102.98
370.86	131.07
371.06	184.90
371.25	173.20
371.45	88.94
371.65	166.18
371.84	203.63
372.04	234.05
372.24	124.05
372.44	77.24
372.63	191.92
372.83	198.95
373.03	168.52
373.22	159.16
373.42	250.44
373.62	222.35
373.81	189.58
374.01	271.50
374.21	266.82
374.40	212.99
374.60	283.20
374.79	234.05
374.99	189.58
375.19	269.16
375.38	252.78
375.58	276.18
375.78	262.14
375.97	257.46
376.17	262.14
376.37	262.14
376.56	287.89
376.76	308.95
376.95	278.52
377.15	234.05
377.35	210.65
377.54	252.78
377.74	182.56
377.93	259.80
378.13	283.20
378.33	325.33
378.52	248.10
378.72	283.20
378.91	318.31
379.11	276.18
379.31	229.37
379.50	285.55
379.70	388.53
379.89	245.76
380.09	308.95
380.28	278.52
380.48	283.20
380.68	276.18
380.87	341.72
381.07	337.04
381.26	297.25
381.46	341.72
381.65	334.70
381.85	358.10
382.04	285.55
382.24	325.33
382.43	330.02
382.63	315.97
382.83	327.68
383.02	348.74
383.22	414.27
383.41	355.76
383.61	383.85
383.80	428.32
384.00	276.18
384.19	397.89
384.39	400.23
384.58	306.61
384.78	400.23
384.97	411.93
385.17	411.93
385.36	388.53
385.56	369.80
385.75	304.27
385.95	395.55
386.14	374.49
386.34	442.36
386.53	458.74
386.72	395.55
386.92	376.83
387.11	433.00
387.31	428.32
387.50	407.25
387.70	353.42
387.89	400.23
388.09	425.98
388.28	346.40
388.48	430.66
388.67	390.87
388.86	514.92
389.06	491.51
389.25	395.55
389.45	468.11
389.64	456.40
389.84	486.83
390.03	472.79
390.22	498.53
390.42	463.43
390.61	540.66
390.81	491.51
391.00	463.43
391.19	486.83
391.39	442.36
391.58	489.17
391.78	528.96
391.97	524.28
392.16	519.60
392.36	533.64
392.55	528.96
392.75	540.66
392.94	465.77
393.13	540.66
393.33	589.82
393.52	514.92
393.71	519.60
393.91	580.45
394.10	603.86
394.29	557.05
394.49	594.50
394.68	573.43
394.88	571.09
395.07	571.09
395.26	645.99
395.46	564.07
395.65	629.60
395.84	564.07
396.04	657.69
396.23	561.73
396.42	660.03
396.62	683.44
396.81	645.99
397.00	713.86
397.19	695.14
397.39	725.57
397.58	681.10
397.77	662.37
397.97	767.70
398.16	662.37
398.35	751.31
398.55	727.91
398.74	667.05
398.93	751.31
399.12	699.82
399.32	744.29
399.51	709.18
399.70	755.99
399.90	774.72
400.09	709.18
400.28	807.48
400.47	770.04
400.67	753.65
400.86	833.23
401.05	767.70
401.24	751.31
401.44	805.14
401.63	842.59
401.82	830.89
402.01	760.67
402.21	856.64
402.40	791.10
402.59	812.17
402.78	751.31
402.97	884.72
403.17	844.93
403.36	903.45
403.55	905.79
403.74	894.08
403.93	856.64
404.13	788.76
404.32	821.53
404.51	959.62
404.70	870.68
404.89	919.83
405.09	985.37
405.28	931.53
405.47	868.34
405.66	926.85
405.85	957.28
406.05	1041.54
406.24	940.90
406.43	950.26
406.62	997.07
406.81	1102.39
407.00	1032.18
407.20	964.30
407.39	1041.54
407.58	1013.45
407.77	1043.88
407.96	1015.79
408.15	1053.24
408.34	1027.50
408.54	1078.99
408.73	1001.75
408.92	1109.41
409.11	1249.85
409.30	1196.01
409.49	1095.37
409.68	1144.52
409.87	1156.22
410.07	1118.78
410.26	1170.27
410.45	1102.39
410.64	1083.67
410.83	1226.44
411.02	1135.16
411.21	1268.57
411.40	1261.55
411.59	1219.42
411.78	1242.82
411.98	1254.53
412.17	1240.48
412.36	1313.04
412.55	1294.32
412.74	1238.14
412.93	1252.19
413.12	1430.07
413.31	1387.94
413.50	1284.95
413.69	1378.58
413.88	1338.79
414.07	1504.96
414.26	1387.94
414.45	1537.73
414.64	1380.92
414.83	1472.20
415.02	1434.75
415.22	1671.14
415.41	1521.35
415.60	1465.18
415.79	1572.84
415.98	1605.61
416.17	1556.46
416.36	1544.75
416.55	1575.18
416.74	1640.72
416.93	1652.42
417.12	1678.16
417.31	1675.82
417.50	1640.72
417.69	1668.80
417.88	1813.92
418.07	1743.70
418.26	1802.21
418.45	1657.10
418.64	1818.60
418.83	1755.40
419.02	1774.13
419.21	1823.28
419.39	1790.51
419.58	1715.61
419.77	1774.13
419.96	1755.40
420.15	1898.17
420.34	1902.86
420.53	1804.55
420.72	1853.70
420.91	1888.81
421.10	1867.75
421.29	1839.66
421.48	1844.34
421.67	1902.86
421.86	2045.63
422.05	1940.30
422.24	2045.63
422.43	1867.75
422.61	2029.24
422.80	1947.33
422.99	2001.16
423.18	1963.71
423.37	1912.22
423.56	2139.25
423.75	2101.80
423.94	1961.37
424.13	1907.54
424.32	1930.94
424.50	2022.22
424.69	2029.24
424.88	2150.95
425.07	1961.37
425.26	1982.43
425.45	1973.07
425.64	1970.73
425.83	2017.54
426.01	2115.84
426.20	2069.03
426.39	2069.03
426.58	2106.48
426.77	2045.63
426.96	2076.06
427.15	2047.97
427.33	2167.34
427.52	2078.40
427.71	2085.42
427.90	2090.10
428.09	2165.00
428.28	2242.23
428.46	2296.07
428.65	2087.76
428.84	2211.81
429.03	2239.89
429.22	2134.57
429.40	2298.41
429.59	2157.97
429.78	2202.44
429.97	2139.25
430.16	2232.87
430.34	2188.40
430.53	2293.72
430.72	2291.38
430.91	2256.28
431.10	2232.87
431.28	2307.77
431.47	2342.88
431.66	2394.37
431.85	2242.23
432.03	2471.61
432.22	2408.41
432.41	2450.54
432.60	2455.22
432.79	2373.30
432.97	2455.22
433.16	2473.95
433.35	2340.54
433.54	2520.76
433.72	2509.05
433.91	2389.69
434.10	2476.29
434.28	2455.22
434.47	2359.26
434.66	2523.10
434.85	2595.65
435.03	2705.66
435.22	2487.99
435.41	2562.89
435.59	2635.44
435.78	2607.36
435.97	2588.63
436.16	2661.19
436.34	2689.28
436.53	2539.48
436.72	2649.49
436.90	2546.50
437.09	2651.83
437.28	2654.17
437.46	2621.40
437.65	2684.59
437.84	2818.00
438.02	2696.30
438.21	2818.00
438.40	2818.00
438.58	2895.24
438.77	2836.73
438.96	2864.82
439.14	2839.07
439.33	2822.69
439.52	2981.84
439.70	2888.22
439.89	2993.55
440.08	2932.69
440.26	2949.08
440.45	3063.76
440.63	3098.87
440.82	3082.49
441.01	3042.70
441.19	3297.81
441.38	3035.67
441.57	3122.27
441.75	3169.09
441.94	3276.75
442.12	3253.34
442.31	3332.92
442.50	3304.84
442.68	3398.46
442.87	3342.28
443.05	3262.71
443.24	3370.37
443.43	3311.86
443.61	3232.28
443.80	3454.63
443.98	3337.60
444.17	3318.88
444.35	3407.82
444.54	3349.31
444.73	3534.21
444.91	3321.22
445.10	3349.31
445.28	3400.80
445.47	3482.72
445.65	3400.80
445.84	3293.13
446.02	3452.29
446.21	3449.95
446.39	3433.57
446.58	3459.31
446.77	3522.51
446.95	3515.48
447.14	3414.84
447.32	3557.61
447.51	3461.65
447.69	3473.36
447.88	3529.53
448.06	3487.40
448.25	3440.59
448.43	3571.66
448.62	3550.59
448.80	3473.36
448.99	3522.51
449.17	3545.91
449.36	3618.47
449.54	3604.42
449.73	3588.04
449.91	3658.26
450.10	3564.64
450.28	3634.85
450.46	3662.94
450.65	3585.70
450.83	3698.05
451.02	3733.15
451.20	3756.56
451.39	3716.77
451.57	3698.05
451.76	3735.50
451.94	3698.05
452.13	3758.90
452.31	3791.67
452.49	3688.68
452.68	3850.18
452.86	3838.48
453.05	3948.48
453.23	3761.24
453.42	3927.42
453.60	3899.33
453.78	3904.01
453.97	3817.41
454.15	3929.76
454.34	3950.82
454.52	3908.69
454.70	3929.76
454.89	4011.68
455.07	3882.95
455.26	4067.85
455.44	4081.89
455.62	4039.76
455.81	4119.34
455.99	4023.38
456.17	4084.23
456.36	4077.21
456.54	4177.86
456.73	4224.67
456.91	4355.74
457.09	4285.52
457.28	4299.56
457.46	4147.43
457.64	4315.95
457.83	4285.52
458.01	4276.16
458.19	4283.18
458.38	4208.28
458.56	4395.53
458.74	4313.61
458.93	4444.68
459.11	4369.78
459.29	4365.10
459.48	4376.80
459.66	4285.52
459.84	4479.79
460.03	4479.79
460.21	4601.49
460.39	4402.55
460.57	4510.21
460.76	4664.69
460.94	4615.54
461.12	4498.51
461.31	4507.87
461.49	4837.89
461.67	4491.49
461.85	4739.58
462.04	4674.05
462.22	4746.61
462.40	4788.74
462.59	4575.75
462.77	4585.11
462.95	4802.78
463.13	4615.54
463.32	4805.12
463.50	4812.14
463.68	4812.14
463.86	4798.10
464.05	4674.05
464.23	4636.60
464.41	4793.42
464.59	4634.26
464.78	4851.93
464.96	4840.23
465.14	4990.02
465.32	4983.00
465.50	5032.15
465.69	5050.88
465.87	4973.64
466.05	4973.64
466.23	4959.60
466.41	4971.30
466.60	5100.03
466.78	5011.09
466.96	4961.94
467.14	5022.79
467.32	5046.20
467.51	5174.92
467.69	4990.02
467.87	5081.30
468.05	5170.24
468.23	5158.54
468.41	5046.20
468.60	5184.29
468.78	5181.95
468.96	5036.83
469.14	5224.08
469.32	5275.57
469.50	5050.88
469.69	5207.69
469.87	5231.10
470.05	5270.89
470.23	5448.77
470.41	5472.17
470.59	5420.68
470.77	5387.91
470.95	5582.18
471.14	5439.40
471.32	5350.46
471.50	5467.49
471.68	5598.56
471.86	5610.26
472.04	5490.90
472.22	5771.76
472.40	5479.19
472.58	5729.63
472.77	5795.17
472.95	5657.07
473.13	5942.62
473.31	5621.97
473.49	5837.30
473.67	5970.71
473.85	5811.55
474.03	5832.62
474.21	5994.11
474.39	6012.84
474.57	6071.35
474.75	6019.86
474.93	6167.31
475.12	6118.16
475.30	6193.06
475.48	6183.70
475.66	6232.85
475.84	6050.28
476.02	6576.91
476.20	6300.72
476.38	6408.39
476.56	6497.33
476.74	6403.71
476.92	6384.98
477.10	6258.59
477.28	6670.53
477.46	6623.72
477.64	6686.91
477.82	6803.94
478.00	6995.86
478.18	6963.09
478.36	7108.21
478.54	7028.63
478.72	6902.24
478.90	6965.43
479.08	7150.34
479.26	7171.40
479.44	7379.71
479.62	7218.21
479.80	7192.47
479.98	7307.15
480.16	7372.69
480.34	7358.64
480.52	7651.21
480.70	7578.65
480.88	7396.09
481.06	7693.34
481.24	7667.60
481.41	7641.85
481.59	7899.31
481.77	7782.28
481.95	7857.18
482.13	8058.46
482.31	7985.91
482.49	8299.54
482.67	8056.12
482.85	8292.52
483.03	8152.09
483.21	8423.59
483.39	8526.57
483.57	8566.36
483.74	8554.66
483.92	8662.32
484.10	8676.37
484.28	8706.79
484.46	9085.96
484.64	9064.89
484.82	8795.73
485.00	8940.85
485.18	9097.66
485.35	9348.10
485.53	9291.93
485.71	9378.53
485.89	9575.13
486.07	9654.71
486.25	9338.74
486.43	9486.19
486.61	9507.26
486.78	9872.38
486.96	9928.55
487.14	9893.44
487.32	9942.60
487.50	9987.07
487.68	10230.48
487.85	10277.29
488.03	10427.09
488.21	10382.62
488.39	10382.62
488.57	10672.84
488.75	10595.61
488.92	10902.22
489.10	10773.49
489.28	10609.65
489.46	10977.11
489.64	10963.07
489.81	11201.80
489.99	11112.86
490.17	11344.58
490.35	11407.77
490.53	11662.89
490.70	11609.06
490.88	11609.06
491.06	11655.87
491.24	11391.39
491.41	11613.74
491.59	11653.53
491.77	11988.22
491.95	12203.55
492.13	11997.59
492.30	12149.72
492.48	12360.37
492.66	12287.81
492.84	12072.48
493.01	12479.74
493.19	12397.82
493.37	12313.56
493.54	12753.58
493.72	12655.28
493.90	12858.90
494.08	12823.80
494.25	12786.35
494.43	12889.33
494.61	13088.28
494.79	13153.81
494.96	13160.83
495.14	13287.22
495.32	13324.67
495.49	13600.85
495.67	13259.13
495.85	13905.12
496.02	13668.73
496.20	13645.32
496.38	13884.06
496.55	13912.14
496.73	14178.97
496.91	14054.92
497.09	14127.47
497.26	14295.99
497.44	14153.22
497.62	14340.46
497.79	14473.87
497.97	14394.29
498.14	14532.39
498.32	14731.33
498.50	14719.63
498.67	14775.80
498.85	14546.43
499.03	14738.35
499.20	14977.09
499.38	14843.68
499.56	15084.75
499.73	15023.90
499.91	15473.28
500.08	15421.79
500.26	15234.55
500.44	15124.54
500.61	15152.63
500.79	15267.31
500.97	15541.16
501.14	15716.70
501.32	15674.57
501.49	15688.61
501.67	15599.67
501.84	15878.19
502.02	15939.05
502.20	15805.64
502.37	15964.79
502.55	15864.15
502.72	16280.77
502.90	16070.12
503.07	16027.99
503.25	16109.91
503.43	16128.63
503.60	16381.41
503.78	16306.51
503.95	16496.10
504.13	16636.53
504.30	16578.01
504.48	16699.72
504.65	16470.35
504.83	16421.20
505.01	16460.99
505.18	16922.07
505.36	17085.91
505.53	16786.32
505.71	16650.57
505.88	16879.94
506.06	16753.55
506.23	17114.00
506.41	17102.29
506.58	17324.65
506.76	17252.09
506.93	17308.26
507.11	17294.22
507.28	17212.30
507.46	17596.15
507.63	17572.74
507.81	17771.69
507.98	17661.68
508.16	17820.84
508.33	17734.24
508.50	17635.94
508.68	17914.46
508.85	18064.25
509.03	17919.14
509.20	18038.51
509.38	18092.34
509.55	18118.09
509.73	18001.06
509.90	18127.45
510.08	17984.68
510.25	18015.10
510.42	18698.54
510.60	18562.79
510.77	18029.15
510.95	18754.71
511.12	18434.06
511.30	18478.53
511.47	18766.42
511.64	18497.25
511.82	18714.92
511.99	18726.63
512.17	18754.71
512.34	18642.37
512.51	18703.22
512.69	18831.95
512.86	18934.93
513.04	19206.44
513.21	19026.21
513.38	19639.44
513.56	19286.01
513.73	19419.42
513.90	19009.83
514.08	19300.06
514.25	19309.42
514.43	19424.11
514.60	19630.07
514.77	19545.81
514.95	19747.10
515.12	19545.81
515.29	19346.87
515.47	19784.55
515.64	19913.28
515.81	19721.35
515.99	20091.16
516.16	20245.63
516.33	20432.88
516.51	20297.13
516.68	19826.68
516.85	20184.78
517.03	20372.02
517.20	20425.86
517.37	20271.38
517.54	20414.15
517.72	20161.37
517.89	20269.04
518.06	20580.33
518.24	20322.87
518.41	20383.73
518.58	20570.97
518.75	20540.54
518.93	20554.58
519.10	20489.05
519.27	21001.63
519.45	20634.16
519.62	20617.78
519.79	20280.74
519.96	20896.30
520.14	21062.48
520.31	21128.02
520.48	21282.49
520.65	21074.18
520.83	21104.61
521.00	21104.61
521.17	21336.32
521.34	21184.19
521.52	21275.47
521.69	21514.20
521.86	21717.83
522.03	21813.79
522.20	21619.53
522.38	21811.45
522.55	21291.85
522.72	21694.43
522.89	21834.86
523.07	21490.80
523.24	21951.88
523.41	22237.43
523.58	21584.42
523.75	21958.91
523.92	21813.79
524.10	21895.71
524.27	22403.61
524.44	22197.64
524.61	22075.93
524.78	22097.00
524.96	22125.08
525.13	22368.50
525.30	22771.07
525.47	22436.38
525.64	22417.65
525.81	22508.93
525.98	22867.03
526.16	22497.23
526.33	22508.93
526.50	22658.73
526.67	22616.60
526.84	22630.64
527.01	22635.32
527.18	22895.12
527.36	22941.93
527.53	22946.61
527.70	23285.99
527.87	22960.66
528.04	22958.31
528.21	23124.49
528.38	23133.86
528.55	23009.81
528.72	22845.97
528.89	23171.30
529.07	23323.44
529.24	23065.98
529.41	23002.78
529.58	23117.47
529.75	23372.59
529.92	23295.35
530.09	23573.88
530.26	23386.63
530.43	23154.92
530.60	23491.96
530.77	23531.75
530.94	23604.30
531.11	23496.64
531.28	23491.96
531.46	23669.84
531.63	23417.06
531.80	23503.66
531.97	23737.71
532.14	23798.57
532.31	23690.90
532.48	23779.84
532.65	24280.72
532.82	23782.18
532.99	23838.36
533.16	24037.30
533.33	23997.51
533.50	24336.89
533.67	24238.59
533.84	24060.71
534.01	23967.09
534.18	24212.84
534.35	24170.71
534.52	24276.04
534.69	24409.45
534.86	24484.34
535.03	24423.49
535.20	24081.77
535.37	24512.43
535.54	24505.41
535.71	24467.96
535.88	24620.10
536.05	24577.97
536.22	24699.67
536.38	24493.71
536.55	24624.78
536.72	24648.18
536.89	24400.08
537.06	24795.64
537.23	24460.94
537.40	24615.41
537.57	24863.51
537.74	24994.58
537.91	24919.68
538.08	24959.47
538.25	24790.95
538.42	24868.19
538.59	24975.86
538.75	25081.18
538.92	25376.09
539.09	25366.73
539.26	25312.89
539.43	25230.98
539.60	25387.79
539.77	25289.49
539.94	25291.83
540.11	25568.01
540.28	25090.54
540.44	25509.50
540.61	25277.79
540.78	25322.26
540.95	25340.98
541.12	25589.08
541.29	25436.94
541.46	25647.59
541.62	25340.98
541.79	25329.28
541.96	25099.90
542.13	25228.63
542.30	25275.45
542.47	25827.81
542.63	25701.42
542.80	25972.92
542.97	26132.08
543.14	26143.78
543.31	26050.16
543.48	25905.05
543.64	26314.64
543.81	26047.82
543.98	26501.89
544.15	26354.43
544.32	26150.81
544.48	26354.43
544.65	26099.31
544.82	26525.29
544.99	26101.65
545.16	26513.59
545.32	26536.99
545.49	26838.92
545.66	26441.03
545.83	26443.37
546.00	26897.44
546.16	26600.19
546.33	26604.87
546.50	26125.06
546.67	26529.97
546.83	26291.24
547.00	26459.76
547.17	26955.95
547.34	26494.86
547.50	27021.48
547.67	26686.79
547.84	26911.48
548.00	26576.78
548.17	26962.97
548.34	26916.16
548.51	27019.14
548.67	27061.27
548.84	27358.52
549.01	26986.38
549.18	27082.34
549.34	27058.93
549.51	26651.68
549.68	26799.13
549.84	27072.98
550.01	27236.81
550.18	27070.64
550.34	27054.25
550.51	27365.54
550.68	27651.09
550.84	26635.30
551.01	27274.26
551.18	26782.75
551.34	27051.91
551.51	27105.74
551.68	27332.78
551.84	27426.40
552.01	27400.65
552.18	27426.40
552.34	27182.98
552.51	26977.01
552.68	27613.64
552.84	27344.48
553.01	27709.60
553.18	27358.52
553.34	27861.74
553.51	27798.54
553.67	27981.10
553.84	27962.38
554.01	27817.27
554.17	27733.01
554.34	27637.05
554.51	28196.43
554.67	27562.15
554.84	27644.07
555.00	27536.40
555.17	27599.60
555.33	28304.10
555.50	27896.85
555.67	27873.44
555.83	28184.73
556.00	28126.22
556.16	28004.51
556.33	27873.44
556.50	27948.34
556.66	28128.56
556.83	28109.83
556.99	28397.72
557.16	28425.81
557.32	27936.63
557.49	28215.16
557.65	28201.11
557.82	28149.62
557.98	27976.42
558.15	28046.64
558.32	28290.06
558.48	28467.94
558.65	28467.94
558.81	28393.04
558.98	28613.05
559.14	28063.02
559.31	28299.42
559.47	28362.61
559.64	28479.64
559.80	28313.46
559.97	28404.74
560.13	28210.48
560.30	28357.93
560.46	28465.60
560.63	28205.80
560.79	28418.78
560.96	28318.14
561.12	28802.63
561.29	28355.59
561.45	28446.87
561.61	28753.48
561.78	28486.66
561.94	28891.57
562.11	28709.01
562.27	28823.70
562.44	28699.65
562.60	28360.27
562.77	28332.18
562.93	28554.54
563.10	28730.08
563.26	28620.07
563.42	28917.32
563.59	28570.92
563.75	28575.60
563.92	29039.03
564.08	28809.65
564.24	29015.62
564.41	28339.21
564.57	28587.30
564.74	28877.53
564.90	28833.06
565.07	28884.55
565.23	28886.89
565.39	28531.13
565.56	28947.75
565.72	29076.48
565.88	28936.04
566.05	28725.39
566.21	28807.31
566.38	29008.60
566.54	28875.19
566.70	29027.32
566.87	29165.42
567.03	29282.44
567.19	29214.57
567.36	28844.76
567.52	28725.39
567.68	28877.53
567.85	28996.90
568.01	29186.48
568.17	28914.98
568.34	29123.29
568.50	29174.78
568.66	29158.39
568.83	28952.43
568.99	28936.04
569.15	29352.66
569.32	28856.46
569.48	29090.52
569.64	29242.65
569.81	28758.16
569.97	29259.04
570.13	28952.43
570.30	28893.91
570.46	29525.86
570.62	29434.58
570.78	29495.43
570.95	28919.66
571.11	29088.18
571.27	29172.44
571.43	29450.96
571.60	29357.34
571.76	29125.63
571.92	29165.42
572.09	29425.22
572.25	29813.74
572.41	29336.27
572.57	29291.80
572.74	29032.00
572.90	28748.80
573.06	29144.35
573.22	29521.18
573.38	29076.48
573.55	29584.37
573.71	29350.32
573.87	29223.93
574.03	29453.30
574.20	29373.72
574.36	28973.49
574.52	29408.83
574.68	29069.45
574.84	29343.30
575.01	29418.19
575.17	29427.56
575.33	29670.97
575.49	28954.77
575.65	29546.92
575.82	29809.06
575.98	29378.40
576.14	29315.21
576.30	29682.67
576.46	29443.94
576.62	29366.70
576.79	29331.59
576.95	29055.41
577.11	29497.77
577.27	29598.41
577.43	29551.60
577.59	29460.32
577.75	29064.77
577.92	29296.49
578.08	29420.53
578.24	29364.36
578.40	29282.44
578.56	29481.39
578.72	29333.93
578.88	29488.41
579.04	29631.18
579.21	29387.77
579.37	29572.67
579.53	29497.77
579.69	29249.67
579.85	29347.98
580.01	29668.63
580.17	29436.92
580.33	29472.03
580.49	29163.08
580.65	29642.88
580.82	29586.71
580.98	29586.71
581.14	29582.03
581.30	29659.27
581.46	29413.51
581.62	29841.83
581.78	29039.03
581.94	29741.19
582.10	29275.42
582.26	29607.78
582.42	29394.79
582.58	29942.47
582.74	29816.08
582.90	29488.41
583.06	29680.33
583.22	29336.27
583.38	29624.16
583.54	29408.83
583.70	29762.25
583.86	29795.02
584.02	29582.03
584.18	29806.72
584.34	29830.13
584.50	29736.51
584.66	29701.40
584.82	29741.19
584.98	29579.69
585.14	29759.91
585.30	29591.39
585.46	29607.78
585.62	29600.76
585.78	29923.75
585.94	29308.19
586.10	30031.41
586.26	29612.46
586.42	29741.19
586.58	29750.55
586.74	29397.13
586.90	29411.17
587.06	29355.00
587.22	29663.95
587.38	29455.64
587.54	29720.12
587.70	30010.35
587.86	30122.69
588.02	29752.89
588.18	30061.84
588.34	29989.28
588.49	29979.92
588.65	29713.10
588.81	29645.23
588.97	29876.94
589.13	29301.17
589.29	29874.60
589.45	29612.46
589.61	30061.84
589.77	29848.85
589.93	29867.58
590.08	29893.32
590.24	30171.85
590.40	29839.49
590.56	30202.27
590.72	29640.54
590.88	29673.31
591.04	29790.34
591.20	30251.42
591.35	30307.60
591.51	30401.22
591.67	30253.76
591.83	30239.72
591.99	29907.37
592.15	29680.33
592.31	29916.73
592.46	29895.66
592.62	29771.61
592.78	30057.16
592.94	29839.49
593.10	29942.47
593.26	30183.55
593.41	29944.81
593.57	30129.72
593.73	30246.74
593.89	29933.11
594.05	30246.74
594.20	30108.65
594.36	29975.24
594.52	29734.17
594.68	30141.42
594.84	29933.11
594.99	30181.21
595.15	29986.94
595.31	30251.42
595.47	30295.89
595.62	30040.78
595.78	30279.51
595.94	29853.53
596.10	29525.86
596.25	29989.28
596.41	29708.42
596.57	29923.75
596.73	29827.79
596.88	29965.88
597.04	30087.59
597.20	30232.70
597.36	30441.01
597.51	30412.92
597.67	29743.53
597.83	29883.96
597.99	30335.68
598.14	29759.91
598.30	30291.21
598.46	30354.41
598.61	30284.19
598.77	29715.44
598.93	30183.55
599.09	30511.22
599.24	30469.09
599.40	30424.62
599.56	30595.48
599.71	30153.12
599.87	30541.65
600.03	30061.84
600.18	29982.26
600.34	30225.68
600.50	30185.89
600.65	29996.31
600.81	30239.72
600.97	30295.89
601.12	30543.99
601.28	30415.26
601.44	30190.57
601.59	30211.64
601.75	30176.53
601.91	30286.53
602.06	29963.54
602.22	30153.12
602.37	29764.59
602.53	30256.11
602.69	30424.62
602.84	30438.67
603.00	30281.85
603.16	30160.14
603.31	30286.53
603.47	30263.13
603.62	30267.81
603.78	30536.97
603.94	29729.48
604.09	29965.88
604.25	30188.23
604.40	30223.34
604.56	30073.54
604.71	30658.68
604.87	29963.54
605.03	30218.66
605.18	30340.36
605.34	30026.73
605.49	30040.78
605.65	30473.78
605.80	30066.52
605.96	30045.46
606.12	30206.95
606.27	30211.64
606.43	30113.33
606.58	30387.18
606.74	29675.65
606.89	30265.47
607.05	30328.66
607.20	30305.26
607.36	30384.83
607.51	30415.26
607.67	30120.35
607.82	30075.88
607.98	29762.25
608.13	29741.19
608.29	29881.62
608.44	30312.28
608.60	30174.19
608.75	30190.57
608.91	30061.84
609.06	29811.40
609.22	30022.05
609.37	29750.55
609.53	30052.48
609.68	30190.57
609.84	30031.41
609.99	30155.46
610.15	30050.14
610.30	29818.42
610.46	29687.36
610.61	29851.19
610.76	29750.55
610.92	29858.21
611.07	29993.97
611.23	29841.83
611.38	29710.76
611.54	29806.72
611.69	29888.64
611.84	29813.74
612.00	29656.93
612.15	29577.35
612.31	30085.25
612.46	29724.80
612.62	29984.60
612.77	29713.10
612.92	29991.62
613.08	29275.42
613.23	29797.36
613.39	29640.54
613.54	29425.22
613.69	29593.73
613.85	29668.63
614.00	29479.05
614.15	29722.46
614.31	29780.98
614.46	29661.61
614.62	29425.22
614.77	29551.60
614.92	29834.81
615.08	29261.38
615.23	29982.26
615.38	29502.45
615.54	29532.88
615.69	29404.15
615.84	28994.56
616.00	29214.57
616.15	29383.09
616.30	29495.43
616.46	29956.52
616.61	29254.36
616.76	29467.34
616.92	29841.83
617.07	29432.24
617.22	29214.57
617.37	29221.59
617.53	29689.70
617.68	29195.84
617.83	29270.74
617.99	29291.80
618.14	29177.12
618.29	29441.60
618.45	29359.68
618.60	29097.54
618.75	29528.20
618.90	29067.11
619.06	29303.51
619.21	29319.89
619.36	29184.14
619.51	29228.61
619.67	28940.72
619.82	29088.18
619.97	29223.93
620.12	28968.81
620.28	29289.46
620.43	29120.95
620.58	29413.51
620.73	28959.45
620.89	29289.46
621.04	29193.50
621.19	28879.87
621.34	28797.95
621.49	28657.52
621.65	28802.63
621.80	29132.65
621.95	28811.99
622.10	28762.84
622.25	28793.27
622.41	29120.95
622.56	28772.21
622.71	29092.86
622.86	28601.35
623.01	28474.96
623.16	29036.69
623.32	28802.63
623.47	28629.43
623.62	28645.82
623.77	28800.29
623.92	28559.22
624.07	28741.78
624.23	28687.95
624.38	28917.32
624.53	28840.08
624.68	28725.39
624.83	28744.12
624.98	28615.39
625.13	28472.62
625.29	28893.91
625.44	28407.08
625.59	28411.76
625.74	28046.64
625.89	28123.88
626.04	28407.08
626.19	28116.86
626.34	28060.68
626.49	28273.67
626.65	28346.23
626.80	28683.27
626.95	28147.28
627.10	28507.72
627.25	28547.51
627.40	28231.54
627.55	27946.00
627.70	28456.23
627.85	28093.45
628.00	28048.98
628.15	27943.66
628.30	28371.97
628.45	28063.02
628.60	28112.17
628.76	28304.10
628.91	28430.49
629.06	27887.48
629.21	28194.09
629.36	27835.99
629.51	27985.79
629.66	28046.64
629.81	27833.65
629.96	27765.78
630.11	27728.33
630.26	27960.04
630.41	27807.90
630.56	27681.52
630.71	27723.65
630.86	27559.81
631.01	28102.81
631.16	27763.43
631.31	27681.52
631.46	28051.32
631.61	27761.09
631.76	27686.20
631.91	27721.30
632.06	27337.46
632.21	27889.82
632.36	27295.33
632.51	27475.55
632.66	27728.33
632.81	27819.61
632.96	27601.94
633.10	27892.16
633.25	27658.11
633.40	28016.21
633.55	27583.21
633.70	27353.84
633.85	27325.75
634.00	27550.45
634.15	27168.94
634.30	27267.24
634.45	27623.00
634.60	27257.88
634.75	27159.58
634.90	27194.68
635.05	27672.15
635.19	27473.21
635.34	27414.69
635.49	27400.65
635.64	27473.21
635.79	27084.68
635.94	27410.01
636.09	27257.88
636.24	26761.69
636.39	26967.65
636.53	27337.46
636.68	27370.22
636.83	27150.21
636.98	27379.59
637.13	26888.07
637.28	27211.07
637.43	27094.04
637.57	27215.75
637.72	27096.38
637.87	26948.93
638.02	26857.65
638.17	27042.55
638.32	27285.97
638.46	27143.19
638.61	26834.24
638.76	26852.97
638.91	26960.63
639.06	26843.60
639.20	26689.13
639.35	27061.27
639.50	26969.99
639.65	27255.54
639.80	27084.68
639.94	26855.31
640.09	27133.83
640.24	26911.48
640.39	27185.32
640.54	26869.35
640.68	26574.44
640.83	26995.74
640.98	26436.35
641.13	26698.49
641.27	26918.50
641.42	26539.33
641.57	27129.15
641.72	27000.42
641.86	26703.17
642.01	26469.12
642.16	26408.26
642.31	26394.22
642.45	26630.62
642.60	26651.68
642.75	26572.10
642.90	26235.06
643.04	26286.56
643.19	26019.74
643.34	26031.44
643.48	26181.23
643.63	26478.48
643.78	26237.41
643.93	26436.35
644.07	26419.97
644.22	26459.76
644.37	26391.88
644.51	26230.38
644.66	26211.66
644.81	25907.39
644.95	25968.24
645.10	25867.60
645.25	25830.15
645.39	26218.68
645.54	26185.91
645.69	25991.65
645.83	26176.55
645.98	25986.97
646.13	26155.49
646.27	25970.58
646.42	26054.84
646.57	25855.90
646.71	25633.55
646.86	26223.36
647.00	25912.07
647.15	26089.95
647.30	25830.15
647.44	25771.64
647.59	26143.78
647.74	25862.92
647.88	25734.19
648.03	25708.44
648.17	26333.37
648.32	25848.88
648.47	26263.15
648.61	25916.75
648.76	25750.57
648.90	25848.88
649.05	25930.80
649.20	25420.56
649.34	25706.10
649.49	25530.56
649.63	25912.07
649.78	25614.82
649.92	25652.27
650.07	25673.34
650.21	25603.12
650.36	25589.08
650.51	25769.30
650.65	25825.47
650.80	25825.47
650.94	25343.32
651.09	25184.16
651.23	25528.22
651.38	25376.09
651.52	25663.97
651.67	25546.95
651.81	25324.60
651.96	25568.01
652.10	25446.30
652.25	25120.97
652.39	25795.04
652.54	25458.01
652.68	25303.53
652.83	25322.26
652.97	25928.45
653.12	25284.81
653.26	25109.27
653.41	25408.86
653.55	24863.51
653.70	25193.53
653.84	24807.34
653.99	25411.20
654.13	25230.98
654.27	25221.61
654.42	25401.83
654.56	25254.38
654.71	25493.12
654.85	25116.29
655.00	25549.29
655.14	24938.41
655.29	25638.23
655.43	25394.81
655.57	25118.63
655.72	25294.17
655.86	25015.65
656.01	24753.51
656.15	24889.26
656.30	24369.66
656.44	24671.59
656.58	24690.31
656.73	24800.32
656.87	25008.62
657.01	25113.95
657.16	24922.02
657.30	24971.18
657.45	25139.69
657.59	24851.81
657.73	24704.35
657.88	24793.29
658.02	24709.04
658.16	24676.27
658.31	24692.65
658.45	24868.19
658.60	24355.61
658.74	24346.25
658.88	24517.11
659.03	24386.04
659.17	24336.89
659.31	24629.46
659.46	24762.87
659.60	24744.14
659.74	24388.38
659.89	24128.58
660.03	24372.00
660.17	24531.15
660.32	24219.86
660.46	24226.89
660.60	24238.59
660.74	23651.11
660.89	24226.89
661.03	23726.01
661.17	24058.37
661.32	23976.45
661.46	24329.87
661.60	23882.83
661.74	24198.80
661.89	23749.42
662.03	24023.26
662.17	23826.65
662.31	23936.66
662.46	24409.45
662.60	23976.45
662.74	23672.18
662.88	23917.93
663.03	23946.02
663.17	23674.52
663.31	23576.22
663.45	23653.45
663.60	23552.81
663.74	23625.37
663.88	23559.83
664.02	23447.49
664.17	23751.76
664.31	23550.47
664.45	23473.23
664.59	23623.03
664.73	23604.30
664.88	23426.42
665.02	23190.03
665.16	23438.12
665.30	23269.61
665.44	22923.21
665.59	23061.30
665.73	23037.89
665.87	23129.17
666.01	22979.38
666.15	23342.16
666.29	23016.83
666.44	23054.28
666.58	22684.47
666.72	22925.55
666.86	23213.43
667.00	22841.29
667.14	22782.77
667.28	22693.83
667.43	22792.14
667.57	23040.23
667.71	22574.47
667.85	22696.17
667.99	22539.36
668.13	22752.35
668.27	22427.01
668.41	22764.05
668.56	22480.85
668.70	22733.62
668.84	22588.51
668.98	22579.15
669.12	22375.52
669.26	22581.49
669.40	22473.82
669.54	22314.67
669.68	22218.71
669.82	22026.78
669.96	22288.92
670.10	21862.94
670.25	22326.37
670.39	21970.61
670.53	22214.02
670.67	21928.48
670.81	22122.74
670.95	22141.47
671.09	22122.74
671.23	21947.20
671.37	21797.41
671.51	21806.77
671.65	21907.41
671.79	21759.96
671.93	21792.73
672.07	21827.84
672.21	21624.21
672.35	21584.42
672.49	21369.09
672.63	21425.26
672.77	21558.67
672.91	21593.78
673.05	21270.79
673.19	21139.72
673.33	21167.80
673.47	21062.48
673.61	21535.27
673.75	21275.47
673.89	21284.83
674.03	21186.53
674.17	20971.20
674.31	21399.52
674.45	21263.77
674.59	21013.33
674.73	21111.63
674.87	20861.19
675.01	20943.11
675.15	20765.23
675.29	20704.38
675.43	20629.48
675.56	20943.11
675.70	20596.71
675.84	20643.52
675.98	19917.96
676.12	20549.90
676.26	20842.47
676.40	20793.32
676.54	20652.89
676.68	20521.82
676.82	19932.00
676.96	20187.12
677.10	20332.23
677.23	20042.01
677.37	20018.60
677.51	19807.95
677.65	19997.54
677.79	19583.26
677.93	19880.51
678.07	19424.11
678.21	19882.85
678.34	19496.66
678.48	19601.99
678.62	19442.83
678.76	19381.98
678.90	19377.30
679.04	19243.88
679.18	19194.73
679.31	19066.00
679.45	19061.32
679.59	19173.67
679.73	19206.44
679.87	19014.51
680.00	18827.27
680.14	19002.81
680.28	18822.59
680.42	18794.50
680.56	19023.87
680.70	18604.92
680.83	18773.44
680.97	18586.19
681.11	18661.09
681.25	18368.52
681.39	18478.53
681.52	18478.53
681.66	18270.22
681.80	18085.32
681.94	18073.62
682.07	18345.12
682.21	17834.88
682.35	17755.30
682.49	18047.87
682.62	17851.27
682.76	17799.77
682.90	17788.07
683.04	17689.77
683.17	18073.62
683.31	17860.63
683.45	17834.88
683.59	17392.52
683.72	17329.33
683.86	17598.49
684.00	17441.67
684.13	17530.61
684.27	17397.20
684.41	17385.50
684.55	16943.14
684.68	17020.38
684.82	16975.91
684.96	16943.14
685.09	16954.84
685.23	16795.68
685.37	17259.11
685.50	17062.51
685.64	16833.13
685.78	16849.52
685.91	16720.79
686.05	16336.94
686.19	16706.74
686.32	16725.47
686.46	16292.47
686.60	16404.81
686.73	16475.03
686.87	16393.11
687.01	16091.18
687.14	16521.84
687.28	16397.79
687.42	16065.44
687.55	15829.04
687.69	16084.16
687.82	15726.06
687.96	15922.66
688.10	15985.86
688.23	15829.04
688.37	15822.02
688.50	15913.30
688.64	15712.02
688.78	15662.86
688.91	15442.85
689.05	15396.04
689.18	15470.94
689.32	15098.80
689.46	15101.14
689.59	15281.36
689.73	15208.80
689.86	15309.44
690.00	15311.78
690.13	15243.91
690.27	15180.71
690.41	15286.04
690.54	15035.60
690.68	15110.50
690.81	14843.68
690.95	14944.32
691.08	14972.41
691.22	14691.54
691.35	14843.68
691.49	14738.35
691.62	14714.95
691.76	14398.98
691.89	14445.79
692.03	14342.80
692.16	14363.87
692.30	14087.68
692.43	13923.85
692.57	14064.28
692.70	14113.43
692.84	14075.98
692.97	13673.41
693.11	13930.87
693.24	13909.80
693.38	13855.97
693.51	13860.65
693.65	13841.93
693.78	13827.88
693.92	13935.55
694.05	13547.02
694.19	13591.49
694.32	13589.15
694.45	13444.04
694.59	13123.38
694.72	13277.86
694.86	13006.36
694.99	12936.14
695.13	13102.32
695.26	13247.43
695.39	13179.56
695.53	13011.04
695.66	12950.18
695.80	13130.41
695.93	12980.61
696.07	13027.42
696.20	13142.11
696.33	12858.90
696.47	12683.36
696.60	12671.66
696.73	12615.49
696.87	12636.55
697.00	12416.54
697.14	12297.17
697.27	12058.44
697.40	12395.48
697.54	11988.22
697.67	12154.40
697.80	12126.32
697.94	11995.25
698.07	12060.78
698.21	11805.66
698.34	12051.42
698.47	11927.37
698.61	12067.80
698.74	11901.62
698.87	11941.41
699.01	11903.96
699.14	11461.60
699.27	11744.81
699.40	11517.78
699.54	11707.36
699.67	11293.08
699.80	11318.83
699.94	11391.39
700.07	11269.68
700.20	11052.01
700.34	11147.97
700.47	11304.79
700.60	11136.27
700.73	11405.43
700.87	11110.52
701.00	10991.16
701.13	11087.12
701.26	10953.71
701.40	11087.12
701.53	10949.03
701.66	11035.63
701.79	10642.42
701.93	10766.46
702.06	10787.53
702.19	10506.66
702.32	10265.59
702.46	10572.20
702.59	10504.32
702.72	10384.96
702.85	10373.25
702.99	10541.77
703.12	10221.12
703.25	10108.77
703.38	10239.84
703.51	10076.01
703.65	10085.37
703.78	9975.36
703.91	9975.36
704.04	10143.88
704.17	10003.45
704.31	10026.86
704.44	9846.63
704.57	9886.42
704.70	9881.74
704.83	9678.12
704.96	9689.82
705.10	9556.41
705.23	9305.97
>>>>>End Processed Spectral Data<<<<<
