SpectraSuite Data File
++++++++++++++++++++++++++++++++++++
Date: Fri Oct 18 13:58:30 GMT-05:00 2013
User: bianchi
Dark Spectrum Present: No
Reference Spectrum Present: No
Number of Sampled Component Spectra: 1
Spectrometers: USB2+H05261
Integration Time (usec): 50000 (USB2+H05261)
Spectra Averaged: 1 (USB2+H05261)
Boxcar Smoothing: 0 (USB2+H05261)
Correct for Electrical Dark: No (USB2+H05261)
Strobe/Lamp Enabled: No (USB2+H05261)
Correct for Detector Non-linearity: No (USB2+H05261)
Correct for Stray Light: No (USB2+H05261)
Number of Pixels in Processed Spectrum: 2048
>>>>>Begin Processed Spectral Data<<<<<
365.73	0.00
365.92	0.00
366.12	0.00
366.32	0.00
366.52	0.00
366.72	0.00
366.91	0.00
367.11	0.00
367.31	0.00
367.51	0.00
367.70	0.00
367.90	0.00
368.10	0.00
368.30	0.00
368.49	0.00
368.69	0.00
368.89	0.00
369.09	0.00
369.28	0.00
369.48	0.00
369.68	0.00
369.87	0.00
370.07	0.00
370.27	0.00
370.47	0.00
370.66	110.01
370.86	84.26
371.06	100.64
371.25	154.48
371.45	112.35
371.65	138.09
371.84	210.65
372.04	175.54
372.24	245.76
372.44	182.56
372.63	149.79
372.83	215.33
373.03	215.33
373.22	168.52
373.42	159.16
373.62	257.46
373.81	241.08
374.01	201.29
374.21	269.16
374.40	196.60
374.60	245.76
374.79	152.13
374.99	217.67
375.19	327.68
375.38	243.42
375.58	175.54
375.78	229.37
375.97	287.89
376.17	297.25
376.37	304.27
376.56	229.37
376.76	280.86
376.95	269.16
377.15	234.05
377.35	255.12
377.54	248.10
377.74	252.78
377.93	248.10
378.13	208.31
378.33	234.05
378.52	198.95
378.72	397.89
378.91	334.70
379.11	210.65
379.31	287.89
379.50	330.02
379.70	353.42
379.89	299.59
380.09	278.52
380.28	365.12
380.48	184.90
380.68	259.80
380.87	290.23
381.07	376.83
381.26	315.97
381.46	337.04
381.65	280.86
381.85	327.68
382.04	322.99
382.24	330.02
382.43	315.97
382.63	341.72
382.83	372.15
383.02	351.08
383.22	358.10
383.41	365.12
383.61	304.27
383.80	294.91
384.00	327.68
384.19	339.38
384.39	344.06
384.58	414.27
384.78	311.29
384.97	360.44
385.17	369.80
385.36	341.72
385.56	400.23
385.75	393.21
385.95	374.49
386.14	383.85
386.34	334.70
386.53	402.57
386.72	395.55
386.92	465.77
387.11	433.00
387.31	421.30
387.50	379.17
387.70	454.06
387.89	423.64
388.09	393.21
388.28	484.49
388.48	484.49
388.67	463.43
388.86	440.02
389.06	360.44
389.25	463.43
389.45	423.64
389.64	470.45
389.84	451.72
390.03	486.83
390.22	468.11
390.42	496.19
390.61	535.98
390.81	477.47
391.00	433.00
391.19	489.17
391.39	461.09
391.58	493.85
391.78	470.45
391.97	442.36
392.16	512.58
392.36	568.75
392.55	484.49
392.75	578.11
392.94	482.15
393.13	533.64
393.33	557.05
393.52	533.64
393.71	615.56
393.91	535.98
394.10	503.22
394.29	463.43
394.49	603.86
394.68	685.78
394.88	662.37
395.07	554.71
395.26	585.13
395.46	557.05
395.65	669.39
395.84	634.29
396.04	667.05
396.23	690.46
396.42	575.77
396.62	660.03
396.81	603.86
397.00	613.22
397.19	667.05
397.39	678.76
397.58	613.22
397.77	676.41
397.97	645.99
398.16	617.90
398.35	807.48
398.55	655.35
398.74	713.86
398.93	748.97
399.12	734.93
399.32	671.73
399.51	685.78
399.70	746.63
399.90	676.41
400.09	704.50
400.28	786.42
400.47	695.14
400.67	669.39
400.86	802.80
401.05	786.42
401.24	767.70
401.44	781.74
401.63	753.65
401.82	779.40
402.01	774.72
402.21	844.93
402.40	873.02
402.59	882.38
402.78	851.96
402.97	819.19
403.17	812.17
403.36	856.64
403.55	809.83
403.74	840.25
403.93	884.72
404.13	856.64
404.32	898.77
404.51	915.15
404.70	922.17
404.89	856.64
405.09	980.68
405.28	933.87
405.47	931.53
405.66	922.17
405.85	891.74
406.05	1001.75
406.24	961.96
406.43	959.62
406.62	910.47
406.81	1050.90
407.00	992.39
407.20	1053.24
407.39	1088.35
407.58	1095.37
407.77	990.05
407.96	1095.37
408.15	1083.67
408.34	985.37
408.54	1064.94
408.73	1022.81
408.92	1060.26
409.11	1043.88
409.30	1095.37
409.49	1181.97
409.68	1071.97
409.87	1156.22
410.07	1137.50
410.26	1198.35
410.45	1242.82
410.64	1116.44
410.83	1210.06
411.02	1179.63
411.21	1174.95
411.40	1198.35
411.59	1221.76
411.78	1221.76
411.98	1217.08
412.17	1200.69
412.36	1320.06
412.55	1380.92
412.74	1294.32
412.93	1322.40
413.12	1240.48
413.31	1462.83
413.50	1324.74
413.69	1366.87
413.88	1385.60
414.07	1324.74
414.26	1497.94
414.45	1392.62
414.64	1511.99
414.83	1488.58
415.02	1549.43
415.22	1476.88
415.41	1556.46
415.60	1540.07
415.79	1530.71
415.98	1523.69
416.17	1589.22
416.36	1465.18
416.55	1582.20
416.74	1593.90
416.93	1584.54
417.12	1659.44
417.31	1694.55
417.50	1652.42
417.69	1757.74
417.88	1699.23
418.07	1750.72
418.26	1797.53
418.45	1678.16
418.64	1795.19
418.83	1753.06
419.02	1820.94
419.21	1813.92
419.39	1790.51
419.58	1830.30
419.77	1736.68
419.96	1928.60
420.15	1797.53
420.34	1799.87
420.53	1825.62
420.72	1902.86
420.91	1874.77
421.10	1940.30
421.29	1837.32
421.48	1844.34
421.67	1891.15
421.86	1942.64
422.05	1987.11
422.24	1919.24
422.43	1919.24
422.61	1909.88
422.80	1905.20
422.99	2001.16
423.18	2050.31
423.37	2052.65
423.56	2050.31
423.75	1947.33
423.94	1977.75
424.13	1797.53
424.32	1893.49
424.50	2078.40
424.69	2101.80
424.88	2115.84
425.07	2036.27
425.26	2043.29
425.45	1952.01
425.64	2066.69
425.83	2057.33
426.01	2015.20
426.20	2062.01
426.39	1966.05
426.58	2001.16
426.77	2059.67
426.96	2071.37
427.15	1996.48
427.33	2092.44
427.52	2104.14
427.71	2078.40
427.90	2083.08
428.09	2050.31
428.28	2221.17
428.46	2209.47
428.65	2120.53
428.84	2242.23
429.03	2186.06
429.22	2160.31
429.40	2183.72
429.59	2134.57
429.78	2193.08
429.97	2148.61
430.16	2101.80
430.34	2193.08
430.53	2256.28
430.72	2239.89
430.91	2197.76
431.10	2324.15
431.28	2401.39
431.47	2366.28
431.66	2410.75
431.85	2462.24
432.03	2410.75
432.22	2408.41
432.41	2422.45
432.60	2466.92
432.79	2459.90
432.97	2499.69
433.16	2293.72
433.35	2490.33
433.54	2555.86
433.72	2560.55
433.91	2354.58
434.10	2448.20
434.28	2406.07
434.47	2438.84
434.66	2464.58
434.85	2478.63
435.03	2576.93
435.22	2614.38
435.41	2586.29
435.59	2581.61
435.78	2565.23
435.97	2605.02
436.16	2780.56
436.34	2743.11
436.53	2668.21
436.72	2670.55
436.90	2600.34
437.09	2691.62
437.28	2588.63
437.46	2752.47
437.65	2832.05
437.84	2668.21
438.02	2612.04
438.21	2689.28
438.40	2740.77
438.58	2892.90
438.77	2836.73
438.96	2895.24
439.14	2897.58
439.33	2874.18
439.52	2960.78
439.70	2953.76
439.89	2888.22
440.08	2974.82
440.26	3157.38
440.45	3028.65
440.63	3105.89
440.82	3150.36
441.01	3054.40
441.19	2946.73
441.38	3173.77
441.57	3112.91
441.75	3239.30
441.94	3164.40
442.12	3337.60
442.31	3159.72
442.50	3164.40
442.68	3265.05
442.87	3300.16
443.05	3279.09
443.24	3302.50
443.43	3398.46
443.61	3262.71
443.80	3337.60
443.98	3379.73
444.17	3234.62
444.35	3330.58
444.54	3478.04
444.73	3466.33
444.91	3403.14
445.10	3339.94
445.28	3344.63
445.47	3384.41
445.65	3234.62
445.84	3487.40
446.02	3449.95
446.21	3267.39
446.39	3349.31
446.58	3515.48
446.77	3372.71
446.95	3372.71
447.14	3442.93
447.32	3485.06
447.51	3407.82
447.69	3419.52
447.88	3449.95
448.06	3543.57
448.25	3478.04
448.43	3545.91
448.62	3435.91
448.80	3321.22
448.99	3473.36
449.17	3417.18
449.36	3574.00
449.54	3742.52
449.73	3536.55
449.91	3676.98
450.10	3602.08
450.28	3667.62
450.46	3688.68
450.65	3609.11
450.83	3667.62
451.02	3782.31
451.20	3794.01
451.39	3726.13
451.57	3756.56
451.76	3632.51
451.94	3782.31
452.13	3904.01
452.31	3843.16
452.49	3735.50
452.68	3794.01
452.86	3904.01
453.05	3922.74
453.23	3866.56
453.42	3808.05
453.60	3822.09
453.78	3885.29
453.97	3819.75
454.15	3866.56
454.34	3896.99
454.52	3934.44
454.70	3964.87
454.89	3847.84
455.07	4070.19
455.26	4044.45
455.44	4032.74
455.62	3971.89
455.81	4067.85
455.99	3978.91
456.17	4028.06
456.36	4152.11
456.54	4105.30
456.73	4236.37
456.91	4119.34
457.09	4269.14
457.28	4276.16
457.46	4063.17
457.64	4236.37
457.83	4362.76
458.01	4315.95
458.19	4344.03
458.38	4308.93
458.56	4425.95
458.74	4379.14
458.93	4320.63
459.11	4369.78
459.29	4447.02
459.48	4358.08
459.66	4440.00
459.84	4547.66
460.03	4568.73
460.21	4458.72
460.39	4444.68
460.57	4545.32
460.76	4435.32
460.94	4423.61
461.12	4538.30
461.31	4519.57
461.49	4564.04
461.67	4608.51
461.85	4732.56
462.04	4573.41
462.22	4751.29
462.40	4863.63
462.59	4655.33
462.77	4669.37
462.95	4634.26
463.13	4711.50
463.32	4795.76
463.50	4793.42
463.68	4779.37
463.86	4821.50
464.05	4791.08
464.23	4667.03
464.41	4800.44
464.59	4767.67
464.78	4950.23
464.96	4753.63
465.14	4938.53
465.32	4990.02
465.50	4961.94
465.69	4940.87
465.87	4947.89
466.05	4854.27
466.23	4938.53
466.41	4896.40
466.60	5020.45
466.78	5011.09
466.96	5015.77
467.14	4983.00
467.32	4873.00
467.51	5093.01
467.69	4990.02
467.87	4992.36
468.05	5128.11
468.23	4968.96
468.41	5130.45
468.60	5221.74
468.78	5170.24
468.96	5327.06
469.14	5118.75
469.32	5259.18
469.50	5032.15
469.69	5261.52
469.87	5266.21
470.05	5413.66
470.23	5270.89
470.41	5434.72
470.59	5565.79
470.77	5298.97
470.95	5348.12
471.14	5617.29
471.32	5444.09
471.50	5362.17
471.68	5488.56
471.86	5530.69
472.04	5563.45
472.22	5664.10
472.40	5476.85
472.58	5650.05
472.77	5701.54
472.95	5701.54
473.13	5776.44
473.31	5748.36
473.49	5722.61
473.67	5762.40
473.85	5717.93
474.03	5893.47
474.21	6073.69
474.39	5956.66
474.57	5984.75
474.75	6108.80
474.93	6099.44
475.12	5977.73
475.30	6127.52
475.48	6127.52
475.66	6211.78
475.84	6076.03
476.02	6305.40
476.20	6272.64
476.38	6286.68
476.56	6588.61
476.74	6424.77
476.92	6579.25
477.10	6532.44
477.28	6597.97
477.46	6422.43
477.64	6604.99
477.82	6682.23
478.00	6825.00
478.18	6904.58
478.36	6602.65
478.54	6904.58
478.72	7068.42
478.90	7000.54
479.08	7185.44
479.26	7000.54
479.44	7131.61
479.62	7246.30
479.80	7236.94
479.98	7115.23
480.16	7293.11
480.34	7213.53
480.52	7517.80
480.70	7515.46
480.88	7386.73
481.06	7747.17
481.24	7499.08
481.41	7658.23
481.59	7854.84
481.77	7866.54
481.95	7903.99
482.13	7805.69
482.31	7929.74
482.49	8065.49
482.67	8208.26
482.85	8194.22
483.03	8571.04
483.21	8573.38
483.39	8500.83
483.57	8383.80
483.74	8557.00
483.92	8533.59
484.10	8627.21
484.28	8762.97
484.46	8891.70
484.64	8999.36
484.82	8826.16
485.00	8912.76
485.18	9029.79
485.35	9376.19
485.53	9275.54
485.71	9282.56
485.89	9483.85
486.07	9139.79
486.25	9322.35
486.43	9448.74
486.61	9673.43
486.78	9748.33
486.96	9827.91
487.14	9961.32
487.32	9846.63
487.50	10029.20
487.68	10097.07
487.85	10281.97
488.03	10052.60
488.21	10230.48
488.39	10516.03
488.57	10469.22
488.75	10558.16
488.92	10757.10
489.10	10574.54
489.28	10745.40
489.46	10820.30
489.64	10977.11
489.81	11211.17
489.99	11201.80
490.17	11365.64
490.35	11227.55
490.53	11236.91
490.70	11281.38
490.88	11468.62
491.06	11466.28
491.24	11398.41
491.41	11672.25
491.59	11644.17
491.77	11616.08
491.95	12039.72
492.13	11740.13
492.30	12100.57
492.48	11962.48
492.66	12042.06
492.84	12011.63
493.01	12369.73
493.19	12482.08
493.37	12744.22
493.54	12498.46
493.72	12292.49
493.90	12446.97
494.08	12755.92
494.25	12863.58
494.43	12894.01
494.61	13153.81
494.79	13095.30
494.96	13177.22
495.14	13212.32
495.32	13411.27
495.49	13022.74
495.67	13537.66
495.85	13626.60
496.02	13764.69
496.20	13549.36
496.38	13834.91
496.55	13926.19
496.73	13965.98
496.91	14099.39
497.09	14057.26
497.26	14120.45
497.44	14157.90
497.62	14368.55
497.79	14326.42
497.97	14265.57
498.14	14452.81
498.32	14382.59
498.50	14724.31
498.67	14768.78
498.85	14829.63
499.03	14656.43
499.20	14740.69
499.38	14995.81
499.56	15019.22
499.73	15267.31
499.91	15026.24
500.08	15108.16
500.26	14939.64
500.44	15321.15
500.61	15332.85
500.79	15164.33
500.97	15257.95
501.14	15433.49
501.32	15578.61
501.49	15115.18
501.67	15611.37
501.84	15686.27
502.02	15796.28
502.20	15871.17
502.37	15964.79
502.55	15962.45
502.72	15625.42
502.90	15644.14
503.07	15791.59
503.25	16166.08
503.43	16037.35
503.60	16255.02
503.78	16149.70
503.95	16184.80
504.13	16217.57
504.30	16301.83
504.48	16222.25
504.65	16573.33
504.83	16662.27
505.01	16872.92
505.18	16386.09
505.36	17025.06
505.53	16840.15
505.71	16854.20
505.88	16882.28
506.06	16807.39
506.23	16950.16
506.41	16872.92
506.58	17137.40
506.76	17186.55
506.93	17240.39
507.11	17205.28
507.28	17043.78
507.46	17221.66
507.63	17561.04
507.81	17439.33
507.98	17338.69
508.16	17469.76
508.33	17460.40
508.50	17717.86
508.68	17638.28
508.85	17879.35
509.03	17877.01
509.20	18064.25
509.38	17811.48
509.55	18082.98
509.73	17717.86
509.90	18101.70
510.08	18008.08
510.25	18047.87
510.42	18113.41
510.60	18530.02
510.77	17996.38
510.95	18515.98
511.12	18272.56
511.30	18265.54
511.47	18476.19
511.64	18368.52
511.82	18562.79
511.99	18551.09
512.17	18991.11
512.34	18820.25
512.51	18808.54
512.69	18979.40
512.86	18904.51
513.04	18956.00
513.21	18970.04
513.38	19403.04
513.56	19566.88
513.73	19133.88
513.90	19082.39
514.08	19300.06
514.25	19089.41
514.43	19391.34
514.60	19351.55
514.77	19583.26
514.95	19690.93
515.12	19311.76
515.29	19707.31
515.47	19482.62
515.64	19667.52
515.81	19868.81
515.99	19714.33
516.16	19932.00
516.33	19674.54
516.51	19953.07
516.68	19576.24
516.85	19784.55
517.03	20020.94
517.20	19976.47
517.37	20009.24
517.54	20205.84
517.72	20290.10
517.89	20135.63
518.06	20346.28
518.24	20201.16
518.41	20322.87
518.58	20556.93
518.75	20346.28
518.93	20631.82
519.10	20573.31
519.27	20563.95
519.45	20596.71
519.62	20524.16
519.79	20563.95
519.96	20601.40
520.14	21216.96
520.31	20940.77
520.48	20819.07
520.65	21109.29
520.83	21092.91
521.00	21015.67
521.17	21095.25
521.34	20964.18
521.52	21207.59
521.69	21383.13
521.86	21263.77
522.03	21626.55
522.20	21664.00
522.38	21242.70
522.55	21259.09
522.72	21436.97
522.89	21099.93
523.07	21869.97
523.24	21848.90
523.41	21902.73
523.58	21694.43
523.75	21984.65
523.92	21935.50
524.10	21544.63
524.27	21757.62
524.44	21928.48
524.61	22300.62
524.78	22354.46
524.96	22052.53
525.13	21947.20
525.30	22164.87
525.47	22249.13
525.64	22239.77
525.81	22188.28
525.98	22394.25
526.16	22485.53
526.33	22281.90
526.50	22670.43
526.67	22558.08
526.84	22904.48
527.01	22485.53
527.18	22466.80
527.36	22492.55
527.53	22707.88
527.70	22911.50
527.87	22618.94
528.04	23002.78
528.21	22972.36
528.38	22642.34
528.55	22836.61
528.72	23077.68
528.89	23180.67
529.07	22768.73
529.24	23129.17
529.41	23019.17
529.58	23084.70
529.75	22876.40
529.92	23295.35
530.09	23484.94
530.26	23412.38
530.43	23171.30
530.60	23225.14
530.77	23442.81
530.94	23543.45
531.11	23435.78
531.28	23281.31
531.46	23342.16
531.63	23688.56
531.80	23545.79
531.97	23648.77
532.14	23569.19
532.31	23358.55
532.48	23435.78
532.65	23653.45
532.82	23573.88
532.99	23697.92
533.16	23828.99
533.33	23648.77
533.50	24243.27
533.67	23843.04
533.84	23828.99
534.01	23637.07
534.18	23796.23
534.35	24339.23
534.52	24283.06
534.69	23861.76
534.86	24423.49
535.03	24210.50
535.20	23803.25
535.37	24184.76
535.54	24147.31
535.71	24130.92
535.88	24114.54
536.05	24025.60
536.22	24184.76
536.38	24835.42
536.55	24257.31
536.72	24671.59
536.89	24304.12
537.06	24638.82
537.23	24617.75
537.40	24687.97
537.57	24875.21
537.74	24676.27
537.91	24996.92
538.08	24762.87
538.25	24753.51
538.42	24706.70
538.59	24896.28
538.75	24835.42
538.92	24397.74
539.09	24741.80
539.26	24746.48
539.43	25048.41
539.60	24847.13
539.77	24685.63
539.94	24861.17
540.11	25102.25
540.28	25144.38
540.44	25146.72
540.61	24945.43
540.78	25397.15
540.95	25305.87
541.12	25434.60
541.29	25151.40
541.46	25305.87
541.62	25666.31
541.79	25233.32
541.96	25401.83
542.13	25399.49
542.30	25483.75
542.47	25455.67
542.63	25460.35
542.80	25891.01
542.97	25984.63
543.14	25776.32
543.31	25923.77
543.48	25853.56
543.64	26314.64
543.81	26003.35
543.98	26312.30
544.15	25869.94
544.32	26153.15
544.48	26354.43
544.65	26183.57
544.82	25933.14
544.99	26017.40
545.16	25977.61
545.32	26108.68
545.49	26263.15
545.66	26380.18
545.83	26490.18
546.00	26487.84
546.16	26501.89
546.33	26167.19
546.50	25991.65
546.67	26298.26
546.83	26221.02
547.00	26242.09
547.17	26396.56
547.34	26448.05
547.50	26768.71
547.67	26881.05
547.84	26511.25
548.00	26630.62
548.17	26841.26
548.34	26429.33
548.51	27117.45
548.67	26506.57
548.84	26553.38
549.01	26838.92
549.18	26855.31
549.34	26492.52
549.51	26869.35
549.68	26625.93
549.84	26850.63
550.01	26993.40
550.18	26663.38
550.34	26824.88
550.51	27094.04
550.68	26874.03
550.84	26710.19
551.01	27388.95
551.18	26810.84
551.34	27014.46
551.51	27002.76
551.68	26803.82
551.84	27309.37
552.01	26892.76
552.18	27367.88
552.34	27330.44
552.51	27335.12
552.68	27138.51
552.84	27206.39
553.01	27304.69
553.18	27068.30
553.34	27779.82
553.51	27431.08
553.67	27482.57
553.84	27777.48
554.01	27552.79
554.17	27571.51
554.34	27498.95
554.51	27503.64
554.67	27307.03
554.84	27688.54
555.00	27505.98
555.17	27646.41
555.33	27843.01
555.50	27641.73
555.67	27625.34
555.83	27892.16
556.00	27498.95
556.16	27924.93
556.33	27917.91
556.50	27606.62
556.66	27735.35
556.83	27775.14
556.99	28144.94
557.16	27854.72
557.32	27873.44
557.49	28006.85
557.65	27744.71
557.82	27711.94
557.98	27796.20
558.15	27873.44
558.32	28271.33
558.48	28079.41
558.65	27946.00
558.81	27967.06
558.98	28194.09
559.14	27777.48
559.31	27796.20
559.47	28121.54
559.64	28002.17
559.80	28636.45
559.97	28414.10
560.13	28151.96
560.30	28247.93
560.46	28191.75
560.63	28376.66
560.79	28261.97
560.96	28170.69
561.12	27997.49
561.29	27915.57
561.45	28353.25
561.61	28545.17
561.78	28627.09
561.94	28449.21
562.11	28238.56
562.27	28006.85
562.44	28641.14
562.60	27999.83
562.77	28517.09
562.93	28140.26
563.10	28589.64
563.26	28397.72
563.42	28334.53
563.59	28444.53
563.75	28276.01
563.92	28577.94
564.08	28395.38
564.24	28257.29
564.41	28425.81
564.57	28343.89
564.74	28446.87
564.90	28460.91
565.07	28666.88
565.23	28435.17
565.39	28924.34
565.56	28737.10
565.72	28542.83
565.88	28432.83
566.05	28786.25
566.21	28746.46
566.38	28437.51
566.54	28800.29
566.70	28912.64
566.87	28655.18
567.03	28884.55
567.19	28947.75
567.36	28936.04
567.52	28540.49
567.68	28713.69
567.85	28477.30
568.01	28559.22
568.17	28671.56
568.34	29029.66
568.50	28601.35
568.66	28854.12
568.83	28823.70
568.99	28905.62
569.15	29074.13
569.32	28807.31
569.48	28479.64
569.64	29090.52
569.81	28933.70
569.97	28903.28
570.13	29371.38
570.30	28594.32
570.46	28992.22
570.62	29244.99
570.78	28793.27
570.95	28617.73
571.11	28884.55
571.27	28519.43
571.43	29099.88
571.60	28758.16
571.76	28690.29
571.92	29097.54
572.09	29237.97
572.25	29067.11
572.41	28938.38
572.57	28599.01
572.74	29235.63
572.90	29149.03
573.06	29247.33
573.22	29113.92
573.38	29125.63
573.55	29006.26
573.71	29310.53
573.87	29443.94
574.03	28865.83
574.20	28924.34
574.36	28945.41
574.52	28943.06
574.68	28959.45
574.84	29010.94
575.01	29607.78
575.17	29006.26
575.33	28952.43
575.49	28821.36
575.65	29383.09
575.82	29378.40
575.98	28994.56
576.14	29427.56
576.30	29170.10
576.46	29022.64
576.62	28833.06
576.79	29146.69
576.95	29385.43
577.11	29319.89
577.27	29303.51
577.43	29457.98
577.59	29479.05
577.75	29214.57
577.92	29142.01
578.08	29219.25
578.24	29041.37
578.40	29144.35
578.56	29277.76
578.72	29432.24
578.88	29514.16
579.04	29317.55
579.21	29221.59
579.37	29369.04
579.53	29486.07
579.69	29329.25
579.85	29165.42
580.01	29244.99
580.17	28868.17
580.33	29151.37
580.49	29614.80
580.65	29294.14
580.82	29256.70
580.98	29008.60
581.14	29198.18
581.30	29266.06
581.46	29214.57
581.62	29287.12
581.78	29226.27
581.94	29406.49
582.10	29172.44
582.26	29256.70
582.42	29399.47
582.58	29376.06
582.74	29020.30
582.90	29617.14
583.06	29692.04
583.22	29518.84
583.38	29355.00
583.54	29275.42
583.70	29097.54
583.86	29376.06
584.02	29207.55
584.18	29748.21
584.34	29308.19
584.50	29413.51
584.66	29399.47
584.82	28954.77
584.98	29144.35
585.14	29212.23
585.30	29127.97
585.46	29284.78
585.62	29453.30
585.78	29415.85
585.94	29116.26
586.10	29436.92
586.26	29668.63
586.42	29488.41
586.58	29638.20
586.74	29785.66
586.90	29392.45
587.06	29158.39
587.22	29743.53
587.38	29088.18
587.54	29572.67
587.70	29500.11
587.86	29387.77
588.02	29443.94
588.18	29769.27
588.34	29333.93
588.49	29565.65
588.65	29163.08
588.81	29345.64
588.97	29483.73
589.13	29586.71
589.29	29191.16
589.45	29755.23
589.61	29441.60
589.77	29673.31
589.93	29591.39
590.08	29855.87
590.24	29268.40
590.40	29624.16
590.56	29764.59
590.72	29823.11
590.88	29352.66
591.04	29357.34
591.20	30024.39
591.35	29743.53
591.51	30125.04
591.67	30045.46
591.83	29963.54
591.99	30005.67
592.15	29827.79
592.31	29663.95
592.46	30017.37
592.62	29577.35
592.78	29287.12
592.94	29455.64
593.10	29249.67
593.26	29706.08
593.41	30087.59
593.57	29928.43
593.73	29577.35
593.89	30099.29
594.05	29598.41
594.20	29500.11
594.36	30015.03
594.52	29607.78
594.68	29961.20
594.84	29486.07
594.99	29902.68
595.15	29612.46
595.31	30108.65
595.47	29692.04
595.62	29853.53
595.78	29762.25
595.94	29645.23
596.10	29448.62
596.25	29584.37
596.41	29610.12
596.57	29766.93
596.73	29401.81
596.88	29919.07
597.04	30073.54
597.20	30321.64
597.36	29848.85
597.51	30614.21
597.67	29851.19
597.83	29633.52
597.99	29640.54
598.14	29806.72
598.30	30054.82
598.46	29537.56
598.61	29893.32
598.77	29631.18
598.93	29886.30
599.09	30185.89
599.24	30118.01
599.40	29993.97
599.56	30005.67
599.71	29942.47
599.87	29837.15
600.03	29975.24
600.18	29677.99
600.34	29680.33
600.50	29757.57
600.65	30141.42
600.81	30073.54
600.97	29944.81
601.12	30221.00
601.28	29965.88
601.44	29780.98
601.59	29916.73
601.75	29523.52
601.91	30075.88
602.06	29825.45
602.22	30022.05
602.37	29961.20
602.53	30008.01
602.69	30103.97
602.84	29848.85
603.00	29970.56
603.16	29642.88
603.31	30340.36
603.47	30211.64
603.62	29795.02
603.78	29584.37
603.94	30108.65
604.09	29666.29
604.25	29685.01
604.40	29680.33
604.56	29797.36
604.71	30120.35
604.87	29790.34
605.03	30089.93
605.18	30333.34
605.34	30047.80
605.49	29612.46
605.65	29762.25
605.80	29591.39
605.96	29830.13
606.12	29666.29
606.27	30108.65
606.43	29685.01
606.58	30178.87
606.74	29764.59
606.89	30457.39
607.05	30036.09
607.20	29656.93
607.36	29961.20
607.51	29874.60
607.67	29584.37
607.82	29593.73
607.98	29961.20
608.13	29429.90
608.29	29893.32
608.44	29579.69
608.60	29853.53
608.75	30122.69
608.91	30080.56
609.06	29621.82
609.22	30082.91
609.37	29406.49
609.53	29617.14
609.68	29284.78
609.84	29514.16
609.99	29542.24
610.15	29537.56
610.30	29560.97
610.46	29813.74
610.61	29654.59
610.76	29717.78
610.92	29703.74
611.07	29560.97
611.23	29376.06
611.38	29589.05
611.54	29385.43
611.69	29472.03
611.84	29233.29
612.00	29235.63
612.15	29116.26
612.31	29902.68
612.46	29216.91
612.62	29567.99
612.77	29310.53
612.92	29865.24
613.08	29069.45
613.23	29465.00
613.39	29263.72
613.54	29310.53
613.69	29228.61
613.85	28971.15
614.00	29338.62
614.15	29441.60
614.31	29305.85
614.46	29762.25
614.62	29532.88
614.77	29317.55
614.92	29717.78
615.08	29120.95
615.23	28917.32
615.38	29254.36
615.54	29118.60
615.69	29118.60
615.84	29060.09
616.00	29638.20
616.15	28816.68
616.30	29310.53
616.46	29298.83
616.61	29123.29
616.76	28992.22
616.92	29259.04
617.07	29301.17
617.22	28875.19
617.37	28638.80
617.53	29268.40
617.68	28858.81
617.83	28659.86
617.99	28992.22
618.14	28933.70
618.29	28936.04
618.45	29064.77
618.60	28882.21
618.75	28657.52
618.90	28893.91
619.06	28687.95
619.21	28671.56
619.36	28676.24
619.51	28599.01
619.67	28776.89
619.82	28580.28
619.97	28900.94
620.12	28575.60
620.28	28716.03
620.43	28348.57
620.58	29067.11
620.73	29064.77
620.89	28730.08
621.04	29064.77
621.19	28636.45
621.34	28786.25
621.49	28493.68
621.65	28636.45
621.80	28709.01
621.95	28545.17
622.10	28610.71
622.25	28814.34
622.41	28716.03
622.56	28549.85
622.71	28725.39
622.86	28154.30
623.01	28393.04
623.16	28664.54
623.32	28411.76
623.47	28587.30
623.62	28187.07
623.77	28453.89
623.92	28507.72
624.07	28334.53
624.23	28191.75
624.38	28409.42
624.53	28390.70
624.68	28346.23
624.83	28439.85
624.98	28233.88
625.13	28151.96
625.29	28393.04
625.44	28432.83
625.59	27985.79
625.74	28086.43
625.89	27662.79
626.04	27854.72
626.19	28063.02
626.34	28276.01
626.49	27908.55
626.65	28044.30
626.80	28060.68
626.95	27838.33
627.10	27810.25
627.25	27871.10
627.40	27543.42
627.55	27803.22
627.70	27496.61
627.85	27946.00
628.00	28002.17
628.15	27941.32
628.30	27941.32
628.45	28025.57
628.60	27557.47
628.76	27967.06
628.91	28077.07
629.06	27765.78
629.21	27625.34
629.36	27686.20
629.51	27538.74
629.66	27480.23
629.81	27372.57
629.96	27594.92
630.11	27379.59
630.26	27377.25
630.41	27688.54
630.56	27384.27
630.71	27548.11
630.86	27461.51
631.01	27718.96
631.16	27838.33
631.31	27644.07
631.46	27611.30
631.61	27789.18
631.76	27903.87
631.91	27452.14
632.06	27477.89
632.21	27374.91
632.36	27239.15
632.51	27080.00
632.66	27398.31
632.81	27131.49
632.96	27377.25
633.10	27283.62
633.25	27473.21
633.40	27477.89
633.55	27435.76
633.70	27522.36
633.85	27173.62
634.00	27126.81
634.15	27297.67
634.30	26930.20
634.45	26614.23
634.60	27037.87
634.75	27096.38
634.90	27033.19
635.05	26878.71
635.19	27185.32
635.34	27171.28
635.49	27597.26
635.64	27000.42
635.79	26965.31
635.94	26785.09
636.09	26913.82
636.24	26796.79
636.39	26621.25
636.53	26939.57
636.68	26955.95
636.83	26913.82
636.98	27129.15
637.13	26867.01
637.28	27012.12
637.43	26553.38
637.57	27000.42
637.72	26665.72
637.87	26590.83
638.02	26668.06
638.17	26719.56
638.32	26515.93
638.46	26473.80
638.61	26459.76
638.76	26256.13
638.91	26356.77
639.06	26396.56
639.20	27005.10
639.35	26698.49
639.50	26471.46
639.65	27058.93
639.80	26682.11
639.94	26808.50
640.09	26118.04
640.24	26237.41
640.39	26445.71
640.54	26026.76
640.68	26164.85
640.83	26398.90
640.98	25949.52
641.13	26202.30
641.27	26766.37
641.42	26462.10
641.57	26232.72
641.72	26424.65
641.86	26214.00
642.01	26120.38
642.16	26267.83
642.31	26218.68
642.45	26206.98
642.60	25858.24
642.75	25886.32
642.90	25905.05
643.04	26001.01
643.19	26171.87
643.34	25975.27
643.48	25940.16
643.63	25912.07
643.78	26429.33
643.93	26101.65
644.07	26216.34
644.22	26305.28
644.37	26356.77
644.51	25823.13
644.66	25944.84
644.81	25933.14
644.95	26068.89
645.10	26284.22
645.25	25891.01
645.39	25818.45
645.54	25764.62
645.69	25495.46
645.83	25951.86
645.98	25891.01
646.13	26185.91
646.27	26132.08
646.42	25647.59
646.57	25757.60
646.71	25696.74
646.86	25640.57
647.00	25523.54
647.15	25841.85
647.30	25387.79
647.44	25488.43
647.59	25589.08
647.74	25591.42
647.88	25591.42
648.03	25624.18
648.17	26089.95
648.32	25745.89
648.47	25530.56
648.61	25736.53
648.76	25816.11
648.90	25612.48
649.05	25659.29
649.20	25479.07
649.34	25219.27
649.49	25605.46
649.63	25076.50
649.78	25436.94
649.92	25172.46
650.07	25465.03
650.21	25432.26
650.36	25373.75
650.51	24898.62
650.65	25275.45
650.80	25530.56
650.94	25340.98
651.09	25001.60
651.23	25486.09
651.38	25120.97
651.52	24950.11
651.67	25259.06
651.81	25462.69
651.96	25394.81
652.10	25193.53
652.25	25069.48
652.39	25296.51
652.54	25495.46
652.68	25408.86
652.83	25132.67
652.97	25331.62
653.12	25050.75
653.26	24882.24
653.41	25008.62
653.55	24673.93
653.70	24966.49
653.84	25025.01
653.99	25083.52
654.13	25039.05
654.27	24889.26
654.42	25139.69
654.56	24552.22
654.71	24978.20
654.85	24807.34
655.00	24994.58
655.14	25282.47
655.29	24840.11
655.43	24613.07
655.57	25252.04
655.72	25003.94
655.86	24470.30
656.01	25074.16
656.15	24823.72
656.30	24489.03
656.44	24540.52
656.58	24662.22
656.73	24833.08
656.87	24603.71
657.01	24102.84
657.16	24580.31
657.30	24669.25
657.45	24931.39
657.59	24898.62
657.73	24430.51
657.88	24624.78
658.02	24154.33
658.16	24168.37
658.31	24479.66
658.45	24360.30
658.60	24070.07
658.74	24322.85
658.88	24456.26
659.03	24238.59
659.17	24088.79
659.31	24297.10
659.46	24383.70
659.60	24313.48
659.74	23824.31
659.89	23819.63
660.03	24245.61
660.17	24294.76
660.32	24203.48
660.46	23819.63
660.60	23641.75
660.74	23983.47
660.89	24201.14
661.03	23679.20
661.17	24140.29
661.32	24025.60
661.46	24016.24
661.60	23889.85
661.74	23805.59
661.89	23850.06
662.03	24081.77
662.17	23697.92
662.31	23812.61
662.46	23747.08
662.60	23737.71
662.74	23665.16
662.88	23297.69
663.03	23211.09
663.17	23360.89
663.31	23225.14
663.45	23522.38
663.60	23278.97
663.74	23445.15
663.88	23161.94
664.02	23175.98
664.17	23168.96
664.31	23239.18
664.45	23143.22
664.59	23442.81
664.73	23178.33
664.88	23541.11
665.02	22841.29
665.16	23005.13
665.30	22981.72
665.44	23063.64
665.59	22810.86
665.73	22955.97
665.87	22813.20
666.01	23068.32
666.15	22787.46
666.29	22843.63
666.44	22747.67
666.58	22909.16
666.72	22824.90
666.86	22934.91
667.00	22717.24
667.14	22391.91
667.28	22501.91
667.43	22256.15
667.57	22506.59
667.71	22384.88
667.85	22176.58
667.99	22506.59
668.13	22527.66
668.27	22384.88
668.41	22541.70
668.56	22263.18
668.70	22436.38
668.84	22616.60
668.98	22314.67
669.12	22246.79
669.26	22286.58
669.40	22115.72
669.54	22195.30
669.68	22139.13
669.82	21912.10
669.96	21947.20
670.10	21858.26
670.25	21900.39
670.39	21855.92
670.53	21982.31
670.67	21680.38
670.81	22015.08
670.95	21900.39
671.09	21724.85
671.23	21797.41
671.37	21846.56
671.51	21469.73
671.65	21720.17
671.79	21319.94
671.93	21521.23
672.07	21322.28
672.21	21242.70
672.35	21228.66
672.49	21200.57
672.63	21067.16
672.77	21242.70
672.91	20889.28
673.05	21081.21
673.19	21163.12
673.33	20985.24
673.47	21209.93
673.61	21238.02
673.75	21039.08
673.89	20837.79
674.03	20666.93
674.17	20748.85
674.31	20709.06
674.45	20601.40
674.59	20821.41
674.73	20514.80
674.87	20908.01
675.01	20538.20
675.15	20664.59
675.29	20285.42
675.43	20486.71
675.56	20446.92
675.70	20582.67
675.84	20173.08
675.98	19932.00
676.12	20376.70
676.26	20589.69
676.40	20416.49
676.54	19964.77
676.68	20088.82
676.82	19697.95
676.96	20063.07
677.10	19899.23
677.23	19693.27
677.37	19407.72
677.51	19976.47
677.65	19667.52
677.79	19646.46
677.93	19232.18
678.07	19318.78
678.21	19295.38
678.34	19211.12
678.48	19433.47
678.62	19119.84
678.76	18981.74
678.90	18773.44
679.04	19487.30
679.18	18764.07
679.31	18941.96
679.45	19042.60
679.59	18799.18
679.73	18724.29
679.87	18946.64
680.00	18644.71
680.14	18600.24
680.28	18448.10
680.42	18387.25
680.56	18246.82
680.70	18527.68
680.83	18420.02
680.97	18415.34
681.11	18122.77
681.25	18321.71
681.39	18300.65
681.52	17858.29
681.66	18099.36
681.80	18001.06
681.94	18115.75
682.07	17862.97
682.21	17767.01
682.35	17626.57
682.49	17549.34
682.62	17558.70
682.76	17570.40
682.90	17872.33
683.04	17598.49
683.17	17392.52
683.31	17392.52
683.45	17390.18
683.59	17575.08
683.72	17565.72
683.86	17247.41
684.00	17020.38
684.13	17200.60
684.27	17069.53
684.41	16903.35
684.55	16847.18
684.68	16596.74
684.82	16769.94
684.96	16741.85
685.09	16723.13
685.23	16416.52
685.37	16788.66
685.50	16915.05
685.64	16491.41
685.78	16652.91
685.91	16706.74
686.05	16627.17
686.19	16475.03
686.32	16524.18
686.46	15964.79
686.60	16025.65
686.73	16168.42
686.87	15798.62
687.01	15878.19
687.14	16077.14
687.28	16016.29
687.42	15700.31
687.55	16037.35
687.69	15719.04
687.82	15712.02
687.96	15744.78
688.10	15566.90
688.23	15435.83
688.37	15590.31
688.50	15712.02
688.64	15496.69
688.78	15604.35
688.91	15281.36
689.05	15272.00
689.18	14958.36
689.32	15066.03
689.46	14953.68
689.59	15061.35
689.73	14920.92
689.86	15077.73
690.00	14595.58
690.13	14934.96
690.27	14939.64
690.41	14827.29
690.54	14728.99
690.68	14850.70
690.81	14672.82
690.95	14759.42
691.08	14590.90
691.22	14537.07
691.35	14415.36
691.49	14375.57
691.62	14588.56
691.76	14516.00
691.89	14026.83
692.03	14118.11
692.16	14033.85
692.30	13958.96
692.43	14141.52
692.57	13748.31
692.70	14033.85
692.84	13689.79
692.97	14001.08
693.11	14033.85
693.24	13724.90
693.38	13853.63
693.51	13516.59
693.65	13729.58
693.78	13439.36
693.92	13479.15
694.05	13355.10
694.19	13343.39
694.32	13373.82
694.45	13151.47
694.59	12908.05
694.72	13109.34
694.86	12966.57
694.99	12795.71
695.13	12968.91
695.26	12889.33
695.39	12938.48
695.53	12819.11
695.66	12542.93
695.80	12760.60
695.93	12699.75
696.07	12793.37
696.20	12634.21
696.33	12348.67
696.47	12517.18
696.60	12528.89
696.73	12147.38
696.87	12341.64
697.00	12325.26
697.14	12299.52
697.27	12081.85
697.40	12159.08
697.54	12004.61
697.67	11906.31
697.80	12215.26
697.94	11887.58
698.07	11655.87
698.21	11730.76
698.34	11730.76
698.47	11845.45
698.61	11700.34
698.74	11880.56
698.87	11878.22
699.01	11548.20
699.14	11653.53
699.27	11676.93
699.40	11393.73
699.54	11260.32
699.67	11531.82
699.80	11379.68
699.94	11197.12
700.07	11126.91
700.20	11075.42
700.34	10906.90
700.47	10934.98
700.60	10949.03
700.73	11176.06
700.87	10913.92
701.00	10712.63
701.13	10909.24
701.26	10773.49
701.40	10850.72
701.53	10834.34
701.66	10937.32
701.79	10459.85
701.93	10457.51
702.06	10429.43
702.19	10377.94
702.32	10281.97
702.46	10218.78
702.59	10230.48
702.72	10317.08
702.85	10118.14
702.99	10232.82
703.12	9975.36
703.25	10169.63
703.38	9970.68
703.51	10104.09
703.65	10026.86
703.78	10024.51
703.91	9998.77
704.04	10085.37
704.17	10080.69
704.31	9998.77
704.44	9692.16
704.57	9778.76
704.70	9626.62
704.83	9448.74
704.96	9427.68
705.10	9643.01
705.23	9523.64
>>>>>End Processed Spectral Data<<<<<
