SpectraSuite Data File
++++++++++++++++++++++++++++++++++++
Date: Fri Oct 18 13:58:43 GMT-05:00 2013
User: bianchi
Dark Spectrum Present: No
Reference Spectrum Present: No
Number of Sampled Component Spectra: 1
Spectrometers: USB2+H05261
Integration Time (usec): 50000 (USB2+H05261)
Spectra Averaged: 1 (USB2+H05261)
Boxcar Smoothing: 0 (USB2+H05261)
Correct for Electrical Dark: No (USB2+H05261)
Strobe/Lamp Enabled: No (USB2+H05261)
Correct for Detector Non-linearity: No (USB2+H05261)
Correct for Stray Light: No (USB2+H05261)
Number of Pixels in Processed Spectrum: 2048
>>>>>Begin Processed Spectral Data<<<<<
365.73	0.00
365.92	0.00
366.12	0.00
366.32	0.00
366.52	0.00
366.72	0.00
366.91	0.00
367.11	0.00
367.31	0.00
367.51	0.00
367.70	0.00
367.90	0.00
368.10	0.00
368.30	0.00
368.49	0.00
368.69	0.00
368.89	0.00
369.09	0.00
369.28	0.00
369.48	0.00
369.68	0.00
369.87	0.00
370.07	0.00
370.27	0.00
370.47	0.00
370.66	93.62
370.86	93.62
371.06	124.05
371.25	154.48
371.45	86.60
371.65	133.41
371.84	142.77
372.04	145.11
372.24	161.50
372.44	245.76
372.63	173.20
372.83	304.27
373.03	98.30
373.22	140.43
373.42	184.90
373.62	159.16
373.81	241.08
374.01	248.10
374.21	210.65
374.40	269.16
374.60	212.99
374.79	196.60
374.99	212.99
375.19	173.20
375.38	184.90
375.58	210.65
375.78	170.86
375.97	243.42
376.17	337.04
376.37	241.08
376.56	252.78
376.76	177.88
376.95	273.84
377.15	287.89
377.35	301.93
377.54	299.59
377.74	184.90
377.93	266.82
378.13	266.82
378.33	262.14
378.52	217.67
378.72	311.29
378.91	301.93
379.11	297.25
379.31	292.57
379.50	271.50
379.70	299.59
379.89	304.27
380.09	271.50
380.28	229.37
380.48	360.44
380.68	205.97
380.87	273.84
381.07	299.59
381.26	313.63
381.46	360.44
381.65	339.38
381.85	283.20
382.04	325.33
382.24	390.87
382.43	320.65
382.63	290.23
382.83	360.44
383.02	383.85
383.22	339.38
383.41	346.40
383.61	416.62
383.80	346.40
384.00	287.89
384.19	339.38
384.39	355.76
384.58	337.04
384.78	332.36
384.97	353.42
385.17	327.68
385.36	341.72
385.56	414.27
385.75	362.78
385.95	386.19
386.14	353.42
386.34	437.68
386.53	416.62
386.72	442.36
386.92	456.40
387.11	372.15
387.31	355.76
387.50	442.36
387.70	440.02
387.89	461.09
388.09	489.17
388.28	458.74
388.48	369.80
388.67	500.87
388.86	414.27
389.06	475.13
389.25	451.72
389.45	449.38
389.64	444.70
389.84	458.74
390.03	423.64
390.22	496.19
390.42	521.94
390.61	461.09
390.81	393.21
391.00	526.62
391.19	505.56
391.39	470.45
391.58	533.64
391.78	514.92
391.97	564.07
392.16	465.77
392.36	505.56
392.55	578.11
392.75	507.90
392.94	524.28
393.13	613.22
393.33	521.94
393.52	514.92
393.71	571.09
393.91	613.22
394.10	517.26
394.29	547.69
394.49	538.32
394.68	608.54
394.88	655.35
395.07	690.46
395.26	491.51
395.46	638.97
395.65	589.82
395.84	608.54
396.04	699.82
396.23	568.75
396.42	592.16
396.62	582.79
396.81	650.67
397.00	667.05
397.19	585.13
397.39	662.37
397.58	723.23
397.77	592.16
397.97	690.46
398.16	667.05
398.35	655.35
398.55	662.37
398.74	770.04
398.93	753.65
399.12	690.46
399.32	732.59
399.51	723.23
399.70	711.52
399.90	711.52
400.09	777.06
400.28	744.29
400.47	767.70
400.67	760.67
400.86	697.48
401.05	734.93
401.24	695.14
401.44	755.99
401.63	713.86
401.82	828.55
402.01	791.10
402.21	840.25
402.40	716.20
402.59	912.81
402.78	863.66
402.97	866.00
403.17	875.36
403.36	847.27
403.55	870.68
403.74	851.96
403.93	875.36
404.13	887.06
404.32	919.83
404.51	940.90
404.70	926.85
404.89	884.72
405.09	952.60
405.28	992.39
405.47	849.61
405.66	919.83
405.85	990.05
406.05	908.13
406.24	1027.50
406.43	1015.79
406.62	1006.43
406.81	1135.16
407.00	1008.77
407.20	997.07
407.39	1020.47
407.58	1064.94
407.77	1062.60
407.96	1116.44
408.15	1144.52
408.34	1083.67
408.54	1067.28
408.73	971.32
408.92	1062.60
409.11	1196.01
409.30	1214.74
409.49	1104.73
409.68	1114.10
409.87	1165.59
410.07	1207.72
410.26	1132.82
410.45	1102.39
410.64	1163.25
410.83	1179.63
411.02	1130.48
411.21	1210.06
411.40	1256.87
411.59	1221.76
411.78	1256.87
411.98	1221.76
412.17	1357.51
412.36	1256.87
412.55	1315.38
412.74	1270.91
412.93	1437.09
413.12	1362.19
413.31	1355.17
413.50	1474.54
413.69	1355.17
413.88	1336.45
414.07	1399.64
414.26	1387.94
414.45	1411.34
414.64	1493.26
414.83	1416.02
415.02	1467.52
415.22	1519.01
415.41	1565.82
415.60	1540.07
415.79	1526.03
415.98	1563.48
416.17	1607.95
416.36	1682.85
416.55	1547.09
416.74	1600.93
416.93	1659.44
417.12	1722.63
417.31	1636.03
417.50	1617.31
417.69	1741.36
417.88	1778.81
418.07	1715.61
418.26	1706.25
418.45	1741.36
418.64	1720.29
418.83	1811.57
419.02	1710.93
419.21	1792.85
419.39	1851.36
419.58	1846.68
419.77	1797.53
419.96	1741.36
420.15	1783.49
420.34	1888.81
420.53	1856.04
420.72	1865.41
420.91	1872.43
421.10	1968.39
421.29	1909.88
421.48	1860.73
421.67	1947.33
421.86	1914.56
422.05	2026.90
422.24	2029.24
422.43	1961.37
422.61	1944.99
422.80	2050.31
422.99	1994.14
423.18	1975.41
423.37	1949.67
423.56	2033.93
423.75	1914.56
423.94	1781.15
424.13	1811.57
424.32	1893.49
424.50	2071.37
424.69	1987.11
424.88	2139.25
425.07	1935.62
425.26	1973.07
425.45	2022.22
425.64	2050.31
425.83	1980.09
426.01	1956.69
426.20	1954.35
426.39	2008.18
426.58	1996.48
426.77	2064.35
426.96	2024.56
427.15	2073.71
427.33	2092.44
427.52	2050.31
427.71	2132.23
427.90	2155.63
428.09	2150.95
428.28	2218.83
428.46	2186.06
428.65	2153.29
428.84	2160.31
429.03	2122.87
429.22	2165.00
429.40	2303.09
429.59	2207.13
429.78	2188.40
429.97	2155.63
430.16	2256.28
430.34	2303.09
430.53	2277.34
430.72	2314.79
430.91	2279.68
431.10	2207.13
431.28	2368.62
431.47	2382.67
431.66	2427.14
431.85	2235.21
432.03	2373.30
432.22	2511.39
432.41	2401.39
432.60	2443.52
432.79	2361.60
432.97	2406.07
433.16	2509.05
433.35	2473.95
433.54	2450.54
433.72	2553.52
433.91	2476.29
434.10	2434.16
434.28	2452.88
434.47	2525.44
434.66	2523.10
434.85	2567.57
435.03	2616.72
435.22	2569.91
435.41	2644.81
435.59	2633.10
435.78	2612.04
435.97	2691.62
436.16	2670.55
436.34	2649.49
436.53	2700.98
436.72	2705.66
436.90	2640.12
437.09	2740.77
437.28	2644.81
437.46	2761.83
437.65	2710.34
437.84	2729.06
438.02	2750.13
438.21	2785.24
438.40	2825.03
438.58	2857.79
438.77	2768.85
438.96	2846.09
439.14	2815.66
439.33	2911.63
439.52	2974.82
439.70	2909.29
439.89	2904.60
440.08	3098.87
440.26	3152.70
440.45	3005.25
440.63	3117.59
440.82	3152.70
441.01	3082.49
441.19	3190.15
441.38	3251.00
441.57	3117.59
441.75	3138.66
441.94	3410.16
442.12	3201.85
442.31	3351.65
442.50	3398.46
442.68	3274.41
442.87	3201.85
443.05	3370.37
443.24	3314.20
443.43	3379.73
443.61	3365.69
443.80	3377.39
443.98	3318.88
444.17	3173.77
444.35	3440.59
444.54	3372.71
444.73	3447.61
444.91	3365.69
445.10	3342.28
445.28	3351.65
445.47	3356.33
445.65	3396.12
445.84	3428.88
446.02	3492.08
446.21	3375.05
446.39	3403.14
446.58	3630.17
446.77	3454.63
446.95	3442.93
447.14	3365.69
447.32	3520.17
447.51	3438.25
447.69	3527.19
447.88	3517.83
448.06	3634.85
448.25	3459.31
448.43	3524.85
448.62	3480.38
448.80	3634.85
448.99	3618.47
449.17	3506.12
449.36	3597.40
449.54	3721.45
449.73	3674.64
449.91	3648.90
450.10	3597.40
450.28	3740.18
450.46	3770.60
450.65	3611.45
450.83	3810.39
451.02	3726.13
451.20	3819.75
451.39	3709.75
451.57	3749.54
451.76	3737.84
451.94	3761.24
452.13	3880.61
452.31	3822.09
452.49	3712.09
452.68	3784.65
452.86	4004.66
453.05	3885.29
453.23	3768.26
453.42	3873.59
453.60	3833.80
453.78	3822.09
453.97	3878.27
454.15	3887.63
454.34	3922.74
454.52	4093.60
454.70	4028.06
454.89	4009.34
455.07	4044.45
455.26	4088.92
455.44	4058.49
455.62	4016.36
455.81	4028.06
455.99	4234.03
456.17	4084.23
456.36	4072.53
456.54	4100.62
456.73	4315.95
456.91	4353.40
457.09	4236.37
457.28	4173.18
457.46	4241.05
457.64	4477.44
457.83	4393.19
458.01	4315.95
458.19	4390.84
458.38	4461.06
458.56	4428.29
458.74	4461.06
458.93	4610.86
459.11	4465.74
459.29	4482.13
459.48	4447.02
459.66	4402.55
459.84	4454.04
460.03	4690.43
460.21	4557.02
460.39	4587.45
460.57	4468.08
460.76	4503.19
460.94	4578.09
461.12	4655.33
461.31	4631.92
461.49	4545.32
461.67	4545.32
461.85	4681.07
462.04	4706.82
462.22	4697.46
462.40	4678.73
462.59	4711.50
462.77	4765.33
462.95	4753.63
463.13	4718.52
463.32	4629.58
463.50	4837.89
463.68	4887.04
463.86	4865.97
464.05	4760.65
464.23	4800.44
464.41	4730.22
464.59	4573.41
464.78	4901.08
464.96	4947.89
465.14	4851.93
465.32	4959.60
465.50	4870.65
465.69	4856.61
465.87	4760.65
466.05	4770.01
466.23	4943.21
466.41	4873.00
466.60	5097.69
466.78	4933.85
466.96	4964.28
467.14	4997.04
467.32	4924.49
467.51	5088.32
467.69	4898.74
467.87	5203.01
468.05	5172.58
468.23	5102.37
468.41	5048.54
468.60	5135.14
468.78	5282.59
468.96	5212.37
469.14	5294.29
469.32	5238.12
469.50	5034.49
469.69	5317.70
469.87	5432.38
470.05	5439.40
470.23	5444.09
470.41	5315.36
470.59	5394.93
470.77	5341.10
470.95	5289.61
471.14	5465.15
471.32	5399.62
471.50	5607.92
471.68	5446.43
471.86	5430.04
472.04	5722.61
472.22	5584.52
472.40	5636.01
472.58	5701.54
472.77	5790.49
472.95	5563.45
473.13	5872.40
473.31	5694.52
473.49	5818.57
473.67	5916.87
473.85	5668.78
474.03	5891.13
474.21	6026.88
474.39	6022.20
474.57	5982.41
474.75	6221.14
474.93	6359.24
475.12	6057.31
475.30	6258.59
475.48	6155.61
475.66	6401.37
475.84	6305.40
476.02	6331.15
476.20	6230.51
476.38	6380.30
476.56	6553.50
476.74	6345.19
476.92	6527.75
477.10	6590.95
477.28	6649.46
477.46	6569.88
477.64	6576.91
477.82	6722.02
478.00	6787.55
478.18	6984.16
478.36	6913.94
478.54	6892.88
478.72	7103.53
478.90	7087.14
479.08	7131.61
479.26	7201.83
479.44	7503.76
479.62	7386.73
479.80	7234.60
479.98	7382.05
480.16	7258.00
480.34	7410.14
480.52	7449.93
480.70	7489.71
480.88	7438.22
481.06	7676.96
481.24	7749.51
481.41	7712.07
481.59	7885.26
481.77	7918.03
481.95	8009.31
482.13	8053.78
482.31	8063.15
482.49	8114.64
482.67	7999.95
482.85	8210.60
483.03	8573.38
483.21	8465.72
483.39	8498.49
483.57	8437.63
483.74	8636.58
483.92	8762.97
484.10	8664.66
484.28	8940.85
484.46	8901.06
484.64	9034.47
484.82	8854.25
485.00	8702.11
485.18	9125.75
485.35	9210.01
485.53	9125.75
485.71	9245.12
485.89	9596.20
486.07	9418.32
486.25	9245.12
486.43	9544.70
486.61	9603.22
486.78	9715.56
486.96	10029.20
487.14	10010.47
487.32	9898.13
487.50	10050.26
487.68	9778.76
487.85	10148.56
488.03	10553.48
488.21	10738.38
488.39	10380.28
488.57	10710.29
488.75	10773.49
488.92	10623.69
489.10	10965.41
489.28	11033.29
489.46	11098.82
489.64	10920.94
489.81	11239.25
489.99	11215.85
490.17	11143.29
490.35	11363.30
490.53	11489.69
490.70	11641.82
490.88	11414.79
491.06	11655.87
491.24	11742.47
491.41	11796.30
491.59	11817.36
491.77	11700.34
491.95	12060.78
492.13	12046.74
492.30	12156.74
492.48	12004.61
492.66	12224.62
492.84	12290.15
493.01	12753.58
493.19	12404.84
493.37	12559.31
493.54	12599.10
493.72	12744.22
493.90	12458.67
494.08	12968.91
494.25	13022.74
494.43	13004.02
494.61	12917.42
494.79	13291.90
494.96	13193.60
495.14	13261.48
495.32	13523.62
495.49	13563.40
495.67	13654.69
495.85	13767.03
496.02	13483.83
496.20	13659.37
496.38	13659.37
496.55	13816.18
496.73	14209.39
496.91	13970.66
497.09	14293.65
497.26	14331.10
497.44	14359.19
497.62	14204.71
497.79	14548.77
497.97	14424.72
498.14	14663.46
498.32	14670.48
498.50	14803.89
498.67	15084.75
498.85	14614.30
499.03	14815.59
499.20	14958.36
499.38	14932.62
499.56	15002.83
499.73	14808.57
499.91	15037.94
500.08	15218.16
500.26	15269.66
500.44	15211.14
500.61	15276.68
500.79	15524.77
500.97	15524.77
501.14	15676.91
501.32	15887.56
501.49	15609.03
501.67	15616.05
501.84	15934.37
502.02	15768.19
502.20	16065.44
502.37	15974.16
502.55	15913.30
502.72	16313.53
502.90	16177.78
503.07	16058.42
503.25	16276.09
503.43	16170.76
503.60	16416.52
503.78	16475.03
503.95	16566.31
504.13	16561.63
504.30	16313.53
504.48	16477.37
504.65	16428.22
504.83	16823.77
505.01	16915.05
505.18	17090.59
505.36	17015.69
505.53	17055.48
505.71	16978.25
505.88	17186.55
506.06	17259.11
506.23	17228.68
506.41	17277.83
506.58	17216.98
506.76	16954.84
506.93	17200.60
507.11	17245.07
507.28	17401.88
507.46	17245.07
507.63	17647.64
507.81	17675.73
507.98	17509.55
508.16	17664.02
508.33	17750.62
508.50	17568.06
508.68	17750.62
508.85	17858.29
509.03	17898.08
509.20	17905.10
509.38	18307.67
509.55	18068.94
509.73	18200.01
509.90	18382.57
510.08	18033.83
510.25	18324.05
510.42	18391.93
510.60	18401.29
510.77	18319.37
510.95	18403.63
511.12	18448.10
511.30	18750.03
511.47	18450.44
511.64	18665.77
511.82	18799.18
511.99	18792.16
512.17	19080.05
512.34	19190.05
512.51	19040.26
512.69	18986.43
512.86	19260.27
513.04	19035.58
513.21	19264.95
513.38	19536.45
513.56	19332.82
513.73	19091.75
513.90	19541.13
514.08	19122.18
514.25	19740.08
514.43	19477.94
514.60	19482.62
514.77	19740.08
514.95	19737.74
515.12	19630.07
515.29	19569.22
515.47	19892.21
515.64	19903.92
515.81	19765.82
515.99	19892.21
516.16	20215.21
516.33	19939.02
516.51	19995.20
516.68	19838.38
516.85	19995.20
517.03	20341.60
517.20	20196.48
517.37	20222.23
517.54	20615.44
517.72	20084.14
517.89	20393.09
518.06	20388.41
518.24	20446.92
518.41	20570.97
518.58	20669.27
518.75	20594.37
518.93	20788.64
519.10	20709.06
519.27	20774.60
519.45	20788.64
519.62	20826.09
519.79	20872.90
519.96	21076.52
520.14	20971.20
520.31	21135.04
520.48	21404.20
520.65	21039.08
520.83	21240.36
521.00	21390.16
521.17	21125.68
521.34	21233.34
521.52	21619.53
521.69	21664.00
521.86	21525.91
522.03	21898.05
522.20	21575.06
522.38	21645.27
522.55	21415.90
522.72	21891.03
522.89	21710.81
523.07	22113.38
523.24	21912.10
523.41	22153.17
523.58	21996.35
523.75	21811.45
523.92	21621.87
524.10	22164.87
524.27	21940.18
524.44	22494.89
524.61	22258.49
524.78	22279.56
524.96	22246.79
525.13	22146.15
525.30	22225.73
525.47	22515.95
525.64	21975.29
525.81	22387.22
525.98	22642.34
526.16	22326.37
526.33	22347.44
526.50	22855.33
526.67	22656.39
526.84	22745.33
527.01	22522.98
527.18	22972.36
527.36	22663.41
527.53	22979.38
527.70	23218.11
527.87	23077.68
528.04	23016.83
528.21	23260.24
528.38	23047.26
528.55	23204.07
528.72	22895.12
528.89	23321.10
529.07	23194.71
529.24	23239.18
529.41	23475.57
529.58	23077.68
529.75	23215.77
529.92	23379.61
530.09	23300.03
530.26	23447.49
530.43	23447.49
530.60	23318.76
530.77	23129.17
530.94	23536.43
531.11	23496.64
531.28	23597.28
531.46	23531.75
531.63	23957.72
531.80	23700.26
531.97	24095.82
532.14	23733.03
532.31	23927.30
532.48	23885.17
532.65	24109.86
532.82	23836.02
532.99	23866.44
533.16	23943.68
533.33	24486.68
533.50	24226.89
533.67	24156.67
533.84	24229.23
534.01	24292.42
534.18	24116.88
534.35	24414.13
534.52	24154.33
534.69	24514.77
534.86	24622.44
535.03	24325.19
535.20	24652.86
535.37	24704.35
535.54	24631.80
535.71	24521.79
535.88	24730.10
536.05	24727.76
536.22	24748.82
536.38	24547.54
536.55	24926.71
536.72	24723.08
536.89	24584.99
537.06	24753.51
537.23	24924.36
537.40	24851.81
537.57	25078.84
537.74	25032.03
537.91	25193.53
538.08	25109.27
538.25	24900.96
538.42	25003.94
538.59	25263.74
538.75	25055.43
538.92	25195.87
539.09	25357.36
539.26	25212.25
539.43	25469.71
539.60	25202.89
539.77	25249.70
539.94	25394.81
540.11	25216.93
540.28	25174.80
540.44	25364.39
540.61	25263.74
540.78	25357.36
540.95	25296.51
541.12	25556.31
541.29	25118.63
541.46	25392.47
541.62	25530.56
541.79	25467.37
541.96	25486.09
542.13	25497.80
542.30	25518.86
542.47	25935.48
542.63	26115.70
542.80	25933.14
542.97	25972.92
543.14	26129.74
543.31	26178.89
543.48	26017.40
543.64	26405.92
543.81	26412.95
543.98	26492.52
544.15	26029.10
544.32	26703.17
544.48	26286.56
544.65	26223.36
544.82	26335.71
544.99	26176.55
545.16	26377.84
545.32	26352.09
545.49	26637.64
545.66	26555.72
545.83	26885.73
546.00	26686.79
546.16	26473.80
546.33	26377.84
546.50	25956.54
546.67	26679.77
546.83	26410.60
547.00	26714.87
547.17	26616.57
547.34	26679.77
547.50	26747.64
547.67	26918.50
547.84	26962.97
548.00	26911.48
548.17	26752.32
548.34	27056.59
548.51	27173.62
548.67	26906.80
548.84	27330.44
549.01	27080.00
549.18	27103.40
549.34	26761.69
549.51	26841.26
549.68	27360.86
549.84	26799.13
550.01	27402.99
550.18	27021.48
550.34	27452.14
550.51	27513.00
550.68	27831.31
550.84	27278.94
551.01	27442.78
551.18	26932.54
551.34	27122.13
551.51	26838.92
551.68	27388.95
551.84	27342.14
552.01	27442.78
552.18	27473.21
552.34	26993.40
552.51	27810.25
552.68	27391.29
552.84	27669.81
553.01	27356.18
553.18	27594.92
553.34	27704.92
553.51	27812.59
553.67	28175.37
553.84	28095.79
554.01	27625.34
554.17	27770.46
554.34	27770.46
554.51	27688.54
554.67	27922.59
554.84	27604.28
555.00	27873.44
555.17	27828.97
555.33	27775.14
555.50	27765.78
555.67	27751.73
555.83	28053.66
556.00	27974.08
556.16	28208.14
556.33	27845.35
556.50	27917.91
556.66	28449.21
556.83	28222.18
556.99	28243.24
557.16	28154.30
557.32	28533.47
557.49	28542.83
557.65	28343.89
557.82	28208.14
557.98	28383.68
558.15	28393.04
558.32	28528.79
558.48	28088.77
558.65	28514.75
558.81	28524.11
558.98	28364.95
559.14	28261.97
559.31	27803.22
559.47	28189.41
559.64	28643.48
559.80	28374.31
559.97	28634.11
560.13	28259.63
560.30	28624.75
560.46	28549.85
560.63	28407.08
560.79	28411.76
560.96	28631.77
561.12	28591.98
561.29	28552.20
561.45	28620.07
561.61	28856.46
561.78	28666.88
561.94	28903.28
562.11	29036.69
562.27	29032.00
562.44	28844.76
562.60	28545.17
562.77	28573.26
562.93	28673.90
563.10	29146.69
563.26	28830.72
563.42	28779.23
563.59	28704.33
563.75	28961.79
563.92	28563.90
564.08	28769.86
564.24	28474.96
564.41	28823.70
564.57	28938.38
564.74	28814.34
564.90	29429.90
565.07	29207.55
565.23	29125.63
565.39	28793.27
565.56	29369.04
565.72	28723.05
565.88	29359.68
566.05	29013.28
566.21	29226.27
566.38	28978.17
566.54	29083.50
566.70	29266.06
566.87	29104.56
567.03	29010.94
567.19	29383.09
567.36	29230.95
567.52	28699.65
567.68	29163.08
567.85	28943.06
568.01	28676.24
568.17	28961.79
568.34	29092.86
568.50	29085.84
568.66	29134.99
568.83	29392.45
568.99	29118.60
569.15	28924.34
569.32	28999.24
569.48	28910.30
569.64	29457.98
569.81	29357.34
569.97	29233.29
570.13	29163.08
570.30	29483.73
570.46	29301.17
570.62	29331.59
570.78	29392.45
570.95	29127.97
571.11	29254.36
571.27	29099.88
571.43	28905.62
571.60	29074.13
571.76	29027.32
571.92	28996.90
572.09	28863.49
572.25	29507.13
572.41	29125.63
572.57	29621.82
572.74	29415.85
572.90	29116.26
573.06	29116.26
573.22	29132.65
573.38	29298.83
573.55	29237.97
573.71	29823.11
573.87	29537.56
574.03	29422.87
574.20	29383.09
574.36	29184.14
574.52	29235.63
574.68	29221.59
574.84	29324.57
575.01	29252.02
575.17	29600.76
575.33	29153.71
575.49	29195.84
575.65	29734.17
575.82	29319.89
575.98	29738.85
576.14	29432.24
576.30	29118.60
576.46	29139.67
576.62	29242.65
576.79	29263.72
576.95	29273.08
577.11	29593.73
577.27	29542.24
577.43	29593.73
577.59	29872.26
577.75	29504.79
577.92	28840.08
578.08	29401.81
578.24	29298.83
578.40	29575.01
578.56	29483.73
578.72	29790.34
578.88	29333.93
579.04	29930.77
579.21	29790.34
579.37	29905.02
579.53	29504.79
579.69	29675.65
579.85	29324.57
580.01	29240.31
580.17	29504.79
580.33	29839.49
580.49	29685.01
580.65	29586.71
580.82	29582.03
580.98	29745.87
581.14	29785.66
581.30	29654.59
581.46	29865.24
581.62	29511.81
581.78	29443.94
581.94	29481.39
582.10	29617.14
582.26	29598.41
582.42	29530.54
582.58	29717.78
582.74	29769.27
582.90	29603.10
583.06	29509.47
583.22	29773.95
583.38	29607.78
583.54	29380.74
583.70	29734.17
583.86	29511.81
584.02	29476.71
584.18	29701.40
584.34	29986.94
584.50	29579.69
584.66	29549.26
584.82	29511.81
584.98	29848.85
585.14	29429.90
585.30	29366.70
585.46	29968.22
585.62	29474.37
585.78	29642.88
585.94	29404.15
586.10	29764.59
586.26	29668.63
586.42	30213.98
586.58	29689.70
586.74	29584.37
586.90	29326.91
587.06	29556.28
587.22	29837.15
587.38	29425.22
587.54	29905.02
587.70	30022.05
587.86	30216.32
588.02	29954.18
588.18	30340.36
588.34	29975.24
588.49	29998.65
588.65	29991.62
588.81	29312.87
588.97	29860.55
589.13	29656.93
589.29	29429.90
589.45	30125.04
589.61	29921.41
589.77	30359.09
589.93	30087.59
590.08	30464.41
590.24	30010.35
590.40	29972.90
590.56	29876.94
590.72	29797.36
590.88	29907.37
591.04	29928.43
591.20	30024.39
591.35	30057.16
591.51	30110.99
591.67	29993.97
591.83	30211.64
591.99	30143.76
592.15	30033.75
592.31	29883.96
592.46	30162.48
592.62	29769.27
592.78	29762.25
592.94	30036.09
593.10	30043.12
593.26	30078.22
593.41	30178.87
593.57	30361.43
593.73	30286.53
593.89	30410.58
594.05	30281.85
594.20	29860.55
594.36	29933.11
594.52	30171.85
594.68	30015.03
594.84	29975.24
594.99	29731.83
595.15	30398.88
595.31	30574.42
595.47	29867.58
595.62	30345.05
595.78	30281.85
595.94	30237.38
596.10	30185.89
596.25	30326.32
596.41	29958.86
596.57	29914.39
596.73	30192.91
596.88	30141.42
597.04	30431.65
597.20	30628.25
597.36	30288.87
597.51	30574.42
597.67	30319.30
597.83	29799.70
597.99	30405.90
598.14	30483.14
598.30	30178.87
598.46	30368.45
598.61	30045.46
598.77	30450.37
598.93	30684.42
599.09	30061.84
599.24	30536.97
599.40	30445.69
599.56	30340.36
599.71	30368.45
599.87	30480.80
600.03	30188.23
600.18	30515.90
600.34	30305.26
600.50	30155.46
600.65	30167.16
600.81	30396.54
600.97	30359.09
601.12	30740.60
601.28	30731.23
601.44	30494.84
601.59	30054.82
601.75	30246.74
601.91	30621.23
602.06	30249.08
602.22	30235.04
602.37	30361.43
602.53	30485.48
602.69	30742.94
602.84	30167.16
603.00	30396.54
603.16	30675.06
603.31	30033.75
603.47	30185.89
603.62	30204.61
603.78	30199.93
603.94	30019.71
604.09	30146.10
604.25	29998.65
604.40	30494.84
604.56	30075.88
604.71	30101.63
604.87	30204.61
605.03	30284.19
605.18	30288.87
605.34	30614.21
605.49	30010.35
605.65	29958.86
605.80	29921.41
605.96	30438.67
606.12	30415.26
606.27	30181.21
606.43	30008.01
606.58	30085.25
606.74	30300.58
606.89	30398.88
607.05	30012.69
607.20	30389.52
607.36	30333.34
607.51	30181.21
607.67	30036.09
607.82	30092.27
607.98	30169.51
608.13	30183.55
608.29	29940.13
608.44	29975.24
608.60	29991.62
608.75	30127.38
608.91	30096.95
609.06	30061.84
609.22	30267.81
609.37	30113.33
609.53	30066.52
609.68	29888.64
609.84	30071.20
609.99	29483.73
610.15	30167.16
610.30	30085.25
610.46	29659.27
610.61	30183.55
610.76	30103.97
610.92	29982.26
611.07	29823.11
611.23	29886.30
611.38	29907.37
611.54	29682.67
611.69	29844.17
611.84	30003.33
612.00	29780.98
612.15	30050.14
612.31	29993.97
612.46	29752.89
612.62	29745.87
612.77	30122.69
612.92	30160.14
613.08	29675.65
613.23	29717.78
613.39	29666.29
613.54	29483.73
613.69	29507.13
613.85	29579.69
614.00	29331.59
614.15	29642.88
614.31	29921.41
614.46	29682.67
614.62	29933.11
614.77	29937.79
614.92	29628.84
615.08	29476.71
615.23	29799.70
615.38	29804.38
615.54	29708.42
615.69	29308.19
615.84	29493.09
616.00	29593.73
616.15	29509.47
616.30	29355.00
616.46	29610.12
616.61	29663.95
616.76	29633.52
616.92	29443.94
617.07	29682.67
617.22	29560.97
617.37	29308.19
617.53	29493.09
617.68	29338.62
617.83	29284.78
617.99	29385.43
618.14	29296.49
618.29	29411.17
618.45	29567.99
618.60	29303.51
618.75	29263.72
618.90	29340.96
619.06	29376.06
619.21	29057.75
619.36	29036.69
619.51	28933.70
619.67	28781.57
619.82	29109.24
619.97	29357.34
620.12	29142.01
620.28	28744.12
620.43	29174.78
620.58	29125.63
620.73	29282.44
620.89	29387.77
621.04	29338.62
621.19	29404.15
621.34	29333.93
621.49	29156.05
621.65	28837.74
621.80	28924.34
621.95	28573.26
622.10	28978.17
622.25	28781.57
622.41	28891.57
622.56	28999.24
622.71	28912.64
622.86	29022.64
623.01	29015.62
623.16	28676.24
623.32	28882.21
623.47	29006.26
623.62	28781.57
623.77	28641.14
623.92	28804.97
624.07	28718.37
624.23	28788.59
624.38	28648.16
624.53	29010.94
624.68	28875.19
624.83	28687.95
624.98	28863.49
625.13	28826.04
625.29	28727.74
625.44	28580.28
625.59	28666.88
625.74	28697.31
625.89	28322.82
626.04	28772.21
626.19	28503.04
626.34	28376.66
626.49	28009.19
626.65	28851.78
626.80	28285.37
626.95	28762.84
627.10	28236.22
627.25	28556.88
627.40	27864.08
627.55	28203.46
627.70	28582.62
627.85	28095.79
628.00	28095.79
628.15	28044.30
628.30	27693.22
628.45	28280.69
628.60	28063.02
628.76	28463.25
628.91	28273.67
629.06	28266.65
629.21	28325.16
629.36	28149.62
629.51	28456.23
629.66	28016.21
629.81	27707.26
629.96	28261.97
630.11	27833.65
630.26	27810.25
630.41	27639.39
630.56	27950.68
630.71	28149.62
630.86	27828.97
631.01	28222.18
631.16	28070.04
631.31	27831.31
631.46	27716.62
631.61	28041.96
631.76	27957.70
631.91	27850.03
632.06	27730.67
632.21	27669.81
632.36	27646.41
632.51	27529.38
632.66	27538.74
632.81	27903.87
632.96	27653.43
633.10	27765.78
633.25	27515.34
633.40	27768.12
633.55	27599.60
633.70	27564.49
633.85	27491.93
634.00	27346.82
634.15	27803.22
634.30	27473.21
634.45	27367.88
634.60	27431.08
634.75	27412.35
634.90	27412.35
635.05	27536.40
635.19	27576.19
635.34	27782.16
635.49	27564.49
635.64	27367.88
635.79	27562.15
635.94	27239.15
636.09	27454.48
636.24	27201.71
636.39	27138.51
636.53	27101.06
636.68	27342.14
636.83	27414.69
636.98	27353.84
637.13	27108.08
637.28	27412.35
637.43	27227.45
637.57	27555.13
637.72	27101.06
637.87	27110.43
638.02	27171.28
638.17	27082.34
638.32	27278.94
638.46	27281.28
638.61	27218.09
638.76	26731.26
638.91	26899.78
639.06	26843.60
639.20	27271.92
639.35	27213.41
639.50	26979.36
639.65	27241.50
639.80	27080.00
639.94	27056.59
640.09	27087.02
640.24	26789.77
640.39	26927.86
640.54	26691.47
640.68	26859.99
640.83	27030.85
640.98	26511.25
641.13	26462.10
641.27	26647.00
641.42	26581.46
641.57	26827.22
641.72	26623.59
641.86	26712.53
642.01	26951.27
642.16	26668.06
642.31	26436.35
642.45	26616.57
642.60	26455.08
642.75	26008.03
642.90	26162.51
643.04	27005.10
643.19	26331.03
643.34	26228.04
643.48	26405.92
643.63	26588.49
643.78	26499.55
643.93	26452.73
644.07	26492.52
644.22	26658.70
644.37	26544.02
644.51	26607.21
644.66	26410.60
644.81	26178.89
644.95	26202.30
645.10	25769.30
645.25	26288.90
645.39	26061.87
645.54	26527.63
645.69	26286.56
645.83	26441.03
645.98	26710.19
646.13	26185.91
646.27	26307.62
646.42	26108.68
646.57	26111.02
646.71	26529.97
646.86	26108.68
647.00	26284.22
647.15	26019.74
647.30	25989.31
647.44	25832.49
647.59	25905.05
647.74	25839.51
647.88	26040.80
648.03	25879.30
648.17	26256.13
648.32	26366.13
648.47	26122.72
648.61	25661.63
648.76	25970.58
648.90	25834.83
649.05	26190.59
649.20	25612.48
649.34	25841.85
649.49	25675.68
649.63	26092.29
649.78	25394.81
649.92	25656.95
650.07	26073.57
650.21	25729.51
650.36	25668.66
650.51	25516.52
650.65	25752.91
650.80	25699.08
650.94	25673.34
651.09	25958.88
651.23	25568.01
651.38	25458.01
651.52	25523.54
651.67	25434.60
651.81	25350.34
651.96	25385.45
652.10	25432.26
652.25	25710.78
652.39	25687.38
652.54	25425.24
652.68	25589.08
652.83	25502.48
652.97	25748.23
653.12	25312.89
653.26	25071.82
653.41	25598.44
653.55	25142.03
653.70	25333.96
653.84	25284.81
653.99	25235.66
654.13	25474.39
654.27	25656.95
654.42	25294.17
654.56	24945.43
654.71	25263.74
654.85	25186.50
655.00	25586.74
655.14	25319.92
655.29	25195.87
655.43	25383.11
655.57	25048.41
655.72	25458.01
655.86	25252.04
656.01	25186.50
656.15	25081.18
656.30	25120.97
656.44	24907.98
656.58	24706.70
656.73	24929.05
656.87	25069.48
657.01	24762.87
657.16	25273.10
657.30	25191.19
657.45	24968.84
657.59	25015.65
657.73	24922.02
657.88	24816.70
658.02	25268.42
658.16	24561.58
658.31	24769.89
658.45	24395.40
658.60	24545.20
658.74	24285.40
658.88	24809.68
659.03	24961.81
659.17	24788.61
659.31	24725.42
659.46	24540.52
659.60	24407.11
659.74	24498.39
659.89	24198.80
660.03	24332.21
660.17	24313.48
660.32	24261.99
660.46	24226.89
660.60	24081.77
660.74	24032.62
660.89	24297.10
661.03	24056.03
661.17	24577.97
661.32	24334.55
661.46	24372.00
661.60	24247.95
661.74	24357.96
661.89	24233.91
662.03	24283.06
662.17	24058.37
662.31	24140.29
662.46	24027.94
662.60	24079.43
662.74	24067.73
662.88	23899.21
663.03	23662.82
663.17	23501.32
663.31	23747.08
663.45	23637.07
663.60	23798.57
663.74	23522.38
663.88	23714.31
664.02	24016.24
664.17	23541.11
664.31	23517.70
664.45	23473.23
664.59	23365.57
664.73	23592.60
664.88	23236.84
665.02	22871.72
665.16	23213.43
665.30	23316.42
665.44	23058.96
665.59	23278.97
665.73	23236.84
665.87	23440.47
666.01	23232.16
666.15	23068.32
666.29	23091.73
666.44	23197.05
666.58	23154.92
666.72	22909.16
666.86	22888.10
667.00	23229.82
667.14	22731.28
667.28	22850.65
667.43	22558.08
667.57	22799.16
667.71	22876.40
667.85	22913.84
667.99	23058.96
668.13	22843.63
668.27	22462.12
668.41	22841.29
668.56	22963.00
668.70	22824.90
668.84	22317.01
668.98	22600.21
669.12	22361.48
669.26	22696.17
669.40	22487.87
669.54	22326.37
669.68	22356.80
669.82	22309.99
669.96	22150.83
670.10	22232.75
670.25	22319.35
670.39	22244.45
670.53	22010.40
670.67	22382.54
670.81	22258.49
670.95	22169.55
671.09	22010.40
671.23	22115.72
671.37	21848.90
671.51	22064.23
671.65	22204.66
671.79	21895.71
671.93	22155.51
672.07	21736.56
672.21	21771.66
672.35	21570.38
672.49	21432.29
672.63	21481.44
672.77	21436.97
672.91	21645.27
673.05	21561.02
673.19	20989.92
673.33	21357.39
673.47	21415.90
673.61	21312.92
673.75	21383.13
673.89	21242.70
674.03	21006.31
674.17	21369.09
674.31	21191.21
674.45	21123.33
674.59	21046.10
674.73	21156.10
674.87	21149.08
675.01	21092.91
675.15	20568.63
675.29	20781.62
675.43	20776.94
675.56	20709.06
675.70	21018.01
675.84	20896.30
675.98	20720.76
676.12	20816.72
676.26	20685.65
676.40	20594.37
676.54	20421.17
676.68	20442.24
676.82	20009.24
676.96	20444.58
677.10	20067.75
677.23	19868.81
677.37	19955.41
677.51	20100.52
677.65	20098.18
677.79	19747.10
677.93	19758.80
678.07	19634.75
678.21	19728.38
678.34	19616.03
678.48	19644.12
678.62	19599.65
678.76	19599.65
678.90	19545.81
679.04	19304.74
679.18	19075.37
679.31	19365.59
679.45	19138.56
679.59	19084.73
679.73	18841.31
679.87	19066.00
680.00	19014.51
680.14	18778.12
680.28	18747.69
680.42	18604.92
680.56	18984.09
680.70	18888.12
680.83	18796.84
680.97	18679.82
681.11	18675.13
681.25	18700.88
681.39	18569.81
681.52	18586.19
681.66	18455.12
681.80	18331.08
681.94	18295.97
682.07	18314.69
682.21	18050.21
682.35	17940.21
682.49	17930.84
682.62	17970.63
682.76	17937.87
682.90	17841.90
683.04	17783.39
683.17	17769.35
683.31	17514.23
683.45	17741.26
683.59	17865.31
683.72	17635.94
683.86	17612.53
684.00	17542.32
684.13	17383.16
684.27	17205.28
684.41	17240.39
684.55	17394.86
684.68	17202.94
684.82	17167.83
684.96	17195.92
685.09	17025.06
685.23	17043.78
685.37	16966.54
685.50	16999.31
685.64	17013.35
685.78	16910.37
685.91	16870.58
686.05	16819.09
686.19	16526.52
686.32	16957.18
686.46	16437.58
686.60	16437.58
686.73	16259.70
686.87	16229.27
687.01	16446.94
687.14	16074.80
687.28	16105.23
687.42	16109.91
687.55	16325.24
687.69	16219.91
687.82	15913.30
687.96	16147.36
688.10	15892.24
688.23	16023.31
688.37	15829.04
688.50	15786.91
688.64	15859.47
688.78	15667.55
688.91	15487.32
689.05	15611.37
689.18	15531.80
689.32	15241.57
689.46	15218.16
689.59	15307.10
689.73	15056.67
689.86	15159.65
690.00	15009.86
690.13	15119.86
690.27	15171.35
690.41	14850.70
690.54	14759.42
690.68	14890.49
690.81	14988.79
690.95	14972.41
691.08	14810.91
691.22	14977.09
691.35	14974.75
691.49	14717.29
691.62	14707.93
691.76	14534.73
691.89	14600.26
692.03	14218.75
692.16	14071.30
692.30	14307.69
692.43	14040.87
692.57	14207.05
692.70	14195.35
692.84	14064.28
692.97	13776.39
693.11	14038.53
693.24	14010.45
693.38	13895.76
693.51	14019.81
693.65	13872.36
693.78	13654.69
693.92	13612.56
694.05	13579.79
694.19	13631.28
694.32	13621.92
694.45	13362.12
694.59	13158.49
694.72	13369.14
694.86	13107.00
694.99	12903.37
695.13	13118.70
695.26	13060.19
695.39	13088.28
695.53	13289.56
695.66	12922.10
695.80	12678.68
695.93	13046.15
696.07	13004.02
696.20	13025.08
696.33	12657.62
696.47	12706.77
696.60	12774.64
696.73	12482.08
696.87	12643.57
697.00	12575.70
697.14	12297.17
697.27	11964.82
697.40	12175.47
697.54	12231.64
697.67	12091.21
697.80	12119.29
697.94	11995.25
698.07	11995.25
698.21	12091.21
698.34	12016.31
698.47	11960.14
698.61	11988.22
698.74	11997.59
698.87	11772.89
699.01	11609.06
699.14	11506.07
699.27	11508.41
699.40	11688.64
699.54	11747.15
699.67	11662.89
699.80	11449.90
699.94	11229.89
700.07	11435.86
700.20	11344.58
700.34	11220.53
700.47	11094.14
700.60	11173.72
700.73	11337.56
700.87	11206.48
701.00	10998.18
701.13	10974.77
701.26	11162.01
701.40	10906.90
701.53	11021.58
701.66	11014.56
701.79	10747.74
701.93	10752.42
702.06	10897.53
702.19	10490.28
702.32	10450.49
702.46	10537.09
702.59	10286.65
702.72	10242.18
702.85	10291.34
702.99	10176.65
703.12	10204.74
703.25	10253.89
703.38	10277.29
703.51	10118.14
703.65	10132.18
703.78	10218.78
703.91	10118.14
704.04	10174.31
704.17	10113.45
704.31	10183.67
704.44	9933.23
704.57	9774.08
704.70	9729.61
704.83	9415.98
704.96	9820.89
705.10	9816.21
705.23	9575.13
>>>>>End Processed Spectral Data<<<<<
