SpectraSuite Data File
++++++++++++++++++++++++++++++++++++
Date: Fri Oct 18 13:58:42 GMT-05:00 2013
User: bianchi
Dark Spectrum Present: No
Reference Spectrum Present: No
Number of Sampled Component Spectra: 1
Spectrometers: USB2+H05261
Integration Time (usec): 50000 (USB2+H05261)
Spectra Averaged: 1 (USB2+H05261)
Boxcar Smoothing: 0 (USB2+H05261)
Correct for Electrical Dark: No (USB2+H05261)
Strobe/Lamp Enabled: No (USB2+H05261)
Correct for Detector Non-linearity: No (USB2+H05261)
Correct for Stray Light: No (USB2+H05261)
Number of Pixels in Processed Spectrum: 2048
>>>>>Begin Processed Spectral Data<<<<<
365.73	0.00
365.92	0.00
366.12	0.00
366.32	0.00
366.52	0.00
366.72	0.00
366.91	0.00
367.11	0.00
367.31	0.00
367.51	0.00
367.70	0.00
367.90	0.00
368.10	0.00
368.30	0.00
368.49	0.00
368.69	0.00
368.89	0.00
369.09	0.00
369.28	0.00
369.48	0.00
369.68	0.00
369.87	0.00
370.07	0.00
370.27	0.00
370.47	0.00
370.66	21.06
370.86	58.51
371.06	196.60
371.25	187.24
371.45	135.75
371.65	170.86
371.84	215.33
372.04	156.82
372.24	177.88
372.44	198.95
372.63	210.65
372.83	119.37
373.03	203.63
373.22	161.50
373.42	229.37
373.62	161.50
373.81	205.97
374.01	259.80
374.21	210.65
374.40	194.26
374.60	198.95
374.79	163.84
374.99	217.67
375.19	203.63
375.38	177.88
375.58	266.82
375.78	327.68
375.97	339.38
376.17	304.27
376.37	255.12
376.56	325.33
376.76	234.05
376.95	245.76
377.15	271.50
377.35	301.93
377.54	313.63
377.74	266.82
377.93	262.14
378.13	290.23
378.33	222.35
378.52	273.84
378.72	257.46
378.91	283.20
379.11	257.46
379.31	358.10
379.50	299.59
379.70	299.59
379.89	278.52
380.09	252.78
380.28	313.63
380.48	294.91
380.68	360.44
380.87	315.97
381.07	257.46
381.26	301.93
381.46	285.55
381.65	311.29
381.85	334.70
382.04	308.95
382.24	348.74
382.43	414.27
382.63	252.78
382.83	332.36
383.02	376.83
383.22	423.64
383.41	276.18
383.61	355.76
383.80	409.59
384.00	355.76
384.19	386.19
384.39	353.42
384.58	367.46
384.78	266.82
384.97	411.93
385.17	430.66
385.36	374.49
385.56	339.38
385.75	353.42
385.95	407.25
386.14	428.32
386.34	379.17
386.53	395.55
386.72	414.27
386.92	447.04
387.11	456.40
387.31	468.11
387.50	425.98
387.70	414.27
387.89	390.87
388.09	400.23
388.28	381.51
388.48	400.23
388.67	411.93
388.86	470.45
389.06	477.47
389.25	463.43
389.45	491.51
389.64	416.62
389.84	409.59
390.03	418.96
390.22	477.47
390.42	421.30
390.61	468.11
390.81	486.83
391.00	503.22
391.19	498.53
391.39	461.09
391.58	645.99
391.78	540.66
391.97	505.56
392.16	554.71
392.36	559.39
392.55	482.15
392.75	552.37
392.94	568.75
393.13	564.07
393.33	613.22
393.52	582.79
393.71	547.69
393.91	500.87
394.10	547.69
394.29	535.98
394.49	482.15
394.68	601.52
394.88	535.98
395.07	603.86
395.26	575.77
395.46	580.45
395.65	699.82
395.84	596.84
396.04	620.24
396.23	603.86
396.42	653.01
396.62	624.92
396.81	629.60
397.00	688.12
397.19	627.26
397.39	676.41
397.58	638.97
397.77	606.20
397.97	657.69
398.16	578.11
398.35	638.97
398.55	704.50
398.74	737.27
398.93	716.20
399.12	716.20
399.32	753.65
399.51	695.14
399.70	751.31
399.90	755.99
400.09	807.48
400.28	840.25
400.47	748.97
400.67	793.44
400.86	786.42
401.05	746.63
401.24	791.10
401.44	840.25
401.63	849.61
401.82	866.00
402.01	720.88
402.21	819.19
402.40	889.40
402.59	919.83
402.78	802.80
402.97	816.85
403.17	812.17
403.36	837.91
403.55	882.38
403.74	924.51
403.93	884.72
404.13	894.08
404.32	915.15
404.51	866.00
404.70	945.58
404.89	912.81
405.09	992.39
405.28	903.45
405.47	933.87
405.66	1004.09
405.85	985.37
406.05	938.55
406.24	1006.43
406.43	983.02
406.62	959.62
406.81	1008.77
407.00	987.71
407.20	945.58
407.39	1053.24
407.58	987.71
407.77	1027.50
407.96	1111.75
408.15	1071.97
408.34	1151.54
408.54	1020.47
408.73	1116.44
408.92	1076.65
409.11	1160.91
409.30	1067.28
409.49	1083.67
409.68	1165.59
409.87	1231.12
410.07	1095.37
410.26	1184.31
410.45	1100.05
410.64	1259.21
410.83	1231.12
411.02	1263.89
411.21	1123.46
411.40	1221.76
411.59	1329.42
411.78	1238.14
411.98	1270.91
412.17	1252.19
412.36	1380.92
412.55	1409.00
412.74	1331.76
412.93	1287.29
413.12	1299.00
413.31	1348.15
413.50	1322.40
413.69	1373.89
413.88	1486.24
414.07	1439.43
414.26	1465.18
414.45	1474.54
414.64	1493.26
414.83	1519.01
415.02	1507.30
415.22	1526.03
415.41	1659.44
415.60	1544.75
415.79	1542.41
415.98	1544.75
416.17	1537.73
416.36	1504.96
416.55	1605.61
416.74	1596.25
416.93	1666.46
417.12	1687.53
417.31	1668.80
417.50	1556.46
417.69	1703.91
417.88	1710.93
418.07	1645.40
418.26	1724.97
418.45	1846.68
418.64	1858.39
418.83	1799.87
419.02	1767.10
419.21	1797.53
419.39	1914.56
419.58	1739.02
419.77	1764.76
419.96	1781.15
420.15	1926.26
420.34	1727.32
420.53	1923.92
420.72	1851.36
420.91	1963.71
421.10	1935.62
421.29	1980.09
421.48	1952.01
421.67	2052.65
421.86	1926.26
422.05	1944.99
422.24	2024.56
422.43	1937.96
422.61	1874.77
422.80	1959.03
422.99	2026.90
423.18	2024.56
423.37	1989.46
423.56	1973.07
423.75	1968.39
423.94	1926.26
424.13	1942.64
424.32	1874.77
424.50	1980.09
424.69	1977.75
424.88	2150.95
425.07	1984.77
425.26	1968.39
425.45	1966.05
425.64	2001.16
425.83	2087.76
426.01	2097.12
426.20	2012.86
426.39	2073.71
426.58	2031.58
426.77	1991.80
426.96	2076.06
427.15	1963.71
427.33	2059.67
427.52	2059.67
427.71	2150.95
427.90	2094.78
428.09	2008.18
428.28	2085.42
428.46	2251.60
428.65	2120.53
428.84	2253.94
429.03	2359.26
429.22	2125.21
429.40	2249.25
429.59	2197.76
429.78	2125.21
429.97	2010.52
430.16	2167.34
430.34	2218.83
430.53	2284.36
430.72	2296.07
430.91	2258.62
431.10	2244.57
431.28	2335.85
431.47	2377.98
431.66	2401.39
431.85	2389.69
432.03	2413.09
432.22	2527.78
432.41	2356.92
432.60	2413.09
432.79	2424.80
432.97	2410.75
433.16	2466.92
433.35	2457.56
433.54	2483.31
433.72	2448.20
433.91	2492.67
434.10	2478.63
434.28	2541.82
434.47	2532.46
434.66	2558.21
434.85	2569.91
435.03	2572.25
435.22	2387.35
435.41	2633.10
435.59	2651.83
435.78	2658.85
435.97	2588.63
436.16	2593.31
436.34	2572.25
436.53	2614.38
436.72	2630.76
436.90	2614.38
437.09	2651.83
437.28	2551.18
437.46	2670.55
437.65	2686.94
437.84	2848.43
438.02	2766.51
438.21	2710.34
438.40	2609.70
438.58	2787.58
438.77	2700.98
438.96	2825.03
439.14	2874.18
439.33	2888.22
439.52	2956.10
439.70	3014.61
439.89	3096.53
440.08	2986.52
440.26	3021.63
440.45	3084.83
440.63	2787.58
440.82	3007.59
441.01	3040.36
441.19	3141.00
441.38	3194.83
441.57	3080.14
441.75	3112.91
441.94	3220.58
442.12	3265.05
442.31	3229.94
442.50	3279.09
442.68	3255.69
442.87	3178.45
443.05	3368.03
443.24	3297.81
443.43	3260.37
443.61	3300.16
443.80	3471.01
443.98	3255.69
444.17	3262.71
444.35	3335.26
444.54	3449.95
444.73	3332.92
444.91	3272.07
445.10	3389.10
445.28	3403.14
445.47	3356.33
445.65	3370.37
445.84	3386.76
446.02	3471.01
446.21	3463.99
446.39	3293.13
446.58	3286.11
446.77	3433.57
446.95	3372.71
447.14	3262.71
447.32	3431.23
447.51	3489.74
447.69	3370.37
447.88	3412.50
448.06	3536.55
448.25	3480.38
448.43	3517.83
448.62	3623.15
448.80	3440.59
448.99	3606.77
449.17	3674.64
449.36	3482.72
449.54	3634.85
449.73	3772.94
449.91	3667.62
450.10	3595.06
450.28	3801.03
450.46	3740.18
450.65	3707.41
450.83	3728.47
451.02	3620.81
451.20	3801.03
451.39	3782.31
451.57	3866.56
451.76	3620.81
451.94	3817.41
452.13	3733.15
452.31	3747.20
452.49	3782.31
452.68	3833.80
452.86	3960.19
453.05	3803.37
453.23	3857.20
453.42	3899.33
453.60	3784.65
453.78	3906.35
453.97	3981.25
454.15	3925.08
454.34	3798.69
454.52	3758.90
454.70	3911.04
454.89	3840.82
455.07	3911.04
455.26	4056.15
455.44	4135.73
455.62	4021.04
455.81	3964.87
455.99	4028.06
456.17	4119.34
456.36	4128.70
456.54	4091.26
456.73	4177.86
456.91	4278.50
457.09	4266.80
457.28	4421.27
457.46	4114.66
457.64	4128.70
457.83	4266.80
458.01	4224.67
458.19	4360.42
458.38	4388.50
458.56	4430.63
458.74	4390.84
458.93	4447.02
459.11	4535.96
459.29	4344.03
459.48	4482.13
459.66	4493.83
459.84	4461.06
460.03	4533.62
460.21	4379.14
460.39	4358.08
460.57	4358.08
460.76	4463.40
460.94	4526.60
461.12	4596.81
461.31	4372.12
461.49	4594.47
461.67	4531.28
461.85	4638.94
462.04	4624.90
462.22	4716.18
462.40	4894.06
462.59	4751.29
462.77	4636.60
462.95	4891.72
463.13	4791.08
463.32	4957.25
463.50	4868.31
463.68	4802.78
463.86	4765.33
464.05	4781.71
464.23	4884.70
464.41	4760.65
464.59	4681.07
464.78	4847.25
464.96	4947.89
465.14	4917.47
465.32	4816.82
465.50	4952.57
465.69	4870.65
465.87	4837.89
466.05	4919.81
466.23	5135.14
466.41	4849.59
466.60	4959.60
466.78	4997.04
466.96	4983.00
467.14	5057.90
467.32	5188.97
467.51	5170.24
467.69	4964.28
467.87	5163.22
468.05	5188.97
468.23	5064.92
468.41	4992.36
468.60	4997.04
468.78	5331.74
468.96	5130.45
469.14	5266.21
469.32	5294.29
469.50	5135.14
469.69	5296.63
469.87	5350.46
470.05	5289.61
470.23	5280.25
470.41	5287.27
470.59	5247.48
470.77	5355.15
470.95	5570.48
471.14	5380.89
471.32	5558.77
471.50	5687.50
471.68	5490.90
471.86	5621.97
472.04	5500.26
472.22	5563.45
472.40	5444.09
472.58	5596.22
472.77	5650.05
472.95	5687.50
473.13	6022.20
473.31	5701.54
473.49	5706.23
473.67	5827.93
473.85	5832.62
474.03	5982.41
474.21	5851.34
474.39	5888.79
474.57	6141.57
474.75	5949.64
474.93	5987.09
475.12	6047.94
475.30	6052.63
475.48	6033.90
475.66	6069.01
475.84	6132.20
476.02	6310.08
476.20	6242.21
476.38	6396.68
476.56	6377.96
476.74	6628.40
476.92	6504.35
477.10	6490.31
477.28	6539.46
477.46	6628.40
477.64	6740.74
477.82	6665.85
478.00	6927.99
478.18	6892.88
478.36	6909.26
478.54	6848.41
478.72	6836.70
478.90	6998.20
479.08	7178.42
479.26	7232.26
479.44	7119.91
479.62	7215.87
479.80	7295.45
479.98	7267.36
480.16	7564.61
480.34	7363.33
480.52	7581.00
480.70	7571.63
480.88	7466.31
481.06	7456.95
481.24	7428.86
481.41	7887.61
481.59	7995.27
481.77	7908.67
481.95	7857.18
482.13	8063.15
482.31	7925.05
482.49	8056.12
482.67	8294.86
482.85	8301.88
483.03	8451.67
483.21	8423.59
483.39	8540.61
483.57	8409.54
483.74	8624.87
483.92	8507.85
484.10	8692.75
484.28	8667.00
484.46	9022.77
484.64	9092.98
484.82	8812.12
485.00	8936.17
485.18	9177.24
485.35	9320.01
485.53	9380.87
485.71	9238.09
485.89	9521.30
486.07	9432.36
486.25	9427.68
486.43	9490.87
486.61	9633.64
486.78	9659.39
486.96	9919.19
487.14	10090.05
487.32	9832.59
487.50	10108.77
487.68	10010.47
487.85	10071.33
488.03	10520.71
488.21	10546.45
488.39	10352.19
488.57	10616.67
488.75	10471.56
488.92	10782.85
489.10	10693.91
489.28	10698.59
489.46	11021.58
489.64	10876.47
489.81	11257.98
489.99	11208.83
490.17	10981.79
490.35	11370.32
490.53	11499.05
490.70	11389.05
490.88	11468.62
491.06	11473.31
491.24	11543.52
491.41	11838.43
491.59	11751.83
491.77	11690.98
491.95	11946.09
492.13	12159.08
492.30	12259.73
492.48	12072.48
492.66	11852.47
492.84	12233.98
493.01	12248.02
493.19	12463.35
493.37	12395.48
493.54	12755.92
493.72	12774.64
493.90	12559.31
494.08	12968.91
494.25	12891.67
494.43	13062.53
494.61	12952.52
494.79	13064.87
494.96	13231.05
495.14	13219.35
495.32	13528.30
495.49	13547.02
495.67	13303.60
495.85	13392.55
496.02	13488.51
496.20	13797.46
496.38	13734.26
496.55	13706.18
496.73	13977.68
496.91	13958.96
497.09	14136.84
497.26	14202.37
497.44	14146.20
497.62	14139.18
497.79	14256.20
497.97	14410.68
498.14	14562.81
498.32	14640.05
498.50	14546.43
498.67	14710.27
498.85	14497.28
499.03	14850.70
499.20	14970.07
499.38	14815.59
499.56	14899.85
499.73	14846.02
499.91	15197.10
500.08	15236.89
500.26	14958.36
500.44	15288.38
500.61	15328.17
500.79	15447.54
500.97	15302.42
501.14	15419.45
501.32	15983.52
501.49	15538.82
501.67	15480.30
501.84	15761.17
502.02	15707.34
502.20	15803.30
502.37	16020.97
502.55	15894.58
502.72	15925.00
502.90	16011.60
503.07	16201.19
503.25	16369.71
503.43	16020.97
503.60	16287.79
503.78	16463.33
503.95	16510.14
504.13	16182.46
504.30	16554.61
504.48	16472.69
504.65	16336.94
504.83	16617.80
505.01	16886.97
505.18	16802.71
505.36	16964.20
505.53	16620.14
505.71	16842.50
505.88	16917.39
506.06	16755.90
506.23	17472.10
506.41	17263.79
506.58	17479.12
506.76	17273.15
506.93	17481.46
507.11	17355.07
507.28	17392.52
507.46	17261.45
507.63	17219.32
507.81	17888.71
507.98	17551.68
508.16	17465.08
508.33	17649.98
508.50	17877.01
508.68	17720.20
508.85	17745.94
509.03	18106.38
509.20	18099.36
509.38	18211.71
509.55	17923.82
509.73	18228.09
509.90	18263.20
510.08	17963.61
510.25	18099.36
510.42	18501.93
510.60	18471.51
510.77	18525.34
510.95	18405.97
511.12	18452.78
511.30	18382.57
511.47	18359.16
511.64	18532.36
511.82	18562.79
511.99	18719.60
512.17	19035.58
512.34	19037.92
512.51	18883.44
512.69	18993.45
512.86	19019.19
513.04	19211.12
513.21	19227.50
513.38	19157.28
513.56	19185.37
513.73	18981.74
513.90	19697.95
514.08	19168.99
514.25	19328.14
514.43	19449.85
514.60	19503.68
514.77	19627.73
514.95	19583.26
515.12	19630.07
515.29	19658.16
515.47	19824.34
515.64	20023.28
515.81	19632.41
515.99	19887.53
516.16	20067.75
516.33	20147.33
516.51	20360.32
516.68	19932.00
516.85	19978.81
517.03	20049.03
517.20	20315.85
517.37	20421.17
517.54	20535.86
517.72	20116.90
517.89	20313.51
518.06	20795.66
518.24	20547.56
518.41	20554.58
518.58	20442.24
518.75	20624.80
518.93	20475.01
519.10	20648.21
519.27	20566.29
519.45	20517.14
519.62	20865.88
519.79	20840.13
519.96	20760.55
520.14	21020.35
520.31	20706.72
520.48	21184.19
520.65	21186.53
520.83	21106.95
521.00	21336.32
521.17	21036.74
521.34	21083.55
521.52	21542.29
521.69	21427.60
521.86	21656.98
522.03	21619.53
522.20	21214.62
522.38	21565.70
522.55	21341.00
522.72	21434.63
522.89	21380.79
523.07	21731.87
523.24	21926.14
523.41	21937.84
523.58	21792.73
523.75	21956.57
523.92	21766.98
524.10	21832.52
524.27	22073.59
524.44	22253.81
524.61	22340.41
524.78	22288.92
524.96	22532.34
525.13	22518.29
525.30	22317.01
525.47	22197.64
525.64	22199.98
525.81	22214.02
525.98	22885.76
526.16	22221.05
526.33	22590.85
526.50	22843.63
526.67	22045.51
526.84	22590.85
527.01	22537.02
527.18	22867.03
527.36	23012.15
527.53	22974.70
527.70	22939.59
527.87	22939.59
528.04	22698.52
528.21	22892.78
528.38	22883.42
528.55	23164.28
528.72	22946.61
528.89	22768.73
529.07	23171.30
529.24	23337.48
529.41	23501.32
529.58	23077.68
529.75	22871.72
529.92	23187.69
530.09	23342.16
530.26	23388.97
530.43	23225.14
530.60	23271.95
530.77	23791.55
530.94	23318.76
531.11	23522.38
531.28	23742.39
531.46	23740.05
531.63	23520.04
531.80	23606.64
531.97	23810.27
532.14	23840.70
532.31	23695.58
532.48	23754.10
532.65	23840.70
532.82	23964.75
532.99	24034.96
533.16	23697.92
533.33	23857.08
533.50	23885.17
533.67	23950.70
533.84	24156.67
534.01	24336.89
534.18	24201.14
534.35	24350.93
534.52	24084.11
534.69	24465.62
534.86	24563.92
535.03	24247.95
535.20	24287.74
535.37	24528.81
535.54	24400.08
535.71	24259.65
535.88	24201.14
536.05	24702.01
536.22	24617.75
536.38	24865.85
536.55	24872.87
536.72	25238.00
536.89	24617.75
537.06	24910.32
537.23	24524.13
537.40	24896.28
537.57	24666.91
537.74	25006.28
537.91	25137.35
538.08	25142.03
538.25	24933.73
538.42	25081.18
538.59	25095.22
538.75	24751.17
538.92	24772.23
539.09	25167.78
539.26	25123.31
539.43	25015.65
539.60	25195.87
539.77	24924.36
539.94	25369.07
540.11	25406.52
540.28	24809.68
540.44	25472.05
540.61	25153.74
540.78	25532.90
540.95	25032.03
541.12	25404.17
541.29	25340.98
541.46	25415.88
541.62	25521.20
541.79	25596.10
541.96	25125.65
542.13	25362.04
542.30	25434.60
542.47	25813.77
542.63	25352.68
542.80	25947.18
542.97	26164.85
543.14	26139.10
543.31	25916.75
543.48	25949.52
543.64	26361.45
543.81	26403.58
543.98	26181.23
544.15	26221.02
544.32	26319.32
544.48	26506.57
544.65	26054.84
544.82	26096.97
544.99	25827.81
545.16	26396.56
545.32	26595.51
545.49	26532.31
545.66	26738.28
545.83	26705.51
546.00	26260.81
546.16	26473.80
546.33	26237.41
546.50	26150.81
546.67	26370.82
546.83	26162.51
547.00	26448.05
547.17	26642.32
547.34	26452.73
547.50	26609.55
547.67	27459.16
547.84	26822.54
548.00	26611.89
548.17	26810.84
548.34	26466.78
548.51	26464.44
548.67	27459.16
548.84	26892.76
549.01	27058.93
549.18	27009.78
549.34	26836.58
549.51	26927.86
549.68	26621.25
549.84	26754.66
550.01	26796.79
550.18	26836.58
550.34	27197.02
550.51	27159.58
550.68	27131.49
550.84	27173.62
551.01	27171.28
551.18	27236.81
551.34	27267.24
551.51	27241.50
551.68	27494.27
551.84	27349.16
552.01	27318.73
552.18	27370.22
552.34	27241.50
552.51	27522.36
552.68	27215.75
552.84	27662.79
553.01	27604.28
553.18	27721.30
553.34	27517.68
553.51	27714.28
553.67	27854.72
553.84	27871.10
554.01	28067.70
554.17	27807.90
554.34	27360.86
554.51	27754.07
554.67	27742.37
554.84	27585.55
555.00	27896.85
555.17	27510.66
555.33	27737.69
555.50	27871.10
555.67	27810.25
555.83	27864.08
556.00	27915.57
556.16	27700.24
556.33	28051.32
556.50	27878.12
556.66	28154.30
556.83	27882.80
556.99	28044.30
557.16	28725.39
557.32	28231.54
557.49	28257.29
557.65	27740.03
557.82	27683.86
557.98	28261.97
558.15	28086.43
558.32	28388.36
558.48	28182.39
558.65	28297.08
558.81	28376.66
558.98	27770.46
559.14	28744.12
559.31	28451.55
559.47	28547.51
559.64	28191.75
559.80	27782.16
559.97	28797.95
560.13	28437.51
560.30	28453.89
560.46	28636.45
560.63	28268.99
560.79	28737.10
560.96	28713.69
561.12	28208.14
561.29	28496.02
561.45	28418.78
561.61	28313.46
561.78	28823.70
561.94	28456.23
562.11	28561.56
562.27	28582.62
562.44	28158.99
562.60	28622.41
562.77	28198.77
562.93	28318.14
563.10	28849.44
563.26	28493.68
563.42	28643.48
563.59	28828.38
563.75	28709.01
563.92	28472.62
564.08	28336.87
564.24	28727.74
564.41	28491.34
564.57	28547.51
564.74	28903.28
564.90	28907.96
565.07	29029.66
565.23	29074.13
565.39	29233.29
565.56	29359.68
565.72	28734.76
565.88	28842.42
566.05	28870.51
566.21	28765.18
566.38	28680.92
566.54	29074.13
566.70	28917.32
566.87	29268.40
567.03	29139.67
567.19	29312.87
567.36	28994.56
567.52	28575.60
567.68	29003.92
567.85	28858.81
568.01	28929.02
568.17	28587.30
568.34	28833.06
568.50	28893.91
568.66	28987.53
568.83	29291.80
568.99	29249.67
569.15	28919.66
569.32	29069.45
569.48	29008.60
569.64	28903.28
569.81	29081.16
569.97	28905.62
570.13	29333.93
570.30	29380.74
570.46	29153.71
570.62	29081.16
570.78	29104.56
570.95	28613.05
571.11	29188.82
571.27	29163.08
571.43	28957.11
571.60	29345.64
571.76	29081.16
571.92	29628.84
572.09	29118.60
572.25	29394.79
572.41	29392.45
572.57	29048.39
572.74	29502.45
572.90	28954.77
573.06	29090.52
573.22	29289.46
573.38	29347.98
573.55	29046.05
573.71	29654.59
573.87	29488.41
574.03	29275.42
574.20	29460.32
574.36	28980.51
574.52	29315.21
574.68	29008.60
574.84	29383.09
575.01	29453.30
575.17	29125.63
575.33	29340.96
575.49	29429.90
575.65	29081.16
575.82	29549.26
575.98	29731.83
576.14	29214.57
576.30	29366.70
576.46	28919.66
576.62	29132.65
576.79	29240.31
576.95	29191.16
577.11	29546.92
577.27	29731.83
577.43	29301.17
577.59	29394.79
577.75	29408.83
577.92	29352.66
578.08	29362.02
578.24	29102.22
578.40	29881.62
578.56	29682.67
578.72	29188.82
578.88	29514.16
579.04	29769.27
579.21	29158.39
579.37	29483.73
579.53	29567.99
579.69	29343.30
579.85	29202.86
580.01	29364.36
580.17	29287.12
580.33	29069.45
580.49	29387.77
580.65	29654.59
580.82	29465.00
580.98	29645.23
581.14	29507.13
581.30	29717.78
581.46	29420.53
581.62	29523.52
581.78	29254.36
581.94	29771.61
582.10	29252.02
582.26	29638.20
582.42	29855.87
582.58	29699.06
582.74	29881.62
582.90	29652.25
583.06	29764.59
583.22	29631.18
583.38	29532.88
583.54	29425.22
583.70	29783.32
583.86	29647.57
584.02	29144.35
584.18	29769.27
584.34	29879.28
584.50	29780.98
584.66	29876.94
584.82	29172.44
584.98	29584.37
585.14	29305.85
585.30	29703.74
585.46	29404.15
585.62	29631.18
585.78	29518.84
585.94	29596.07
586.10	29785.66
586.26	29722.46
586.42	29940.13
586.58	29982.26
586.74	29504.79
586.90	29537.56
587.06	29385.43
587.22	29675.65
587.38	29549.26
587.54	29748.21
587.70	29921.41
587.86	29816.08
588.02	29921.41
588.18	29785.66
588.34	29977.58
588.49	29577.35
588.65	29582.03
588.81	29575.01
588.97	29659.27
589.13	29776.30
589.29	29233.29
589.45	29699.06
589.61	29928.43
589.77	30181.21
589.93	29741.19
590.08	30143.76
590.24	29633.52
590.40	30239.72
590.56	30085.25
590.72	29804.38
590.88	29582.03
591.04	29762.25
591.20	30286.53
591.35	30188.23
591.51	30183.55
591.67	29928.43
591.83	30148.44
591.99	29979.92
592.15	29926.09
592.31	30387.18
592.46	29790.34
592.62	29460.32
592.78	30160.14
592.94	29771.61
593.10	30235.04
593.26	30195.25
593.41	30417.60
593.57	30089.93
593.73	29905.02
593.89	30281.85
594.05	29912.05
594.20	30302.92
594.36	29851.19
594.52	29961.20
594.68	29626.50
594.84	29666.29
594.99	29986.94
595.15	30113.33
595.31	30178.87
595.47	30382.49
595.62	30096.95
595.78	30103.97
595.94	29631.18
596.10	30141.42
596.25	30328.66
596.41	29916.73
596.57	29933.11
596.73	30284.19
596.88	30108.65
597.04	30221.00
597.20	30398.88
597.36	30272.49
597.51	30300.58
597.67	30078.22
597.83	29762.25
597.99	30265.47
598.14	30228.02
598.30	30164.82
598.46	30328.66
598.61	30389.52
598.77	29844.17
598.93	30333.34
599.09	30075.88
599.24	30302.92
599.40	30501.86
599.56	30319.30
599.71	30284.19
599.87	30113.33
600.03	30300.58
600.18	30312.28
600.34	30092.27
600.50	30136.74
600.65	29947.15
600.81	30157.80
600.97	30223.34
601.12	30258.45
601.28	30038.44
601.44	30408.24
601.59	30075.88
601.75	30080.56
601.91	29926.09
602.06	30181.21
602.22	30419.94
602.37	29979.92
602.53	30106.31
602.69	30471.43
602.84	30263.13
603.00	30221.00
603.16	30321.64
603.31	30249.08
603.47	30534.63
603.62	30082.91
603.78	30190.57
603.94	29764.59
604.09	30335.68
604.25	30206.95
604.40	30134.40
604.56	30199.93
604.71	30199.93
604.87	29839.49
605.03	30288.87
605.18	30078.22
605.34	30066.52
605.49	29593.73
605.65	30066.52
605.80	29813.74
605.96	30008.01
606.12	29830.13
606.27	30249.08
606.43	30052.48
606.58	30057.16
606.74	30529.95
606.89	30066.52
607.05	30192.91
607.20	30050.14
607.36	29912.05
607.51	30164.82
607.67	29853.53
607.82	29584.37
607.98	29890.98
608.13	30377.81
608.29	29661.61
608.44	30029.07
608.60	30012.69
608.75	30490.16
608.91	30155.46
609.06	29813.74
609.22	29839.49
609.37	29509.47
609.53	30118.01
609.68	29734.17
609.84	30000.99
609.99	29596.07
610.15	29886.30
610.30	29834.81
610.46	29575.01
610.61	30218.66
610.76	30017.37
610.92	29582.03
611.07	30202.27
611.23	29886.30
611.38	29813.74
611.54	29685.01
611.69	29729.48
611.84	29490.75
612.00	29919.07
612.15	29809.06
612.31	29926.09
612.46	29804.38
612.62	29720.12
612.77	29560.97
612.92	30160.14
613.08	29436.92
613.23	29605.44
613.39	29799.70
613.54	29364.36
613.69	29893.32
613.85	29130.31
614.00	29560.97
614.15	29579.69
614.31	29638.20
614.46	29532.88
614.62	29287.12
614.77	29495.43
614.92	29425.22
615.08	29600.76
615.23	29511.81
615.38	29596.07
615.54	29406.49
615.69	29502.45
615.84	29301.17
616.00	29598.41
616.15	29432.24
616.30	29603.10
616.46	29345.64
616.61	29500.11
616.76	29326.91
616.92	29336.27
617.07	29277.76
617.22	29256.70
617.37	29261.38
617.53	29406.49
617.68	29373.72
617.83	28999.24
617.99	29235.63
618.14	29600.76
618.29	29134.99
618.45	29525.86
618.60	29362.02
618.75	28907.96
618.90	29146.69
619.06	29610.12
619.21	29146.69
619.36	29060.09
619.51	28716.03
619.67	28795.61
619.82	28610.71
619.97	28868.17
620.12	28648.16
620.28	28676.24
620.43	29010.94
620.58	29432.24
620.73	29237.97
620.89	28917.32
621.04	29284.78
621.19	29153.71
621.34	29032.00
621.49	28767.52
621.65	29486.07
621.80	28957.11
621.95	28603.69
622.10	28896.25
622.25	28992.22
622.41	28814.34
622.56	28325.16
622.71	29055.41
622.86	28507.72
623.01	28980.51
623.16	28599.01
623.32	28566.24
623.47	28648.16
623.62	28617.73
623.77	28613.05
623.92	28577.94
624.07	28299.42
624.23	28517.09
624.38	28964.13
624.53	28542.83
624.68	29088.18
624.83	28655.18
624.98	28489.00
625.13	28409.42
625.29	28847.10
625.44	28676.24
625.59	28711.35
625.74	28432.83
625.89	27995.15
626.04	28348.57
626.19	28119.20
626.34	28376.66
626.49	28533.47
626.65	28643.48
626.80	28428.15
626.95	28177.71
627.10	28236.22
627.25	28617.73
627.40	27946.00
627.55	28056.00
627.70	27807.90
627.85	28250.27
628.00	28266.65
628.15	28222.18
628.30	28030.26
628.45	27976.42
628.60	28273.67
628.76	28231.54
628.91	28287.71
629.06	28126.22
629.21	28126.22
629.36	28276.01
629.51	27894.50
629.66	28400.06
629.81	28053.66
629.96	27728.33
630.11	27536.40
630.26	27974.08
630.41	27810.25
630.56	27449.80
630.71	28018.55
630.86	27974.08
631.01	27999.83
631.16	28140.26
631.31	27927.27
631.46	27768.12
631.61	27725.99
631.76	27587.89
631.91	27798.54
632.06	27709.60
632.21	27433.42
632.36	27969.40
632.51	27175.96
632.66	27400.65
632.81	27758.75
632.96	27625.34
633.10	27606.62
633.25	27431.08
633.40	27611.30
633.55	27487.25
633.70	27381.93
633.85	27316.39
634.00	27379.59
634.15	26998.08
634.30	27204.05
634.45	27438.10
634.60	27087.02
634.75	27290.65
634.90	27307.03
635.05	27388.95
635.19	27250.86
635.34	27417.04
635.49	27564.49
635.64	27103.40
635.79	27548.11
635.94	27419.38
636.09	27365.54
636.24	26927.86
636.39	27185.32
636.53	26810.84
636.68	27365.54
636.83	27208.73
636.98	27737.69
637.13	26920.84
637.28	27236.81
637.43	27274.26
637.57	27199.37
637.72	27056.59
637.87	27119.79
638.02	26890.41
638.17	26897.44
638.32	27264.90
638.46	26555.72
638.61	26513.59
638.76	26764.03
638.91	26679.77
639.06	26965.31
639.20	26909.14
639.35	26939.57
639.50	26513.59
639.65	26981.70
639.80	27019.14
639.94	26859.99
640.09	26707.85
640.24	26824.88
640.39	26778.07
640.54	26677.43
640.68	26693.81
640.83	26721.90
640.98	26614.23
641.13	26417.63
641.27	26689.13
641.42	26426.99
641.57	26539.33
641.72	26698.49
641.86	26567.42
642.01	26363.79
642.16	26316.98
642.31	26696.15
642.45	26382.52
642.60	26206.98
642.75	26305.28
642.90	26434.01
643.04	26335.71
643.19	26253.79
643.34	26536.99
643.48	25989.31
643.63	26604.87
643.78	26422.31
643.93	26618.91
644.07	26595.51
644.22	26583.80
644.37	26309.96
644.51	26178.89
644.66	25818.45
644.81	26038.46
644.95	26513.59
645.10	26033.78
645.25	25855.90
645.39	26146.12
645.54	26298.26
645.69	25907.39
645.83	26426.99
645.98	26443.37
646.13	26544.02
646.27	26391.88
646.42	26153.15
646.57	26057.18
646.71	25788.02
646.86	25776.32
647.00	25879.30
647.15	25827.81
647.30	26059.52
647.44	25490.77
647.59	25895.69
647.74	25682.70
647.88	26221.02
648.03	25802.07
648.17	26001.01
648.32	25998.67
648.47	26279.54
648.61	26253.79
648.76	26352.09
648.90	26176.55
649.05	26272.51
649.20	25773.98
649.34	26043.14
649.49	25434.60
649.63	25514.18
649.78	25553.97
649.92	25406.52
650.07	26019.74
650.21	25556.31
650.36	25762.28
650.51	25507.16
650.65	26003.35
650.80	25708.44
650.94	25757.60
651.09	25450.99
651.23	25736.53
651.38	25434.60
651.52	25369.07
651.67	25523.54
651.81	25568.01
651.96	25694.40
652.10	25628.87
652.25	25535.24
652.39	25666.31
652.54	25680.36
652.68	25610.14
652.83	25645.25
652.97	25710.78
653.12	25436.94
653.26	25032.03
653.41	25598.44
653.55	25230.98
653.70	25062.46
653.84	25362.04
653.99	25069.48
654.13	25287.15
654.27	25069.48
654.42	25099.90
654.56	25450.99
654.71	25340.98
654.85	25165.44
655.00	25127.99
655.14	24807.34
655.29	25177.14
655.43	25259.06
655.57	25291.83
655.72	24821.38
655.86	25078.84
656.01	24987.56
656.15	25015.65
656.30	24561.58
656.44	24964.15
656.58	24905.64
656.73	25064.80
656.87	25039.05
657.01	25233.32
657.16	24870.53
657.30	24809.68
657.45	25153.74
657.59	25064.80
657.73	24755.85
657.88	24706.70
658.02	24559.24
658.16	24868.19
658.31	24432.85
658.45	24615.41
658.60	24325.19
658.74	24556.90
658.88	24641.16
659.03	24582.65
659.17	24678.61
659.31	24496.05
659.46	24702.01
659.60	24531.15
659.74	24580.31
659.89	24493.71
660.03	24444.56
660.17	24315.83
660.32	24477.32
660.46	24168.37
660.60	24369.66
660.74	24311.14
660.89	23821.97
661.03	24065.39
661.17	24114.54
661.32	24013.90
661.46	24046.66
661.60	24135.60
661.74	23723.67
661.89	24009.22
662.03	23840.70
662.17	23981.13
662.31	24119.22
662.46	24166.03
662.60	24006.87
662.74	23690.90
662.88	24004.53
663.03	23737.71
663.17	23786.86
663.31	23620.69
663.45	23639.41
663.60	23676.86
663.74	23646.43
663.88	23548.13
664.02	23648.77
664.17	23786.86
664.31	23534.09
664.45	23257.90
664.59	23510.68
664.73	23482.59
664.88	23248.54
665.02	23257.90
665.16	23398.34
665.30	23173.64
665.44	23276.63
665.59	23101.09
665.73	23133.86
665.87	23213.43
666.01	23494.30
666.15	23131.51
666.29	23220.45
666.44	23150.24
666.58	22808.52
666.72	22640.00
666.86	22970.02
667.00	23185.35
667.14	22782.77
667.28	22485.53
667.43	22771.07
667.57	22829.59
667.71	22485.53
667.85	22691.49
667.99	22710.22
668.13	22658.73
668.27	22480.85
668.41	22696.17
668.56	22237.43
668.70	22754.69
668.84	22897.46
668.98	22459.78
669.12	22604.89
669.26	22279.56
669.40	22228.07
669.54	22558.08
669.68	22572.13
669.82	22270.20
669.96	21799.75
670.10	21986.99
670.25	22324.03
670.39	22127.42
670.53	22162.53
670.67	21839.54
670.81	22242.11
670.95	22115.72
671.09	22064.23
671.23	21921.46
671.37	22499.57
671.51	21867.63
671.65	21839.54
671.79	21818.47
671.93	21774.00
672.07	21951.88
672.21	21680.38
672.35	21343.35
672.49	21640.59
672.63	21586.76
672.77	21509.52
672.91	21399.52
673.05	21341.00
673.19	21390.16
673.33	21238.02
673.47	21338.66
673.61	21376.11
673.75	21481.44
673.89	21078.86
674.03	21191.21
674.17	21392.50
674.31	21256.75
674.45	20840.13
674.59	21041.42
674.73	20975.88
674.87	20802.68
675.01	20676.29
675.15	20699.70
675.29	20638.84
675.43	20727.78
675.56	20601.40
675.70	20814.38
675.84	20636.50
675.98	20311.17
676.12	20402.45
676.26	20559.27
676.40	20570.97
676.54	20332.23
676.68	20524.16
676.82	20107.54
676.96	20093.50
677.10	19927.32
677.23	20056.05
677.37	20013.92
677.51	19840.72
677.65	20121.59
677.79	19779.87
677.93	19541.13
678.07	19564.54
678.21	19660.50
678.34	19627.73
678.48	19398.36
678.62	19630.07
678.76	19489.64
678.90	19372.61
679.04	19389.00
679.18	19344.53
679.31	19157.28
679.45	19274.31
679.59	18897.49
679.73	18925.57
679.87	18689.18
680.00	18686.84
680.14	18728.97
680.28	18658.75
680.42	18733.65
680.56	19030.90
680.70	18560.45
680.83	18897.49
680.97	18672.79
681.11	18600.24
681.25	18705.56
681.39	18558.11
681.52	18155.54
681.66	18300.65
681.80	18129.79
681.94	18085.32
682.07	18300.65
682.21	17905.10
682.35	17851.27
682.49	17743.60
682.62	17741.26
682.76	17724.88
682.90	17951.91
683.04	17692.11
683.17	17624.23
683.31	17975.31
683.45	17839.56
683.59	17635.94
683.72	17621.89
683.86	17551.68
684.00	17469.76
684.13	17401.88
684.27	17319.96
684.41	17144.42
684.55	17078.89
684.68	16908.03
684.82	17085.91
684.96	17069.53
685.09	16973.56
685.23	16549.93
685.37	16737.17
685.50	16765.26
685.64	16798.02
685.78	16627.17
685.91	16765.26
686.05	16753.55
686.19	16982.93
686.32	16699.72
686.46	16306.51
686.60	16250.34
686.73	16194.17
686.87	16341.62
687.01	16503.12
687.14	16278.43
687.28	16065.44
687.42	15798.62
687.55	15887.56
687.69	16128.63
687.82	16035.01
687.96	16042.03
688.10	15665.21
688.23	15894.58
688.37	15728.40
688.50	15889.90
688.64	15637.12
688.78	15597.33
688.91	15552.86
689.05	15323.49
689.18	15084.75
689.32	15276.68
689.46	15166.67
689.59	15108.16
689.73	15171.35
689.86	15290.72
690.00	15059.01
690.13	15520.09
690.27	15330.51
690.41	15208.80
690.54	15257.95
690.68	14806.23
690.81	14949.00
690.95	14651.75
691.08	14932.62
691.22	14778.14
691.35	14857.72
691.49	14712.61
691.62	14668.14
691.76	14349.82
691.89	14499.62
692.03	14239.82
692.16	14040.87
692.30	14274.93
692.43	14190.67
692.57	14279.61
692.70	13930.87
692.84	13940.23
692.97	13949.59
693.11	13935.55
693.24	13778.73
693.38	13937.89
693.51	13928.53
693.65	13752.99
693.78	13490.85
693.92	13652.34
694.05	13530.64
694.19	13743.63
694.32	13582.13
694.45	13291.90
694.59	13247.43
694.72	13130.41
694.86	13359.78
694.99	12784.01
695.13	12982.95
695.26	13160.83
695.39	12898.69
695.53	13114.02
695.66	13069.55
695.80	12816.77
695.93	12837.84
696.07	12950.18
696.20	12711.45
696.33	12627.19
696.47	12589.74
696.60	12781.67
696.73	12528.89
696.87	12802.73
697.00	12306.54
697.14	12468.03
697.27	12088.87
697.40	12336.96
697.54	12189.51
697.67	12386.12
697.80	12205.89
697.94	11885.24
698.07	12105.25
698.21	11988.22
698.34	11733.11
698.47	11871.20
698.61	11737.79
698.74	11894.60
698.87	12018.65
699.01	11534.16
699.14	11988.22
699.27	11499.05
699.40	11637.14
699.54	11669.91
699.67	11396.07
699.80	11611.40
699.94	11302.45
700.07	11318.83
700.20	11337.56
700.34	11255.64
700.47	11204.14
700.60	11260.32
700.73	10988.82
700.87	10967.75
701.00	11103.50
701.13	11068.39
701.26	11023.92
701.40	10899.87
701.53	10925.62
701.66	10773.49
701.79	10909.24
701.93	10820.30
702.06	10705.61
702.19	10471.56
702.32	10516.03
702.46	10537.09
702.59	10471.56
702.72	10345.17
702.85	10349.85
702.99	10345.17
703.12	10410.70
703.25	10129.84
703.38	10171.97
703.51	10153.24
703.65	10200.05
703.78	9973.02
703.91	10204.74
704.04	10190.69
704.17	10099.41
704.31	9811.53
704.44	9898.13
704.57	9851.31
704.70	9790.46
704.83	9523.64
704.96	9671.09
705.10	9547.05
705.23	9451.08
>>>>>End Processed Spectral Data<<<<<
