SpectraSuite Data File
++++++++++++++++++++++++++++++++++++
Date: Fri Oct 18 13:58:22 GMT-05:00 2013
User: bianchi
Dark Spectrum Present: No
Reference Spectrum Present: No
Number of Sampled Component Spectra: 1
Spectrometers: USB2+H05261
Integration Time (usec): 50000 (USB2+H05261)
Spectra Averaged: 1 (USB2+H05261)
Boxcar Smoothing: 0 (USB2+H05261)
Correct for Electrical Dark: No (USB2+H05261)
Strobe/Lamp Enabled: No (USB2+H05261)
Correct for Detector Non-linearity: No (USB2+H05261)
Correct for Stray Light: No (USB2+H05261)
Number of Pixels in Processed Spectrum: 2048
>>>>>Begin Processed Spectral Data<<<<<
365.73	0.00
365.92	0.00
366.12	0.00
366.32	0.00
366.52	0.00
366.72	0.00
366.91	0.00
367.11	0.00
367.31	0.00
367.51	0.00
367.70	0.00
367.90	0.00
368.10	0.00
368.30	0.00
368.49	0.00
368.69	0.00
368.89	0.00
369.09	0.00
369.28	0.00
369.48	0.00
369.68	0.00
369.87	0.00
370.07	0.00
370.27	0.00
370.47	0.00
370.66	74.90
370.86	189.58
371.06	86.60
371.25	168.52
371.45	138.09
371.65	117.03
371.84	79.58
372.04	131.07
372.24	131.07
372.44	170.86
372.63	182.56
372.83	138.09
373.03	119.37
373.22	145.11
373.42	203.63
373.62	212.99
373.81	273.84
374.01	248.10
374.21	210.65
374.40	236.39
374.60	238.73
374.79	212.99
374.99	229.37
375.19	224.69
375.38	264.48
375.58	252.78
375.78	250.44
375.97	234.05
376.17	182.56
376.37	238.73
376.56	299.59
376.76	238.73
376.95	189.58
377.15	245.76
377.35	250.44
377.54	297.25
377.74	243.42
377.93	276.18
378.13	313.63
378.33	313.63
378.52	308.95
378.72	341.72
378.91	374.49
379.11	367.46
379.31	266.82
379.50	217.67
379.70	330.02
379.89	290.23
380.09	266.82
380.28	318.31
380.48	358.10
380.68	280.86
380.87	379.17
381.07	318.31
381.26	339.38
381.46	325.33
381.65	250.44
381.85	320.65
382.04	287.89
382.24	257.46
382.43	351.08
382.63	334.70
382.83	339.38
383.02	278.52
383.22	404.91
383.41	388.53
383.61	320.65
383.80	362.78
384.00	351.08
384.19	428.32
384.39	337.04
384.58	376.83
384.78	383.85
384.97	348.74
385.17	414.27
385.36	416.62
385.56	360.44
385.75	390.87
385.95	468.11
386.14	437.68
386.34	437.68
386.53	407.25
386.72	393.21
386.92	351.08
387.11	425.98
387.31	435.34
387.50	416.62
387.70	390.87
387.89	477.47
388.09	428.32
388.28	451.72
388.48	465.77
388.67	458.74
388.86	477.47
389.06	491.51
389.25	442.36
389.45	538.32
389.64	379.17
389.84	498.53
390.03	505.56
390.22	484.49
390.42	491.51
390.61	442.36
390.81	461.09
391.00	543.00
391.19	454.06
391.39	543.00
391.58	475.13
391.78	468.11
391.97	561.73
392.16	557.05
392.36	498.53
392.55	547.69
392.75	561.73
392.94	535.98
393.13	608.54
393.33	631.94
393.52	582.79
393.71	561.73
393.91	573.43
394.10	552.37
394.29	559.39
394.49	566.41
394.68	674.07
394.88	512.58
395.07	571.09
395.26	517.26
395.46	535.98
395.65	589.82
395.84	603.86
396.04	643.65
396.23	634.29
396.42	692.80
396.62	589.82
396.81	617.90
397.00	695.14
397.19	713.86
397.39	657.69
397.58	695.14
397.77	667.05
397.97	653.01
398.16	683.44
398.35	692.80
398.55	655.35
398.74	704.50
398.93	727.91
399.12	732.59
399.32	662.37
399.51	716.20
399.70	744.29
399.90	763.01
400.09	699.82
400.28	758.33
400.47	819.19
400.67	816.85
400.86	755.99
401.05	767.70
401.24	741.95
401.44	713.86
401.63	847.27
401.82	770.04
402.01	777.06
402.21	880.04
402.40	814.51
402.59	805.14
402.78	826.21
402.97	940.90
403.17	919.83
403.36	823.87
403.55	828.55
403.74	945.58
403.93	844.93
404.13	833.23
404.32	863.66
404.51	908.13
404.70	957.28
404.89	950.26
405.09	875.36
405.28	877.70
405.47	858.98
405.66	1011.11
405.85	1053.24
406.05	978.34
406.24	931.53
406.43	1027.50
406.62	1006.43
406.81	1004.09
407.00	971.32
407.20	933.87
407.39	1004.09
407.58	1067.28
407.77	1057.92
407.96	1020.47
408.15	1043.88
408.34	1057.92
408.54	1062.60
408.73	1097.71
408.92	1128.14
409.11	1158.57
409.30	1128.14
409.49	1132.82
409.68	1130.48
409.87	1116.44
410.07	1160.91
410.26	1156.22
410.45	1188.99
410.64	1128.14
410.83	1198.35
411.02	1167.93
411.21	1188.99
411.40	1069.62
411.59	1308.36
411.78	1324.74
411.98	1205.38
412.17	1315.38
412.36	1366.87
412.55	1373.89
412.74	1322.40
412.93	1284.95
413.12	1336.45
413.31	1320.06
413.50	1306.02
413.69	1376.24
413.88	1418.36
414.07	1493.26
414.26	1432.41
414.45	1472.20
414.64	1500.28
414.83	1575.18
415.02	1427.73
415.22	1448.79
415.41	1448.79
415.60	1432.41
415.79	1561.14
415.98	1537.73
416.17	1561.14
416.36	1528.37
416.55	1507.30
416.74	1572.84
416.93	1614.97
417.12	1727.32
417.31	1654.76
417.50	1694.55
417.69	1834.98
417.88	1802.21
418.07	1671.14
418.26	1692.21
418.45	1771.79
418.64	1834.98
418.83	1724.97
419.02	1804.55
419.21	1757.74
419.39	1865.41
419.58	1813.92
419.77	1811.57
419.96	1816.26
420.15	1867.75
420.34	1921.58
420.53	1865.41
420.72	1912.22
420.91	1872.43
421.10	1877.11
421.29	1963.71
421.48	1980.09
421.67	1933.28
421.86	2047.97
422.05	1902.86
422.24	1905.20
422.43	1966.05
422.61	1935.62
422.80	2104.14
422.99	2010.52
423.18	1989.46
423.37	2043.29
423.56	2106.48
423.75	1970.73
423.94	1980.09
424.13	1806.89
424.32	1921.58
424.50	1952.01
424.69	2132.23
424.88	2003.50
425.07	1947.33
425.26	2036.27
425.45	2045.63
425.64	1956.69
425.83	2073.71
426.01	2022.22
426.20	2057.33
426.39	2064.35
426.58	2186.06
426.77	2092.44
426.96	2033.93
427.15	2022.22
427.33	2127.55
427.52	2087.76
427.71	2085.42
427.90	2090.10
428.09	2223.51
428.28	2160.31
428.46	2232.87
428.65	2230.53
428.84	2232.87
429.03	2190.74
429.22	2066.69
429.40	2265.64
429.59	2207.13
429.78	2064.35
429.97	2253.94
430.16	2157.97
430.34	2303.09
430.53	2197.76
430.72	2267.98
430.91	2176.70
431.10	2230.53
431.28	2342.88
431.47	2335.85
431.66	2326.49
431.85	2363.94
432.03	2399.05
432.22	2492.67
432.41	2310.11
432.60	2534.80
432.79	2448.20
432.97	2363.94
433.16	2396.71
433.35	2562.89
433.54	2509.05
433.72	2537.14
433.91	2506.71
434.10	2532.46
434.28	2424.80
434.47	2527.78
434.66	2511.39
434.85	2502.03
435.03	2623.74
435.22	2499.69
435.41	2703.32
435.59	2548.84
435.78	2572.25
435.97	2658.85
436.16	2651.83
436.34	2576.93
436.53	2700.98
436.72	2703.32
436.90	2612.04
437.09	2722.04
437.28	2644.81
437.46	2731.41
437.65	2731.41
437.84	2651.83
438.02	2836.73
438.21	2686.94
438.40	2722.04
438.58	2850.77
438.77	2857.79
438.96	2754.81
439.14	2757.15
439.33	2867.16
439.52	2960.78
439.70	2977.16
439.89	2937.37
440.08	3056.74
440.26	3089.51
440.45	3094.19
440.63	3042.70
440.82	3087.17
441.01	3101.21
441.19	3087.17
441.38	3241.64
441.57	3112.91
441.75	3173.77
441.94	3239.30
442.12	3286.11
442.31	3281.43
442.50	3232.28
442.68	3288.45
442.87	3213.56
443.05	3361.01
443.24	3419.52
443.43	3276.75
443.61	3379.73
443.80	3398.46
443.98	3400.80
444.17	3248.66
444.35	3368.03
444.54	3588.04
444.73	3428.88
444.91	3480.38
445.10	3440.59
445.28	3349.31
445.47	3339.94
445.65	3311.86
445.84	3480.38
446.02	3356.33
446.21	3356.33
446.39	3358.67
446.58	3492.08
446.77	3382.07
446.95	3417.18
447.14	3468.67
447.32	3541.23
447.51	3361.01
447.69	3473.36
447.88	3431.23
448.06	3471.01
448.25	3475.70
448.43	3449.95
448.62	3412.50
448.80	3433.57
448.99	3522.51
449.17	3569.32
449.36	3613.79
449.54	3543.57
449.73	3747.20
449.91	3632.51
450.10	3686.34
450.28	3723.79
450.46	3857.20
450.65	3714.43
450.83	3681.66
451.02	3756.56
451.20	3789.33
451.39	3782.31
451.57	3730.81
451.76	3632.51
451.94	3803.37
452.13	3742.52
452.31	3758.90
452.49	3669.96
452.68	3831.46
452.86	3880.61
453.05	3908.69
453.23	3850.18
453.42	3873.59
453.60	3885.29
453.78	3948.48
453.97	3812.73
454.15	3861.88
454.34	3768.26
454.52	3939.12
454.70	3864.22
454.89	3983.59
455.07	4025.72
455.26	4079.55
455.44	4105.30
455.62	4098.28
455.81	4018.70
455.99	4109.98
456.17	4065.51
456.36	4084.23
456.54	4037.42
456.73	4070.19
456.91	4269.14
457.09	4208.28
457.28	4212.96
457.46	4283.18
457.64	4191.90
457.83	4421.27
458.01	4414.25
458.19	4379.14
458.38	4353.40
458.56	4505.53
458.74	4435.32
458.93	4465.74
459.11	4313.61
459.29	4477.44
459.48	4374.46
459.66	4299.56
459.84	4526.60
460.03	4582.77
460.21	4470.42
460.39	4437.66
460.57	4465.74
460.76	4411.91
460.94	4566.39
461.12	4629.58
461.31	4418.93
461.49	4592.13
461.67	4550.00
461.85	4601.49
462.04	4528.94
462.22	4711.50
462.40	4669.37
462.59	4725.54
462.77	4706.82
462.95	4695.11
463.13	4706.82
463.32	4760.65
463.50	4856.61
463.68	4784.06
463.86	4734.90
464.05	4734.90
464.23	4823.84
464.41	4875.34
464.59	4863.63
464.78	4821.50
464.96	4952.57
465.14	4821.50
465.32	5025.13
465.50	4959.60
465.69	5022.79
465.87	5004.07
466.05	4837.89
466.23	4980.66
466.41	4814.48
466.60	5224.08
466.78	5008.75
466.96	4964.28
467.14	4924.49
467.32	5076.62
467.51	5179.61
467.69	5025.13
467.87	5153.86
468.05	5074.28
468.23	5151.52
468.41	5104.71
468.60	5160.88
468.78	5167.90
468.96	5135.14
469.14	5160.88
469.32	5144.50
469.50	5275.57
469.69	5282.59
469.87	5303.65
470.05	5317.70
470.23	5305.99
470.41	5401.96
470.59	5460.47
470.77	5268.55
470.95	5376.21
471.14	5554.09
471.32	5511.96
471.50	5565.79
471.68	5493.24
471.86	5467.49
472.04	5706.23
472.22	5741.33
472.40	5568.13
472.58	5626.65
472.77	5738.99
472.95	5909.85
473.13	5919.21
473.31	5844.32
473.49	5813.89
473.67	5762.40
473.85	5912.19
474.03	6061.99
474.21	5956.66
474.39	6197.74
474.57	6087.73
474.75	6111.14
474.93	6005.81
475.12	6134.54
475.30	6080.71
475.48	6382.64
475.66	6244.55
475.84	6361.58
476.02	6349.87
476.20	6324.13
476.38	6558.18
476.56	6494.99
476.74	6331.15
476.92	6403.71
477.10	6567.54
477.28	6719.68
477.46	6698.61
477.64	6803.94
477.82	6960.75
478.00	6871.81
478.18	6930.33
478.36	7012.24
478.54	7019.27
478.72	7009.90
478.90	7091.82
479.08	7101.19
479.26	7227.57
479.44	7356.30
479.62	7351.62
479.80	7274.38
479.98	7335.24
480.16	7681.64
480.34	7466.31
480.52	7520.14
480.70	7489.71
480.88	7569.29
481.06	7735.47
481.24	7707.38
481.41	7606.74
481.59	8016.33
481.77	7840.79
481.95	7894.63
482.13	8135.70
482.31	8236.35
482.49	8156.77
482.67	8168.47
482.85	8142.72
483.03	8388.48
483.21	8496.14
483.39	8505.51
483.57	8573.38
483.74	8664.66
483.92	8725.52
484.10	8491.46
484.28	8851.91
484.46	8957.23
484.64	9020.42
484.82	8982.98
485.00	9109.36
485.18	9228.73
485.35	9261.50
485.53	9277.88
485.71	9329.38
485.89	9504.92
486.07	9474.49
486.25	9540.02
486.43	9530.66
486.61	9558.75
486.78	9895.78
486.96	9848.97
487.14	9949.62
487.32	9942.60
487.50	10237.50
487.68	10230.48
487.85	10403.68
488.03	10352.19
488.21	10354.53
488.39	10560.50
488.57	10455.17
488.75	10693.91
488.92	10867.11
489.10	10703.27
489.28	10743.06
489.46	10953.71
489.64	10883.49
489.81	11206.48
489.99	11073.07
490.17	11255.64
490.35	11496.71
490.53	11707.36
490.70	11510.75
490.88	11655.87
491.06	11564.59
491.24	11768.21
491.41	11772.89
491.59	11815.02
491.77	11983.54
491.95	12266.75
492.13	12109.93
492.30	12095.89
492.48	11995.25
492.66	12369.73
492.84	12290.15
493.01	12610.81
493.19	12629.53
493.37	12629.53
493.54	12727.83
493.72	12886.99
493.90	12723.15
494.08	12706.77
494.25	13116.36
494.43	13132.75
494.61	13245.09
494.79	13406.59
494.96	13422.97
495.14	13336.37
495.32	13228.71
495.49	13504.89
495.67	13483.83
495.85	13729.58
496.02	13692.13
496.20	13895.76
496.38	13862.99
496.55	14071.30
496.73	14071.30
496.91	13895.76
497.09	14008.11
497.26	14125.13
497.44	14413.02
497.62	14216.41
497.79	14705.59
497.97	14455.15
498.14	14382.59
498.32	14457.49
498.50	14953.68
498.67	14801.55
498.85	14857.72
499.03	15044.96
499.20	14869.42
499.38	14860.06
499.56	14871.76
499.73	15147.95
499.91	15248.59
500.08	15412.43
500.26	15211.14
500.44	15426.47
500.61	15272.00
500.79	15452.22
500.97	15513.07
501.14	15564.56
501.32	15562.22
501.49	15534.14
501.67	15536.48
501.84	15786.91
502.02	15693.29
502.20	16053.73
502.37	16194.17
502.55	15768.19
502.72	16191.83
502.90	15962.45
503.07	15962.45
503.25	16428.22
503.43	16248.00
503.60	16294.81
503.78	16432.90
503.95	16507.80
504.13	16315.87
504.30	16844.84
504.48	16573.33
504.65	16313.53
504.83	16650.57
505.01	16954.84
505.18	16952.50
505.36	16915.05
505.53	16966.54
505.71	16926.75
505.88	16919.73
506.06	17006.33
506.23	17163.15
506.41	17202.94
506.58	17137.40
506.76	17209.96
506.93	17537.63
507.11	17165.49
507.28	17415.93
507.46	17371.46
507.63	17357.41
507.81	17617.21
507.98	17825.52
508.16	17694.45
508.33	17617.21
508.50	17685.09
508.68	17961.27
508.85	17778.71
509.03	17991.70
509.20	18097.02
509.38	18368.52
509.55	18408.31
509.73	18111.07
509.90	18099.36
510.08	18253.84
510.25	18153.20
510.42	18443.42
510.60	18614.28
510.77	18436.40
510.95	18633.00
511.12	18429.38
511.30	18677.48
511.47	18764.07
511.64	18717.26
511.82	19019.19
511.99	18909.19
512.17	18871.74
512.34	18946.64
512.51	19126.86
512.69	19056.64
512.86	18970.04
513.04	19466.24
513.21	19360.91
513.38	19543.47
513.56	19466.24
513.73	19396.02
513.90	19405.38
514.08	19676.88
514.25	19318.78
514.43	19470.92
514.60	19850.08
514.77	19660.50
514.95	19719.01
515.12	19627.73
515.29	19864.13
515.47	19882.85
515.64	19679.22
515.81	19777.53
515.99	20107.54
516.16	19810.29
516.33	20191.80
516.51	20123.93
516.68	19824.34
516.85	19672.20
517.03	20353.30
517.20	20196.48
517.37	20641.18
517.54	20592.03
517.72	20503.09
517.89	20439.90
518.06	20292.44
518.24	20252.66
518.41	20521.82
518.58	20577.99
518.75	20470.33
518.93	20767.57
519.10	20765.23
519.27	20922.05
519.45	20568.63
519.62	20882.26
519.79	21118.65
519.96	20959.50
520.14	20945.45
520.31	21226.32
520.48	21259.09
520.65	20947.79
520.83	21186.53
521.00	21111.63
521.17	21422.92
521.34	21146.74
521.52	21380.79
521.69	21427.60
521.86	21783.37
522.03	21406.54
522.20	21706.13
522.38	21523.57
522.55	21575.06
522.72	21682.72
522.89	21687.40
523.07	22279.56
523.24	21785.71
523.41	22230.41
523.58	21802.09
523.75	22120.40
523.92	21921.46
524.10	21855.92
524.27	22417.65
524.44	21933.16
524.61	22230.41
524.78	22623.62
524.96	22122.74
525.13	22082.95
525.30	22834.27
525.47	22033.80
525.64	22176.58
525.81	22647.02
525.98	22417.65
526.16	22874.06
526.33	22370.84
526.50	23105.77
526.67	22656.39
526.84	22843.63
527.01	22801.50
527.18	22359.14
527.36	22902.14
527.53	22874.06
527.70	23206.41
527.87	23388.97
528.04	23014.49
528.21	22946.61
528.38	23302.37
528.55	23285.99
528.72	22934.91
528.89	23096.41
529.07	23466.21
529.24	23234.50
529.41	23477.91
529.58	23428.76
529.75	23515.36
529.92	23433.44
530.09	23168.96
530.26	23571.54
530.43	23412.38
530.60	23847.72
530.77	23454.51
530.94	23569.19
531.11	23587.92
531.28	23475.57
531.46	23660.48
531.63	23777.50
531.80	23836.02
531.97	24018.58
532.14	23566.85
532.31	23672.18
532.48	23854.74
532.65	23836.02
532.82	23548.13
532.99	24053.69
533.16	23910.91
533.33	24175.39
533.50	24322.85
533.67	24137.94
533.84	23772.82
534.01	23868.78
534.18	23702.61
534.35	24463.28
534.52	24130.92
534.69	24130.92
534.86	24240.93
535.03	24411.79
535.20	24734.78
535.37	24397.74
535.54	24308.80
535.71	24226.89
535.88	24446.90
536.05	24620.10
536.22	24802.66
536.38	24812.02
536.55	24938.41
536.72	24624.78
536.89	24694.99
537.06	24727.76
537.23	24886.92
537.40	24727.76
537.57	24826.06
537.74	25142.03
537.91	25228.63
538.08	24975.86
538.25	25270.76
538.42	24844.79
538.59	25392.47
538.75	25043.73
538.92	24929.05
539.09	25146.72
539.26	25179.48
539.43	25453.33
539.60	25090.54
539.77	25132.67
539.94	25259.06
540.11	25392.47
540.28	25392.47
540.44	25275.45
540.61	25376.09
540.78	25247.36
540.95	25685.04
541.12	25453.33
541.29	25406.52
541.46	25352.68
541.62	25804.41
541.79	25476.73
541.96	25678.02
542.13	25549.29
542.30	26012.71
542.47	25769.30
542.63	26300.60
542.80	26146.12
542.97	25886.32
543.14	26115.70
543.31	26169.53
543.48	26031.44
543.64	26335.71
543.81	25916.75
543.98	26426.99
544.15	26525.29
544.32	26546.36
544.48	26714.87
544.65	26277.19
544.82	26354.43
544.99	25975.27
545.16	26485.50
545.32	26555.72
545.49	26604.87
545.66	26799.13
545.83	26607.21
546.00	26579.12
546.16	26628.27
546.33	26534.65
546.50	26228.04
546.67	26686.79
546.83	26497.20
547.00	26998.08
547.17	26766.37
547.34	26962.97
547.50	26876.37
547.67	26958.29
547.84	26780.41
548.00	26813.18
548.17	27234.47
548.34	26822.54
548.51	27262.56
548.67	26977.01
548.84	27225.11
549.01	26892.76
549.18	26829.56
549.34	26927.86
549.51	26972.33
549.68	27054.25
549.84	26955.95
550.01	26951.27
550.18	27047.23
550.34	27477.89
550.51	26993.40
550.68	27208.73
550.84	27199.37
551.01	27332.78
551.18	26923.18
551.34	27182.98
551.51	27358.52
551.68	27360.86
551.84	27370.22
552.01	27627.68
552.18	27763.43
552.34	27646.41
552.51	27428.74
552.68	27377.25
552.84	27227.45
553.01	27838.33
553.18	27658.11
553.34	27758.75
553.51	27892.16
553.67	27679.18
553.84	27887.48
554.01	27592.58
554.17	27824.29
554.34	27803.22
554.51	27590.24
554.67	27960.04
554.84	27903.87
555.00	28056.00
555.17	27725.99
555.33	27768.12
555.50	27896.85
555.67	27908.55
555.83	28154.30
556.00	27880.46
556.16	28685.61
556.33	28261.97
556.50	28381.34
556.66	28575.60
556.83	28072.39
556.99	28512.41
557.16	28158.99
557.32	28046.64
557.49	28177.71
557.65	28133.24
557.82	28147.28
557.98	28140.26
558.15	28070.04
558.32	27976.42
558.48	28081.75
558.65	28657.52
558.81	28631.77
558.98	28577.94
559.14	28460.91
559.31	28273.67
559.47	28416.44
559.64	28287.71
559.80	28400.06
559.97	28189.41
560.13	28112.17
560.30	28465.60
560.46	28631.77
560.63	28505.38
560.79	28666.88
560.96	28549.85
561.12	28318.14
561.29	28584.96
561.45	28428.15
561.61	28732.42
561.78	28432.83
561.94	28697.31
562.11	28709.01
562.27	28713.69
562.44	28608.37
562.60	28713.69
562.77	28772.21
562.93	28498.36
563.10	29284.78
563.26	28716.03
563.42	28856.46
563.59	28617.73
563.75	28591.98
563.92	28638.80
564.08	28938.38
564.24	28496.02
564.41	28786.25
564.57	28755.82
564.74	29352.66
564.90	28720.71
565.07	28851.78
565.23	29120.95
565.39	28624.75
565.56	28720.71
565.72	28821.36
565.88	28804.97
566.05	28861.15
566.21	28774.55
566.38	28725.39
566.54	28662.20
566.70	29076.48
566.87	29081.16
567.03	28980.51
567.19	29525.86
567.36	29244.99
567.52	28891.57
567.68	29167.76
567.85	28821.36
568.01	29525.86
568.17	28889.23
568.34	29130.31
568.50	29081.16
568.66	29008.60
568.83	29462.66
568.99	29235.63
569.15	29259.04
569.32	29333.93
569.48	29001.58
569.64	29567.99
569.81	28622.41
569.97	29315.21
570.13	29537.56
570.30	29195.84
570.46	29336.27
570.62	29432.24
570.78	29216.91
570.95	29254.36
571.11	28919.66
571.27	29338.62
571.43	29060.09
571.60	29371.38
571.76	29181.80
571.92	29237.97
572.09	29074.13
572.25	29310.53
572.41	29139.67
572.57	29139.67
572.74	29310.53
572.90	29371.38
573.06	29092.86
573.22	29193.50
573.38	29369.04
573.55	29570.33
573.71	29532.88
573.87	29661.61
574.03	29268.40
574.20	29172.44
574.36	29015.62
574.52	29345.64
574.68	29350.32
574.84	29254.36
575.01	29244.99
575.17	29376.06
575.33	29111.58
575.49	29380.74
575.65	29507.13
575.82	29230.95
575.98	29816.08
576.14	29303.51
576.30	29392.45
576.46	29535.22
576.62	29429.90
576.79	29834.81
576.95	29139.67
577.11	29406.49
577.27	29266.06
577.43	29469.69
577.59	29329.25
577.75	29495.43
577.92	29357.34
578.08	29453.30
578.24	29806.72
578.40	29242.65
578.56	29263.72
578.72	29436.92
578.88	29809.06
579.04	29752.89
579.21	29174.78
579.37	29560.97
579.53	29305.85
579.69	29619.48
579.85	29294.14
580.01	29582.03
580.17	29050.73
580.33	29511.81
580.49	29741.19
580.65	29525.86
580.82	29509.47
580.98	29743.53
581.14	29689.70
581.30	29736.51
581.46	29757.57
581.62	29720.12
581.78	29521.18
581.94	29200.52
582.10	29661.61
582.26	29422.87
582.42	29582.03
582.58	29755.23
582.74	29591.39
582.90	29565.65
583.06	29544.58
583.22	29668.63
583.38	29752.89
583.54	29198.18
583.70	29380.74
583.86	29902.68
584.02	29462.66
584.18	29830.13
584.34	29825.45
584.50	29600.76
584.66	29818.42
584.82	29436.92
584.98	29584.37
585.14	29881.62
585.30	29722.46
585.46	29362.02
585.62	29638.20
585.78	29692.04
585.94	29336.27
586.10	29720.12
586.26	29738.85
586.42	29912.05
586.58	29898.00
586.74	29853.53
586.90	29301.17
587.06	29184.14
587.22	29511.81
587.38	29504.79
587.54	29858.21
587.70	29968.22
587.86	29909.71
588.02	29862.90
588.18	30504.20
588.34	30101.63
588.49	29584.37
588.65	29806.72
588.81	29696.72
588.97	29694.38
589.13	29659.27
589.29	29804.38
589.45	29844.17
589.61	29734.17
589.77	29907.37
589.93	30162.48
590.08	30066.52
590.24	30031.41
590.40	30146.10
590.56	30064.18
590.72	29663.95
590.88	29598.41
591.04	29778.64
591.20	30284.19
591.35	30162.48
591.51	30529.95
591.67	30258.45
591.83	30024.39
591.99	30164.82
592.15	30263.13
592.31	30047.80
592.46	29766.93
592.62	29935.45
592.78	30284.19
592.94	30263.13
593.10	30221.00
593.26	30022.05
593.41	30295.89
593.57	30113.33
593.73	29991.62
593.89	30382.49
594.05	30029.07
594.20	30260.79
594.36	29858.21
594.52	29769.27
594.68	29928.43
594.84	29813.74
594.99	30101.63
595.15	30244.40
595.31	30340.36
595.47	30249.08
595.62	30029.07
595.78	29993.97
595.94	29785.66
596.10	30235.04
596.25	30118.01
596.41	30085.25
596.57	29940.13
596.73	29930.77
596.88	29881.62
597.04	30118.01
597.20	30167.16
597.36	30611.87
597.51	30433.99
597.67	29982.26
597.83	30043.12
597.99	30389.52
598.14	30256.11
598.30	30036.09
598.46	30221.00
598.61	30251.42
598.77	29961.20
598.93	30513.56
599.09	30043.12
599.24	30565.06
599.40	30340.36
599.56	30312.28
599.71	30043.12
599.87	30338.02
600.03	29998.65
600.18	29930.77
600.34	30302.92
600.50	30019.71
600.65	29951.84
600.81	30448.03
600.97	30422.28
601.12	30216.32
601.28	30253.76
601.44	30380.15
601.59	30422.28
601.75	30366.11
601.91	30323.98
602.06	30277.17
602.22	30024.39
602.37	29832.47
602.53	30281.85
602.69	30422.28
602.84	30373.13
603.00	30110.99
603.16	30595.48
603.31	30401.22
603.47	30543.99
603.62	30059.50
603.78	30251.42
603.94	30211.64
604.09	30354.41
604.25	30169.51
604.40	30178.87
604.56	30073.54
604.71	30408.24
604.87	29970.56
605.03	30328.66
605.18	30073.54
605.34	30045.46
605.49	30031.41
605.65	30384.83
605.80	30169.51
605.96	29998.65
606.12	30024.39
606.27	30160.14
606.43	29912.05
606.58	30469.09
606.74	30759.32
606.89	30618.89
607.05	30223.34
607.20	30452.71
607.36	30040.78
607.51	30008.01
607.67	29820.77
607.82	30366.11
607.98	29853.53
608.13	29975.24
608.29	29940.13
608.44	30071.20
608.60	30167.16
608.75	30267.81
608.91	30323.98
609.06	30017.37
609.22	30141.42
609.37	29820.77
609.53	29846.51
609.68	30052.48
609.84	29830.13
609.99	29841.83
610.15	29876.94
610.30	29741.19
610.46	30052.48
610.61	30155.46
610.76	30015.03
610.92	30157.80
611.07	29961.20
611.23	29780.98
611.38	30333.34
611.54	29804.38
611.69	29996.31
611.84	29343.30
612.00	29640.54
612.15	29654.59
612.31	29816.08
612.46	29778.64
612.62	29975.24
612.77	29898.00
612.92	30050.14
613.08	29944.81
613.23	29762.25
613.39	29680.33
613.54	29724.80
613.69	29677.99
613.85	29909.71
614.00	29663.95
614.15	29841.83
614.31	29460.32
614.46	29780.98
614.62	29469.69
614.77	29575.01
614.92	29472.03
615.08	29741.19
615.23	30099.29
615.38	29546.92
615.54	29376.06
615.69	29113.92
615.84	29350.32
616.00	29647.57
616.15	29357.34
616.30	29392.45
616.46	29635.86
616.61	29799.70
616.76	29930.77
616.92	29418.19
617.07	29165.42
617.22	29305.85
617.37	29411.17
617.53	29495.43
617.68	29289.46
617.83	29244.99
617.99	29212.23
618.14	29593.73
618.29	29252.02
618.45	29221.59
618.60	29062.43
618.75	28947.75
618.90	29195.84
619.06	29247.33
619.21	29324.57
619.36	29656.93
619.51	28678.58
619.67	28435.17
619.82	28734.76
619.97	28840.08
620.12	28896.25
620.28	28872.85
620.43	29130.31
620.58	29322.23
620.73	29015.62
620.89	28968.81
621.04	29074.13
621.19	29401.81
621.34	28994.56
621.49	28599.01
621.65	29109.24
621.80	29179.46
621.95	28610.71
622.10	28669.22
622.25	29013.28
622.41	28863.49
622.56	28627.09
622.71	29097.54
622.86	28739.44
623.01	28657.52
623.16	28989.88
623.32	28631.77
623.47	29020.30
623.62	28755.82
623.77	28741.78
623.92	28772.21
624.07	28697.31
624.23	28261.97
624.38	28423.47
624.53	28538.15
624.68	29212.23
624.83	28964.13
624.98	28744.12
625.13	28690.29
625.29	28638.80
625.44	28489.00
625.59	28009.19
625.74	28819.02
625.89	28416.44
626.04	28283.03
626.19	28306.44
626.34	28456.23
626.49	28287.71
626.65	28048.98
626.80	28666.88
626.95	28652.84
627.10	28268.99
627.25	28425.81
627.40	28252.61
627.55	27929.61
627.70	28034.94
627.85	27985.79
628.00	27953.02
628.15	27864.08
628.30	28189.41
628.45	28086.43
628.60	27683.86
628.76	28236.22
628.91	28327.50
629.06	28329.84
629.21	28339.21
629.36	28215.16
629.51	27969.40
629.66	27718.96
629.81	27967.06
629.96	27660.45
630.11	27758.75
630.26	27946.00
630.41	27810.25
630.56	27452.14
630.71	27674.49
630.86	28063.02
631.01	27880.46
631.16	27751.73
631.31	27601.94
631.46	27637.05
631.61	27871.10
631.76	27793.86
631.91	27555.13
632.06	27714.28
632.21	27871.10
632.36	27686.20
632.51	27147.87
632.66	27538.74
632.81	27412.35
632.96	27826.63
633.10	27850.03
633.25	27686.20
633.40	27527.04
633.55	27655.77
633.70	27412.35
633.85	27679.18
634.00	27812.59
634.15	27447.46
634.30	27470.87
634.45	27770.46
634.60	27491.93
634.75	27632.36
634.90	27487.25
635.05	27725.99
635.19	27136.17
635.34	27608.96
635.49	27442.78
635.64	27681.52
635.79	27360.86
635.94	27009.78
636.09	27501.29
636.24	27285.97
636.39	27173.62
636.53	27145.53
636.68	27016.80
636.83	26946.59
636.98	27143.19
637.13	27468.53
637.28	27234.47
637.43	27393.63
637.57	27175.96
637.72	27126.81
637.87	27318.73
638.02	27094.04
638.17	26773.39
638.32	26878.71
638.46	26883.39
638.61	26747.64
638.76	26518.27
638.91	26892.76
639.06	26815.52
639.20	27094.04
639.35	26604.87
639.50	26859.99
639.65	26920.84
639.80	27220.43
639.94	26658.70
640.09	26930.20
640.24	27072.98
640.39	26565.08
640.54	26824.88
640.68	26649.34
640.83	26855.31
640.98	26499.55
641.13	26539.33
641.27	26675.09
641.42	26309.96
641.57	26913.82
641.72	26749.98
641.86	26703.17
642.01	26366.13
642.16	26326.35
642.31	26426.99
642.45	26544.02
642.60	26630.62
642.75	26553.38
642.90	26150.81
643.04	26352.09
643.19	25937.82
643.34	26504.23
643.48	26441.03
643.63	26328.69
643.78	26333.37
643.93	26492.52
644.07	26625.93
644.22	26333.37
644.37	26527.63
644.51	26249.11
644.66	26047.82
644.81	26089.95
644.95	26202.30
645.10	26005.69
645.25	26036.12
645.39	26050.16
645.54	26153.15
645.69	25937.82
645.83	25956.54
645.98	26038.46
646.13	26431.67
646.27	26263.15
646.42	25830.15
646.57	26038.46
646.71	26256.13
646.86	26029.10
647.00	26148.46
647.15	26036.12
647.30	25743.55
647.44	26553.38
647.59	25560.99
647.74	25792.70
647.88	25937.82
648.03	26333.37
648.17	26038.46
648.32	26024.42
648.47	26190.59
648.61	25869.94
648.76	26080.59
648.90	25923.77
649.05	25869.94
649.20	25823.13
649.34	25837.17
649.49	25666.31
649.63	25912.07
649.78	25689.72
649.92	25675.68
650.07	25656.95
650.21	25731.85
650.36	25720.15
650.51	25575.03
650.65	25589.08
650.80	25287.15
650.94	25523.54
651.09	25481.41
651.23	25443.96
651.38	25516.52
651.52	25474.39
651.67	25242.68
651.81	25525.88
651.96	25460.35
652.10	25312.89
652.25	25460.35
652.39	25694.40
652.54	25577.37
652.68	25509.50
652.83	25666.31
652.97	25696.74
653.12	25591.42
653.26	25537.59
653.41	25340.98
653.55	25385.45
653.70	25212.25
653.84	25090.54
653.99	25249.70
654.13	25301.19
654.27	25127.99
654.42	25490.77
654.56	25209.91
654.71	25216.93
654.85	25291.83
655.00	25242.68
655.14	25163.10
655.29	25226.29
655.43	25186.50
655.57	25050.75
655.72	25025.01
655.86	24872.87
656.01	24830.74
656.15	25029.69
656.30	24929.05
656.44	24879.89
656.58	24987.56
656.73	24856.49
656.87	25015.65
657.01	24884.58
657.16	24662.22
657.30	24961.81
657.45	24931.39
657.59	25095.22
657.73	24865.85
657.88	25041.39
658.02	24910.32
658.16	24725.42
658.31	24692.65
658.45	24926.71
658.60	24369.66
658.74	24479.66
658.88	24449.24
659.03	24500.73
659.17	24521.79
659.31	24542.86
659.46	24432.85
659.60	24664.57
659.74	24374.34
659.89	24339.23
660.03	24264.33
660.17	24709.04
660.32	24350.93
660.46	24283.06
660.60	24063.05
660.74	24505.41
660.89	24070.07
661.03	24056.03
661.17	24208.16
661.32	23957.72
661.46	24161.35
661.60	23824.31
661.74	24102.84
661.89	23920.28
662.03	24177.73
662.17	24081.77
662.31	24346.25
662.46	24222.20
662.60	23927.30
662.74	23885.17
662.88	23772.82
663.03	23716.65
663.17	23782.18
663.31	23587.92
663.45	23295.35
663.60	23396.00
663.74	23503.66
663.88	23630.05
664.02	23440.47
664.17	23702.61
664.31	23344.50
664.45	23552.81
664.59	23440.47
664.73	23669.84
664.88	23374.93
665.02	22888.10
665.16	23625.37
665.30	23569.19
665.44	23232.16
665.59	23522.38
665.73	23356.21
665.87	23147.90
666.01	23190.03
666.15	23379.61
666.29	23117.47
666.44	23108.11
666.58	22810.86
666.72	22993.42
666.86	22892.78
667.00	23407.70
667.14	23157.26
667.28	22759.37
667.43	22782.77
667.57	23009.81
667.71	22581.49
667.85	22663.41
667.99	22838.95
668.13	22836.61
668.27	22682.13
668.41	22579.15
668.56	22155.51
668.70	22656.39
668.84	22838.95
668.98	22689.15
669.12	22501.91
669.26	22803.84
669.40	22309.99
669.54	22396.59
669.68	22286.58
669.82	22518.29
669.96	22284.24
670.10	22085.30
670.25	21867.63
670.39	22136.79
670.53	22139.13
670.67	22054.87
670.81	22214.02
670.95	21916.78
671.09	21867.63
671.23	21923.80
671.37	22167.21
671.51	21879.33
671.65	21996.35
671.79	21563.36
671.93	21518.89
672.07	22097.00
672.21	21806.77
672.35	21596.12
672.49	21556.33
672.63	21656.98
672.77	21355.05
672.91	21120.99
673.05	21296.53
673.19	21514.20
673.33	21366.75
673.47	21025.03
673.61	21415.90
673.75	21488.46
673.89	21298.88
674.03	21280.15
674.17	20863.54
674.31	21200.57
674.45	21081.21
674.59	21069.50
674.73	21242.70
674.87	21118.65
675.01	20732.47
675.15	20769.91
675.29	20624.80
675.43	20650.55
675.56	20739.49
675.70	20702.04
675.84	20512.46
675.98	20180.10
676.12	20819.07
676.26	20896.30
676.40	20718.42
676.54	20322.87
676.68	20313.51
676.82	20067.75
676.96	20240.95
677.10	20322.87
677.23	20137.97
677.37	19812.63
677.51	19899.23
677.65	19976.47
677.79	19754.12
677.93	19955.41
678.07	19538.79
678.21	19389.00
678.34	19695.61
678.48	19410.06
678.62	19278.99
678.76	19412.40
678.90	19585.60
679.04	19601.99
679.18	19419.42
679.31	18965.36
679.45	19154.94
679.59	19091.75
679.73	19136.22
679.87	19084.73
680.00	18986.43
680.14	19115.16
680.28	18845.99
680.42	18827.27
680.56	19061.32
680.70	18764.07
680.83	19080.05
680.97	18595.56
681.11	18270.22
681.25	18693.86
681.39	18335.76
681.52	18288.95
681.66	18281.92
681.80	18090.00
681.94	18298.31
682.07	17944.89
682.21	18204.69
682.35	17558.70
682.49	18148.51
682.62	17802.11
682.76	17860.63
682.90	17865.31
683.04	17872.33
683.17	17970.63
683.31	17310.60
683.45	17745.94
683.59	17584.44
683.72	17568.06
683.86	17717.86
684.00	17497.84
684.13	17411.25
684.27	17214.64
684.41	17125.70
684.55	16971.22
684.68	16868.24
684.82	17003.99
684.96	17029.74
685.09	16868.24
685.23	16982.93
685.37	16645.89
685.50	17125.70
685.64	16837.81
685.78	16947.82
685.91	16868.24
686.05	16940.80
686.19	16638.87
686.32	16498.44
686.46	16149.70
686.60	16444.60
686.73	16545.25
686.87	16238.64
687.01	16325.24
687.14	15852.45
687.28	16004.58
687.42	16098.20
687.55	16058.42
687.69	16107.57
687.82	16250.34
687.96	16037.35
688.10	15449.88
688.23	15815.00
688.37	15606.69
688.50	15826.70
688.64	15955.43
688.78	15693.29
688.91	15335.19
689.05	15503.71
689.18	15555.20
689.32	14867.08
689.46	15370.30
689.59	15194.76
689.73	15101.14
689.86	15225.18
690.00	14953.68
690.13	15365.62
690.27	15089.43
690.41	15171.35
690.54	15012.20
690.68	14661.12
690.81	14956.02
690.95	14937.30
691.08	14810.91
691.22	14565.15
691.35	14876.44
691.49	14658.78
691.62	14626.01
691.76	14375.57
691.89	14679.84
692.03	14335.78
692.16	14429.40
692.30	14122.79
692.43	14181.31
692.57	14085.34
692.70	13963.64
692.84	13785.76
692.97	14071.30
693.11	14174.28
693.24	14043.21
693.38	13816.18
693.51	13872.36
693.65	13748.31
693.78	13565.74
693.92	13645.32
694.05	13586.81
694.19	13418.29
694.32	13315.31
694.45	13671.07
694.59	13369.14
694.72	13064.87
694.86	13329.35
694.99	13144.45
695.13	12996.99
695.26	13226.37
695.39	13008.70
695.53	12994.65
695.66	13034.44
695.80	12798.05
695.93	13090.62
696.07	12982.95
696.20	12798.05
696.33	12765.28
696.47	12470.37
696.60	12884.65
696.73	12535.91
696.87	12519.53
697.00	12507.82
697.14	12346.33
697.27	12067.80
697.40	12336.96
697.54	11990.56
697.67	12154.40
697.80	12086.53
697.94	11932.05
698.07	11850.13
698.21	11712.04
698.34	11960.14
698.47	11939.07
698.61	12095.89
698.74	11927.37
698.87	12046.74
699.01	11892.26
699.14	11632.46
699.27	11606.72
699.40	11557.57
699.54	11597.35
699.67	11353.94
699.80	11744.81
699.94	11166.70
700.07	11260.32
700.20	11037.97
700.34	11117.54
700.47	11227.55
700.60	11201.80
700.73	11330.53
700.87	10977.11
701.00	10984.13
701.13	10878.81
701.26	10878.81
701.40	11089.46
701.53	10956.05
701.66	11101.16
701.79	10654.12
701.93	10686.89
702.06	10532.41
702.19	10462.19
702.32	10380.28
702.46	10363.89
702.59	10263.25
702.72	10216.44
702.85	10083.03
702.99	10249.21
703.12	10225.80
703.25	10232.82
703.38	10122.82
703.51	10167.29
703.65	10263.25
703.78	10169.63
703.91	9998.77
704.04	10178.99
704.17	9951.96
704.31	10040.90
704.44	9973.02
704.57	9748.33
704.70	9626.62
704.83	9731.95
704.96	9579.81
705.10	9589.17
705.23	9462.79
>>>>>End Processed Spectral Data<<<<<
