SpectraSuite Data File
++++++++++++++++++++++++++++++++++++
Date: Fri Oct 18 13:58:36 GMT-05:00 2013
User: bianchi
Dark Spectrum Present: No
Reference Spectrum Present: No
Number of Sampled Component Spectra: 1
Spectrometers: USB2+H05261
Integration Time (usec): 50000 (USB2+H05261)
Spectra Averaged: 1 (USB2+H05261)
Boxcar Smoothing: 0 (USB2+H05261)
Correct for Electrical Dark: No (USB2+H05261)
Strobe/Lamp Enabled: No (USB2+H05261)
Correct for Detector Non-linearity: No (USB2+H05261)
Correct for Stray Light: No (USB2+H05261)
Number of Pixels in Processed Spectrum: 2048
>>>>>Begin Processed Spectral Data<<<<<
365.73	0.00
365.92	0.00
366.12	0.00
366.32	0.00
366.52	0.00
366.72	0.00
366.91	0.00
367.11	0.00
367.31	0.00
367.51	0.00
367.70	0.00
367.90	0.00
368.10	0.00
368.30	0.00
368.49	0.00
368.69	0.00
368.89	0.00
369.09	0.00
369.28	0.00
369.48	0.00
369.68	0.00
369.87	0.00
370.07	0.00
370.27	0.00
370.47	28.09
370.66	32.77
370.86	14.04
371.06	156.82
371.25	166.18
371.45	88.94
371.65	135.75
371.84	58.51
372.04	173.20
372.24	149.79
372.44	175.54
372.63	243.42
372.83	252.78
373.03	184.90
373.22	224.69
373.42	177.88
373.62	229.37
373.81	280.86
374.01	184.90
374.21	257.46
374.40	234.05
374.60	229.37
374.79	227.03
374.99	278.52
375.19	278.52
375.38	189.58
375.58	205.97
375.78	266.82
375.97	278.52
376.17	220.01
376.37	222.35
376.56	222.35
376.76	294.91
376.95	217.67
377.15	238.73
377.35	266.82
377.54	241.08
377.74	215.33
377.93	273.84
378.13	262.14
378.33	311.29
378.52	203.63
378.72	344.06
378.91	257.46
379.11	306.61
379.31	245.76
379.50	285.55
379.70	280.86
379.89	315.97
380.09	215.33
380.28	327.68
380.48	355.76
380.68	306.61
380.87	299.59
381.07	273.84
381.26	346.40
381.46	294.91
381.65	245.76
381.85	339.38
382.04	318.31
382.24	292.57
382.43	362.78
382.63	313.63
382.83	287.89
383.02	332.36
383.22	376.83
383.41	322.99
383.61	353.42
383.80	332.36
384.00	334.70
384.19	325.33
384.39	362.78
384.58	360.44
384.78	365.12
384.97	355.76
385.17	376.83
385.36	475.13
385.56	454.06
385.75	390.87
385.95	404.91
386.14	442.36
386.34	433.00
386.53	447.04
386.72	341.72
386.92	423.64
387.11	458.74
387.31	397.89
387.50	346.40
387.70	353.42
387.89	435.34
388.09	433.00
388.28	433.00
388.48	528.96
388.67	418.96
388.86	463.43
389.06	416.62
389.25	510.24
389.45	470.45
389.64	409.59
389.84	486.83
390.03	524.28
390.22	526.62
390.42	486.83
390.61	418.96
390.81	484.49
391.00	477.47
391.19	519.60
391.39	444.70
391.58	486.83
391.78	489.17
391.97	610.88
392.16	624.92
392.36	458.74
392.55	538.32
392.75	498.53
392.94	512.58
393.13	538.32
393.33	566.41
393.52	435.34
393.71	613.22
393.91	557.05
394.10	587.47
394.29	585.13
394.49	606.20
394.68	543.00
394.88	557.05
395.07	543.00
395.26	601.52
395.46	608.54
395.65	702.16
395.84	645.99
396.04	603.86
396.23	629.60
396.42	645.99
396.62	648.33
396.81	645.99
397.00	613.22
397.19	641.31
397.39	699.82
397.58	695.14
397.77	643.65
397.97	648.33
398.16	594.50
398.35	702.16
398.55	704.50
398.74	753.65
398.93	697.48
399.12	713.86
399.32	615.56
399.51	770.04
399.70	781.74
399.90	795.78
400.09	734.93
400.28	772.38
400.47	751.31
400.67	699.82
400.86	723.23
401.05	795.78
401.24	791.10
401.44	873.02
401.63	730.25
401.82	784.08
402.01	777.06
402.21	786.42
402.40	847.27
402.59	887.06
402.78	833.23
402.97	800.46
403.17	837.91
403.36	887.06
403.55	929.19
403.74	793.44
403.93	964.30
404.13	931.53
404.32	816.85
404.51	894.08
404.70	877.70
404.89	971.32
405.09	884.72
405.28	952.60
405.47	985.37
405.66	933.87
405.85	1076.65
406.05	976.00
406.24	952.60
406.43	1015.79
406.62	1050.90
406.81	1067.28
407.00	1011.11
407.20	1018.13
407.39	1144.52
407.58	1027.50
407.77	933.87
407.96	1102.39
408.15	1053.24
408.34	1034.52
408.54	1060.26
408.73	1057.92
408.92	1111.75
409.11	1184.31
409.30	1048.56
409.49	1109.41
409.68	1132.82
409.87	1165.59
410.07	1210.06
410.26	1125.80
410.45	1245.16
410.64	1217.08
410.83	1163.25
411.02	1214.74
411.21	1294.32
411.40	1217.08
411.59	1254.53
411.78	1212.40
411.98	1277.93
412.17	1259.21
412.36	1364.53
412.55	1327.08
412.74	1275.59
412.93	1364.53
413.12	1352.83
413.31	1439.43
413.50	1334.11
413.69	1352.83
413.88	1376.24
414.07	1437.09
414.26	1486.24
414.45	1441.77
414.64	1451.13
414.83	1469.86
415.02	1537.73
415.22	1568.16
415.41	1535.39
415.60	1514.33
415.79	1591.56
415.98	1682.85
416.17	1561.14
416.36	1523.69
416.55	1593.90
416.74	1629.01
416.93	1636.03
417.12	1661.78
417.31	1729.66
417.50	1727.32
417.69	1724.97
417.88	1699.23
418.07	1736.68
418.26	1692.21
418.45	1673.48
418.64	1710.93
418.83	1755.40
419.02	1795.19
419.21	1769.44
419.39	1830.30
419.58	1776.47
419.77	1832.64
419.96	1865.41
420.15	1825.62
420.34	1797.53
420.53	1783.49
420.72	1912.22
420.91	1797.53
421.10	2026.90
421.29	1942.64
421.48	1825.62
421.67	1959.03
421.86	1954.35
422.05	1916.90
422.24	1963.71
422.43	2024.56
422.61	2029.24
422.80	1973.07
422.99	1912.22
423.18	2071.37
423.37	1975.41
423.56	1942.64
423.75	2010.52
423.94	1961.37
424.13	1832.64
424.32	1907.54
424.50	2073.71
424.69	2071.37
424.88	2101.80
425.07	1991.80
425.26	1987.11
425.45	1959.03
425.64	2059.67
425.83	1977.75
426.01	2127.55
426.20	2066.69
426.39	2115.84
426.58	2073.71
426.77	2080.74
426.96	2071.37
427.15	2080.74
427.33	2221.17
427.52	2132.23
427.71	2104.14
427.90	2141.59
428.09	2153.29
428.28	2122.87
428.46	2296.07
428.65	2279.68
428.84	2275.00
429.03	2242.23
429.22	2270.32
429.40	2120.53
429.59	2202.44
429.78	2092.44
429.97	2209.47
430.16	2143.93
430.34	2291.38
430.53	2513.74
430.72	2286.70
430.91	2223.51
431.10	2275.00
431.28	2375.64
431.47	2282.02
431.66	2359.26
431.85	2289.04
432.03	2429.48
432.22	2452.88
432.41	2331.17
432.60	2480.97
432.79	2466.92
432.97	2406.07
433.16	2375.64
433.35	2452.88
433.54	2513.74
433.72	2464.58
433.91	2476.29
434.10	2457.56
434.28	2396.71
434.47	2513.74
434.66	2651.83
434.85	2434.16
435.03	2518.42
435.22	2628.42
435.41	2572.25
435.59	2544.16
435.78	2658.85
435.97	2719.70
436.16	2675.23
436.34	2686.94
436.53	2612.04
436.72	2789.92
436.90	2609.70
437.09	2665.87
437.28	2647.15
437.46	2677.57
437.65	2715.02
437.84	2806.30
438.02	2841.41
438.21	2843.75
438.40	2700.98
438.58	2825.03
438.77	2871.84
438.96	2820.35
439.14	2972.48
439.33	2911.63
439.52	3000.57
439.70	3000.57
439.89	2904.60
440.08	2963.12
440.26	3047.38
440.45	3059.08
440.63	3101.21
440.82	3248.66
441.01	3089.51
441.19	3075.46
441.38	3155.04
441.57	3192.49
441.75	3087.17
441.94	3274.41
442.12	3143.34
442.31	3321.22
442.50	3293.13
442.68	3159.72
442.87	3251.00
443.05	3239.30
443.24	3288.45
443.43	3351.65
443.61	3389.10
443.80	3400.80
443.98	3396.12
444.17	3304.84
444.35	3391.44
444.54	3494.42
444.73	3452.29
444.91	3445.27
445.10	3424.20
445.28	3332.92
445.47	3323.56
445.65	3454.63
445.84	3456.97
446.02	3449.95
446.21	3389.10
446.39	3478.04
446.58	3639.53
446.77	3410.16
446.95	3456.97
447.14	3412.50
447.32	3522.51
447.51	3574.00
447.69	3534.21
447.88	3494.42
448.06	3431.23
448.25	3475.70
448.43	3566.98
448.62	3339.94
448.80	3379.73
448.99	3475.70
449.17	3651.24
449.36	3552.93
449.54	3653.58
449.73	3719.11
449.91	3662.94
450.10	3651.24
450.28	3623.15
450.46	3796.35
450.65	3632.51
450.83	3857.20
451.02	3695.71
451.20	3786.99
451.39	3812.73
451.57	3700.39
451.76	3826.78
451.94	3726.13
452.13	3915.72
452.31	3805.71
452.49	3786.99
452.68	3878.27
452.86	3770.60
453.05	3911.04
453.23	4098.28
453.42	3850.18
453.60	3911.04
453.78	3871.25
453.97	3826.78
454.15	3943.80
454.34	3840.82
454.52	4077.21
454.70	3950.82
454.89	3999.98
455.07	4056.15
455.26	3957.85
455.44	4016.36
455.62	4156.79
455.81	4067.85
455.99	4142.75
456.17	4098.28
456.36	4107.64
456.54	4025.72
456.73	4121.68
456.91	4337.01
457.09	4365.10
457.28	4365.10
457.46	4266.80
457.64	4322.97
457.83	4329.99
458.01	4299.56
458.19	4432.97
458.38	4362.76
458.56	4337.01
458.74	4603.83
458.93	4475.10
459.11	4470.42
459.29	4355.74
459.48	4526.60
459.66	4482.13
459.84	4606.17
460.03	4571.07
460.21	4594.47
460.39	4580.43
460.57	4337.01
460.76	4533.62
460.94	4578.09
461.12	4606.17
461.31	4589.79
461.49	4606.17
461.67	4643.62
461.85	4662.35
462.04	4582.77
462.22	4697.46
462.40	4875.34
462.59	4753.63
462.77	4723.20
462.95	4732.56
463.13	4840.23
463.32	4791.08
463.50	4802.78
463.68	4868.31
463.86	4896.40
464.05	4767.67
464.23	4709.16
464.41	4744.27
464.59	4802.78
464.78	4840.23
464.96	4947.89
465.14	4912.78
465.32	4936.19
465.50	4990.02
465.69	4978.32
465.87	4926.83
466.05	4994.70
466.23	4940.87
466.41	4992.36
466.60	5217.05
466.78	4968.96
466.96	4992.36
467.14	4854.27
467.32	5011.09
467.51	5078.96
467.69	5109.39
467.87	5125.77
468.05	5156.20
468.23	5144.50
468.41	5235.78
468.60	5205.35
468.78	5149.18
468.96	5188.97
469.14	5210.03
469.32	5313.02
469.50	5219.39
469.69	5320.04
469.87	5605.58
470.05	5317.70
470.23	5188.97
470.41	5308.34
470.59	5455.79
470.77	5432.38
470.95	5486.22
471.14	5582.18
471.32	5497.92
471.50	5568.13
471.68	5469.83
471.86	5624.31
472.04	5643.03
472.22	5687.50
472.40	5724.95
472.58	5657.07
472.77	5886.45
472.95	5809.21
473.13	5966.03
473.31	5785.80
473.49	5802.19
473.67	5954.32
473.85	5933.26
474.03	5884.11
474.21	6005.81
474.39	6073.69
474.57	6141.57
474.75	6169.65
474.93	5991.77
475.12	6216.46
475.30	6183.70
475.48	6136.88
475.66	6179.01
475.84	6045.60
476.02	6359.24
476.20	6487.96
476.38	6410.73
476.56	6604.99
476.74	6490.31
476.92	6572.22
477.10	6518.39
477.28	6621.38
477.46	6382.64
477.64	6724.36
477.82	6843.73
478.00	6825.00
478.18	6644.78
478.36	7012.24
478.54	7000.54
478.72	7105.87
478.90	7000.54
479.08	7148.00
479.26	7236.94
479.44	7019.27
479.62	7421.84
479.80	7206.51
479.98	7452.27
480.16	7473.33
480.34	7353.96
480.52	7623.12
480.70	7609.08
480.88	7566.95
481.06	7772.92
481.24	7489.71
481.41	7859.52
481.59	7934.42
481.77	7857.18
481.95	7953.14
482.13	8002.29
482.31	8025.70
482.49	8294.86
482.67	8248.05
482.85	8505.51
483.03	8421.25
483.21	8601.47
483.39	8535.93
483.57	8659.98
483.74	8751.26
483.92	8779.35
484.10	8685.73
484.28	8830.84
484.46	8973.61
484.64	9060.21
484.82	8858.93
485.00	9266.18
485.18	8957.23
485.35	9621.94
485.53	9310.65
485.71	9254.48
485.89	9647.69
486.07	9460.45
486.25	9671.09
486.43	9628.96
486.61	9650.03
486.78	9881.74
486.96	9769.40
487.14	10099.41
487.32	9870.04
487.50	10125.16
487.68	10230.48
487.85	10384.96
488.03	10335.81
488.21	10581.56
488.39	10464.54
488.57	10464.54
488.75	10736.04
488.92	10803.91
489.10	10724.33
489.28	10792.21
489.46	11026.26
489.64	11204.14
489.81	11382.03
489.99	11239.25
490.17	11243.93
490.35	11466.28
490.53	11468.62
490.70	11616.08
490.88	11655.87
491.06	11709.70
491.24	11674.59
491.41	11969.50
491.59	11751.83
491.77	11646.51
491.95	11913.33
492.13	12215.26
492.30	12266.75
492.48	12404.84
492.66	12453.99
492.84	12264.41
493.01	12346.33
493.19	12594.42
493.37	12748.90
493.54	12959.55
493.72	12791.03
493.90	12842.52
494.08	13181.90
494.25	13020.40
494.43	13109.34
494.61	13200.62
494.79	13359.78
494.96	13282.54
495.14	13085.94
495.32	13383.18
495.49	13727.24
495.67	13525.96
495.85	13598.51
496.02	13713.20
496.20	13949.59
496.38	13687.45
496.55	13699.16
496.73	13951.93
496.91	14129.81
497.09	14087.68
497.26	14281.95
497.44	14473.87
497.62	14410.68
497.79	14478.55
497.97	14611.96
498.14	14677.50
498.32	14759.42
498.50	14848.36
498.67	14932.62
498.85	14831.97
499.03	15300.08
499.20	15131.56
499.38	14752.40
499.56	15154.97
499.73	15386.68
499.91	15428.81
500.08	15449.88
500.26	15407.75
500.44	15522.43
500.61	15602.01
500.79	15421.79
500.97	15501.37
501.14	16051.39
501.32	15805.64
501.49	15613.71
501.67	15573.92
501.84	16236.30
502.02	15988.20
502.20	15831.38
502.37	16056.08
502.55	16056.08
502.72	16093.52
502.90	16004.58
503.07	15815.00
503.25	16128.63
503.43	16180.12
503.60	16545.25
503.78	16346.30
503.95	16292.47
504.13	16636.53
504.30	16615.46
504.48	16341.62
504.65	16769.94
504.83	17104.64
505.01	17106.98
505.18	17228.68
505.36	17212.30
505.53	16840.15
505.71	17088.25
505.88	17151.45
506.06	17287.20
506.23	17465.08
506.41	17252.09
506.58	17425.29
506.76	17577.42
506.93	17436.99
507.11	17366.78
507.28	17322.30
507.46	17514.23
507.63	17678.07
507.81	17771.69
507.98	17708.49
508.16	17898.08
508.33	17790.41
508.50	17802.11
508.68	17980.00
508.85	18181.28
509.03	18431.72
509.20	18251.50
509.38	18272.56
509.55	18441.08
509.73	18377.89
509.90	18544.06
510.08	18181.28
510.25	18476.19
510.42	18387.25
510.60	18679.82
510.77	18848.33
510.95	18726.63
511.12	18923.23
511.30	18897.49
511.47	19077.71
511.64	18874.08
511.82	18937.27
511.99	18803.86
512.17	19232.18
512.34	19190.05
512.51	19094.09
512.69	19211.12
512.86	19222.82
513.04	19386.66
513.21	19517.73
513.38	19377.30
513.56	19730.72
513.73	19414.74
513.90	19527.09
514.08	19480.28
514.25	19950.73
514.43	19604.33
514.60	19557.52
514.77	19894.55
514.95	19967.11
515.12	19866.47
515.29	19468.58
515.47	19953.07
515.64	19906.26
515.81	19765.82
515.99	20006.90
516.16	20353.30
516.33	20617.78
516.51	20561.61
516.68	20154.35
516.85	20231.59
517.03	20229.25
517.20	20531.18
517.37	20589.69
517.54	20402.45
517.72	20573.31
517.89	20374.36
518.06	20390.75
518.24	20854.17
518.41	20755.87
518.58	20968.86
518.75	20898.64
518.93	20968.86
519.10	20814.38
519.27	21015.67
519.45	21034.39
519.62	20952.48
519.79	21053.12
519.96	21184.19
520.14	21254.40
520.31	21238.02
520.48	21198.23
520.65	21163.12
520.83	21177.17
521.00	21261.43
521.17	21504.84
521.34	21172.49
521.52	21200.57
521.69	21537.61
521.86	21647.61
522.03	22015.08
522.20	22026.78
522.38	21771.66
522.55	21717.83
522.72	22073.59
522.89	21956.57
523.07	21951.88
523.24	22286.58
523.41	22244.45
523.58	21832.52
523.75	21933.16
523.92	22150.83
524.10	21949.54
524.27	22258.49
524.44	22214.02
524.61	22387.22
524.78	22499.57
524.96	22054.87
525.13	22455.10
525.30	22670.43
525.47	22511.27
525.64	22214.02
525.81	22546.38
525.98	22654.05
526.16	22661.07
526.33	22717.24
526.50	23168.96
526.67	22735.96
526.84	22787.46
527.01	22792.14
527.18	23002.78
527.36	23084.70
527.53	22944.27
527.70	23513.02
527.87	22878.74
528.04	23384.29
528.21	23253.22
528.38	22991.08
528.55	23208.75
528.72	23241.52
528.89	23379.61
529.07	23400.68
529.24	23346.84
529.41	23204.07
529.58	23054.28
529.75	23524.72
529.92	23232.16
530.09	23463.87
530.26	23309.40
530.43	23833.68
530.60	23302.37
530.77	23812.61
530.94	23892.19
531.11	23718.99
531.28	23646.43
531.46	23768.14
531.63	23819.63
531.80	23873.46
531.97	23950.70
532.14	23807.93
532.31	24072.41
532.48	24006.87
532.65	24107.52
532.82	23931.98
532.99	24166.03
533.16	24105.18
533.33	24243.27
533.50	24669.25
533.67	24414.13
533.84	23934.32
534.01	23978.79
534.18	24250.29
534.35	24383.70
534.52	24292.42
534.69	24587.33
534.86	24570.94
535.03	24479.66
535.20	24613.07
535.37	24505.41
535.54	24879.89
535.71	24725.42
535.88	24739.46
536.05	24482.00
536.22	25039.05
536.38	25032.03
536.55	24767.55
536.72	24985.22
536.89	24793.29
537.06	24870.53
537.23	25118.63
537.40	24870.53
537.57	24800.32
537.74	25191.19
537.91	25446.30
538.08	25345.66
538.25	25348.00
538.42	25453.33
538.59	25458.01
538.75	25348.00
538.92	25142.03
539.09	25275.45
539.26	25366.73
539.43	25532.90
539.60	25504.82
539.77	25226.29
539.94	25486.09
540.11	25516.52
540.28	25539.93
540.44	25663.97
540.61	25240.34
540.78	25172.46
540.95	25654.61
541.12	25741.21
541.29	25593.76
541.46	25532.90
541.62	25394.81
541.79	25755.26
541.96	25521.20
542.13	25773.98
542.30	25975.27
542.47	26073.57
542.63	26426.99
542.80	26071.23
542.97	25982.29
543.14	26403.58
543.31	26106.34
543.48	26373.16
543.64	26494.86
543.81	26527.63
543.98	26562.74
544.15	26403.58
544.32	26855.31
544.48	26787.43
544.65	26426.99
544.82	26644.66
544.99	26448.05
545.16	26628.27
545.32	26146.12
545.49	26562.74
545.66	27271.92
545.83	26712.53
546.00	26930.20
546.16	26918.50
546.33	26455.08
546.50	26052.50
546.67	26574.44
546.83	26424.65
547.00	26810.84
547.17	26815.52
547.34	26890.41
547.50	26939.57
547.67	27295.33
547.84	26663.38
548.00	26824.88
548.17	26998.08
548.34	26705.51
548.51	27262.56
548.67	27222.77
548.84	27576.19
549.01	27131.49
549.18	27063.61
549.34	26941.91
549.51	27384.27
549.68	27356.18
549.84	27449.80
550.01	27061.27
550.18	27424.06
550.34	27211.07
550.51	27400.65
550.68	27524.70
550.84	27115.11
551.01	27466.19
551.18	27234.47
551.34	27316.39
551.51	27407.67
551.68	27494.27
551.84	27850.03
552.01	27623.00
552.18	27473.21
552.34	27927.27
552.51	27405.33
552.68	27751.73
552.84	27697.90
553.01	27997.49
553.18	27847.69
553.34	27660.45
553.51	27644.07
553.67	28004.51
553.84	28034.94
554.01	27936.63
554.17	27901.53
554.34	27747.05
554.51	27625.34
554.67	27749.39
554.84	28020.89
555.00	27756.41
555.17	27873.44
555.33	28121.54
555.50	28264.31
555.67	28175.37
555.83	28025.57
556.00	28067.70
556.16	28315.80
556.33	27953.02
556.50	27899.19
556.66	28369.63
556.83	28332.18
556.99	28474.96
557.16	28971.15
557.32	28357.93
557.49	28701.99
557.65	28353.25
557.82	28261.97
557.98	28400.06
558.15	28467.94
558.32	28624.75
558.48	28671.56
558.65	28552.20
558.81	28531.13
558.98	28407.08
559.14	28374.31
559.31	28390.70
559.47	28589.64
559.64	28402.40
559.80	28711.35
559.97	28919.66
560.13	28046.64
560.30	28945.41
560.46	28470.28
560.63	28790.93
560.79	28706.67
560.96	28725.39
561.12	28786.25
561.29	28762.84
561.45	28615.39
561.61	28875.19
561.78	28739.44
561.94	29158.39
562.11	28982.85
562.27	28931.36
562.44	28741.78
562.60	28823.70
562.77	28809.65
562.93	28800.29
563.10	29296.49
563.26	28795.61
563.42	28936.04
563.59	29043.71
563.75	29029.66
563.92	28959.45
564.08	28868.17
564.24	29123.29
564.41	28723.05
564.57	28968.81
564.74	29013.28
564.90	29181.80
565.07	28922.00
565.23	29209.89
565.39	29186.48
565.56	29455.64
565.72	29139.67
565.88	28966.47
566.05	28760.50
566.21	28875.19
566.38	28961.79
566.54	29385.43
566.70	29020.30
566.87	29118.60
567.03	29010.94
567.19	29230.95
567.36	29235.63
567.52	29226.27
567.68	29345.64
567.85	29298.83
568.01	29170.10
568.17	29001.58
568.34	29226.27
568.50	29275.42
568.66	29240.31
568.83	29483.73
568.99	29158.39
569.15	29104.56
569.32	29308.19
569.48	29338.62
569.64	29200.52
569.81	29518.84
569.97	29366.70
570.13	29446.28
570.30	28999.24
570.46	29544.58
570.62	29734.17
570.78	29277.76
570.95	29530.54
571.11	29584.37
571.27	29130.31
571.43	29184.14
571.60	29507.13
571.76	29296.49
571.92	29865.24
572.09	29624.16
572.25	29305.85
572.41	29600.76
572.57	29160.73
572.74	29589.05
572.90	29266.06
573.06	29448.62
573.22	29212.23
573.38	29123.29
573.55	29802.04
573.71	30237.38
573.87	29575.01
574.03	29457.98
574.20	29689.70
574.36	29053.07
574.52	29221.59
574.68	29331.59
574.84	29820.77
575.01	29893.32
575.17	29462.66
575.33	29818.42
575.49	29638.20
575.65	29411.17
575.82	29958.86
575.98	29429.90
576.14	29617.14
576.30	29776.30
576.46	29500.11
576.62	29649.91
576.79	29443.94
576.95	29535.22
577.11	29965.88
577.27	29895.66
577.43	30019.71
577.59	29972.90
577.75	30218.66
577.92	29362.02
578.08	29376.06
578.24	29036.69
578.40	29420.53
578.56	29734.17
578.72	29701.40
578.88	30298.23
579.04	29722.46
579.21	29680.33
579.37	29670.97
579.53	29710.76
579.69	29619.48
579.85	29432.24
580.01	29865.24
580.17	29212.23
580.33	29699.06
580.49	29872.26
580.65	29883.96
580.82	29984.60
580.98	29804.38
581.14	30162.48
581.30	29895.66
581.46	29823.11
581.62	29860.55
581.78	29591.39
581.94	29858.21
582.10	29687.36
582.26	29596.07
582.42	29865.24
582.58	30096.95
582.74	30038.44
582.90	30066.52
583.06	29734.17
583.22	30031.41
583.38	29848.85
583.54	29890.98
583.70	29867.58
583.86	29982.26
584.02	29825.45
584.18	29982.26
584.34	30265.47
584.50	29986.94
584.66	29624.16
584.82	29724.80
584.98	29869.92
585.14	29993.97
585.30	29467.34
585.46	29898.00
585.62	29460.32
585.78	30029.07
585.94	29544.58
586.10	29755.23
586.26	29692.04
586.42	30373.13
586.58	30108.65
586.74	30066.52
586.90	29872.26
587.06	29923.75
587.22	29741.19
587.38	29528.20
587.54	30164.82
587.70	30368.45
587.86	30235.04
588.02	30115.67
588.18	30382.49
588.34	30089.93
588.49	30066.52
588.65	29654.59
588.81	29689.70
588.97	30221.00
589.13	30178.87
589.29	29876.94
589.45	30188.23
589.61	30246.74
589.77	30398.88
589.93	30274.83
590.08	30504.20
590.24	30326.32
590.40	30590.80
590.56	30309.94
590.72	29886.30
590.88	29738.85
591.04	29968.22
591.20	30148.44
591.35	30438.67
591.51	30745.28
591.67	29998.65
591.83	30731.23
591.99	30384.83
592.15	30103.97
592.31	30181.21
592.46	30127.38
592.62	30181.21
592.78	30108.65
592.94	30443.35
593.10	30162.48
593.26	30448.03
593.41	30459.73
593.57	30122.69
593.73	30490.16
593.89	30265.47
594.05	30249.08
594.20	30525.27
594.36	30607.19
594.52	30019.71
594.68	30403.56
594.84	30094.61
594.99	30827.20
595.15	30752.30
595.31	30705.49
595.47	30314.62
595.62	30429.30
595.78	30459.73
595.94	30103.97
596.10	30307.60
596.25	30050.14
596.41	29970.56
596.57	29722.46
596.73	30553.35
596.88	30338.02
597.04	30415.26
597.20	30398.88
597.36	30508.88
597.51	30635.27
597.67	30382.49
597.83	30478.46
597.99	30412.92
598.14	30082.91
598.30	30497.18
598.46	30352.07
598.61	30682.08
598.77	30291.21
598.93	30555.69
599.09	30349.73
599.24	30759.32
599.40	30611.87
599.56	30497.18
599.71	30127.38
599.87	30632.93
600.03	30366.11
600.18	30419.94
600.34	30424.62
600.50	30216.32
600.65	30621.23
600.81	30668.04
600.97	30796.77
601.12	30902.09
601.28	30773.36
601.44	30735.92
601.59	30405.90
601.75	30321.64
601.91	30761.66
602.06	30625.91
602.22	30408.24
602.37	30625.91
602.53	30391.86
602.69	30941.88
602.84	30595.48
603.00	30342.70
603.16	30192.91
603.31	30146.10
603.47	30682.08
603.62	30532.29
603.78	30684.42
603.94	30382.49
604.09	30459.73
604.25	30501.86
604.40	30338.02
604.56	29937.79
604.71	30532.29
604.87	30352.07
605.03	30621.23
605.18	30558.03
605.34	30689.10
605.49	29989.28
605.65	30522.93
605.80	30281.85
605.96	30593.14
606.12	30164.82
606.27	30356.75
606.43	30132.06
606.58	30368.45
606.74	30398.88
606.89	30590.80
607.05	30354.41
607.20	30717.19
607.36	30125.04
607.51	30445.69
607.67	30164.82
607.82	29883.96
607.98	30157.80
608.13	30331.00
608.29	30157.80
608.44	30382.49
608.60	30284.19
608.75	30103.97
608.91	30431.65
609.06	30536.97
609.22	30366.11
609.37	30295.89
609.53	29961.20
609.68	30300.58
609.84	30508.88
609.99	29830.13
610.15	30239.72
610.30	30141.42
610.46	29841.83
610.61	30094.61
610.76	30239.72
610.92	30403.56
611.07	30204.61
611.23	29989.28
611.38	29937.79
611.54	30192.91
611.69	29881.62
611.84	29970.56
612.00	29811.40
612.15	29893.32
612.31	29949.50
612.46	29776.30
612.62	30288.87
612.77	29834.81
612.92	29862.90
613.08	29898.00
613.23	30000.99
613.39	29970.56
613.54	29577.35
613.69	29886.30
613.85	30005.67
614.00	29799.70
614.15	29954.18
614.31	29930.77
614.46	30059.50
614.62	30061.84
614.77	29958.86
614.92	30036.09
615.08	29532.88
615.23	29717.78
615.38	30010.35
615.54	29776.30
615.69	29832.47
615.84	29230.95
616.00	30000.99
616.15	29589.05
616.30	29553.94
616.46	29677.99
616.61	29813.74
616.76	29764.59
616.92	29575.01
617.07	29743.53
617.22	29404.15
617.37	29310.53
617.53	29607.78
617.68	29455.64
617.83	29090.52
617.99	29525.86
618.14	29369.04
618.29	30015.03
618.45	29530.54
618.60	29865.24
618.75	29780.98
618.90	29443.94
619.06	29249.67
619.21	29621.82
619.36	29355.00
619.51	29153.71
619.67	28975.83
619.82	29408.83
619.97	29116.26
620.12	28599.01
620.28	28828.38
620.43	29230.95
620.58	29553.94
620.73	29392.45
620.89	29237.97
621.04	29469.69
621.19	29336.27
621.34	29212.23
621.49	29352.66
621.65	29593.73
621.80	29296.49
621.95	29324.57
622.10	29268.40
622.25	29137.33
622.41	28978.17
622.56	29064.77
622.71	29179.46
622.86	29240.31
623.01	28959.45
623.16	29240.31
623.32	28709.01
623.47	29263.72
623.62	29244.99
623.77	28793.27
623.92	28615.39
624.07	29163.08
624.23	28931.36
624.38	29013.28
624.53	28978.17
624.68	28631.77
624.83	29259.04
624.98	29188.82
625.13	28435.17
625.29	29085.84
625.44	28884.55
625.59	28650.50
625.74	28739.44
625.89	28254.95
626.04	28762.84
626.19	28414.10
626.34	28603.69
626.49	28496.02
626.65	28458.57
626.80	28847.10
626.95	28772.21
627.10	28397.72
627.25	28510.07
627.40	28299.42
627.55	28479.64
627.70	28201.11
627.85	28091.11
628.00	28018.55
628.15	28439.85
628.30	28046.64
628.45	28514.75
628.60	28393.04
628.76	28484.32
628.91	28690.29
629.06	28325.16
629.21	28472.62
629.36	28383.68
629.51	28194.09
629.66	28056.00
629.81	28276.01
629.96	28215.16
630.11	28212.82
630.26	28250.27
630.41	27714.28
630.56	27814.93
630.71	27957.70
630.86	28135.58
631.01	27931.95
631.16	28311.12
631.31	27709.60
631.46	28009.19
631.61	28006.85
631.76	28095.79
631.91	27505.98
632.06	28107.49
632.21	27875.78
632.36	27990.47
632.51	27721.30
632.66	27835.99
632.81	27498.95
632.96	27821.95
633.10	27941.32
633.25	28151.96
633.40	28074.73
633.55	27955.36
633.70	27861.74
633.85	27452.14
634.00	27744.71
634.15	27765.78
634.30	27899.19
634.45	27466.19
634.60	27733.01
634.75	27578.53
634.90	27761.09
635.05	27740.03
635.19	27906.21
635.34	27770.46
635.49	27812.59
635.64	27793.86
635.79	27398.31
635.94	27770.46
636.09	27627.68
636.24	27707.26
636.39	27337.46
636.53	27307.03
636.68	27246.18
636.83	27604.28
636.98	27545.76
637.13	27398.31
637.28	27480.23
637.43	27569.17
637.57	27536.40
637.72	27101.06
637.87	26883.39
638.02	27194.68
638.17	27222.77
638.32	27466.19
638.46	26979.36
638.61	27225.11
638.76	26951.27
638.91	27042.55
639.06	27101.06
639.20	27262.56
639.35	27393.63
639.50	27126.81
639.65	27580.87
639.80	27250.86
639.94	27421.72
640.09	27075.32
640.24	27075.32
640.39	27002.76
640.54	27138.51
640.68	27021.48
640.83	26815.52
640.98	26525.29
641.13	26476.14
641.27	26925.52
641.42	27187.66
641.57	27028.51
641.72	27262.56
641.86	26754.66
642.01	26614.23
642.16	26899.78
642.31	27051.91
642.45	26836.58
642.60	26359.11
642.75	26405.92
642.90	26845.94
643.04	26572.10
643.19	26754.66
643.34	26831.90
643.48	26757.00
643.63	26733.60
643.78	26822.54
643.93	26923.18
644.07	26979.36
644.22	26635.30
644.37	26431.67
644.51	26780.41
644.66	26274.85
644.81	26410.60
644.95	26354.43
645.10	26412.95
645.25	26478.48
645.39	26370.82
645.54	26462.10
645.69	26607.21
645.83	26459.76
645.98	26368.48
646.13	26602.53
646.27	26560.40
646.42	26726.58
646.57	26052.50
646.71	26384.86
646.86	26132.08
647.00	26539.33
647.15	26284.22
647.30	26403.58
647.44	26120.38
647.59	26288.90
647.74	26506.57
647.88	26202.30
648.03	26384.86
648.17	26438.69
648.32	26316.98
648.47	26331.03
648.61	26340.39
648.76	26452.73
648.90	26118.04
649.05	26188.25
649.20	26164.85
649.34	25977.61
649.49	25827.81
649.63	25832.49
649.78	25914.41
649.92	25961.22
650.07	26202.30
650.21	25951.86
650.36	25717.81
650.51	25577.37
650.65	25937.82
650.80	25968.24
650.94	25872.28
651.09	25628.87
651.23	25919.09
651.38	25750.57
651.52	25682.70
651.67	25462.69
651.81	25458.01
651.96	25628.87
652.10	25750.57
652.25	25603.12
652.39	26071.23
652.54	25481.41
652.68	25771.64
652.83	25752.91
652.97	26047.82
653.12	25912.07
653.26	25584.40
653.41	25518.86
653.55	25546.95
653.70	25762.28
653.84	25359.70
653.99	25558.65
654.13	25439.28
654.27	25427.58
654.42	25476.73
654.56	25598.44
654.71	25619.50
654.85	25465.03
655.00	26190.59
655.14	25479.07
655.29	25343.32
655.43	25380.77
655.57	25352.68
655.72	25340.98
655.86	25448.64
656.01	25450.99
656.15	25135.01
656.30	24872.87
656.44	24915.00
656.58	25099.90
656.73	25120.97
656.87	25319.92
657.01	24858.83
657.16	25518.86
657.30	25289.49
657.45	25219.27
657.59	25144.38
657.73	25284.81
657.88	25085.86
658.02	25130.33
658.16	25017.99
658.31	25050.75
658.45	24776.91
658.60	24573.28
658.74	24870.53
658.88	24676.27
659.03	24938.41
659.17	24823.72
659.31	24889.26
659.46	24788.61
659.60	25043.73
659.74	24830.74
659.89	24694.99
660.03	24582.65
660.17	24264.33
660.32	24584.99
660.46	24414.13
660.60	24460.94
660.74	24615.41
660.89	24264.33
661.03	24261.99
661.17	24725.42
661.32	24587.33
661.46	24800.32
661.60	23941.34
661.74	24439.87
661.89	24208.16
662.03	24233.91
662.17	23990.49
662.31	23896.87
662.46	24086.45
662.60	24065.39
662.74	24135.60
662.88	24100.50
663.03	23826.65
663.17	23915.59
663.31	23798.57
663.45	24002.19
663.60	23838.36
663.74	23782.18
663.88	23859.42
664.02	24004.53
664.17	23969.43
664.31	23824.31
664.45	23651.11
664.59	23833.68
664.73	23840.70
664.88	23662.82
665.02	23274.29
665.16	23166.62
665.30	23363.23
665.44	23414.72
665.59	23342.16
665.73	23391.31
665.87	23433.44
666.01	23307.05
666.15	23566.85
666.29	23749.42
666.44	23831.33
666.58	23049.60
666.72	23372.59
666.86	23150.24
667.00	23335.14
667.14	22984.06
667.28	22991.08
667.43	22806.18
667.57	23316.42
667.71	23283.65
667.85	22977.04
667.99	22731.28
668.13	22684.47
668.27	22843.63
668.41	22747.67
668.56	22670.43
668.70	22623.62
668.84	22925.55
668.98	22890.44
669.12	22532.34
669.26	22712.56
669.40	22642.34
669.54	22209.34
669.68	22546.38
669.82	22455.10
669.96	22167.21
670.10	22150.83
670.25	22408.29
670.39	22164.87
670.53	22260.84
670.67	22232.75
670.81	22429.35
670.95	22377.86
671.09	22148.49
671.23	22190.62
671.37	22319.35
671.51	22686.81
671.65	22164.87
671.79	22087.64
671.93	21912.10
672.07	22225.73
672.21	21621.87
672.35	22010.40
672.49	21596.12
672.63	21710.81
672.77	21696.77
672.91	21694.43
673.05	21535.27
673.19	21539.95
673.33	21797.41
673.47	21458.03
673.61	21626.55
673.75	21546.97
673.89	21422.92
674.03	21603.14
674.17	21142.06
674.31	21233.34
674.45	21177.17
674.59	20943.11
674.73	21172.49
674.87	21261.43
675.01	20849.49
675.15	21158.44
675.29	20837.79
675.43	20964.18
675.56	20790.98
675.70	20994.61
675.84	20744.17
675.98	20245.63
676.12	20554.58
676.26	21142.06
676.40	20893.96
676.54	20748.85
676.68	20458.62
676.82	20245.63
676.96	20603.74
677.10	20077.12
677.23	20304.15
677.37	20072.43
677.51	20187.12
677.65	20175.42
677.79	19957.75
677.93	20058.39
678.07	19892.21
678.21	19786.89
678.34	19882.85
678.48	19669.86
678.62	19693.27
678.76	19641.78
678.90	19440.49
679.04	19412.40
679.18	19721.35
679.31	19365.59
679.45	19248.57
679.59	19030.90
679.73	18869.40
679.87	18948.98
680.00	19297.72
680.14	19227.50
680.28	18778.12
680.42	18867.06
680.56	18988.77
680.70	18998.13
680.83	18960.68
680.97	18967.70
681.11	18773.44
681.25	18644.71
681.39	18640.03
681.52	18565.13
681.66	18586.19
681.80	18735.99
681.94	18237.45
682.07	18356.82
682.21	18017.44
682.35	18061.91
682.49	17895.74
682.62	18342.78
682.76	18277.24
682.90	17729.56
683.04	17977.65
683.17	18216.39
683.31	18204.69
683.45	17991.70
683.59	17888.71
683.72	17792.75
683.86	17804.46
684.00	17652.32
684.13	17628.92
684.27	17591.47
684.41	17324.65
684.55	17287.20
684.68	16814.41
684.82	17011.01
684.96	16996.97
685.09	17083.57
685.23	17003.99
685.37	16985.27
685.50	17139.74
685.64	17027.40
685.78	17109.32
685.91	17212.30
686.05	17097.61
686.19	16870.58
686.32	16816.75
686.46	16477.37
686.60	16688.02
686.73	16596.74
686.87	16418.86
687.01	16149.70
687.14	16226.93
687.28	16437.58
687.42	16290.13
687.55	16102.89
687.69	16049.05
687.82	16194.17
687.96	16290.13
688.10	16086.50
688.23	15981.18
688.37	16063.10
688.50	15901.60
688.64	15845.43
688.78	15468.60
688.91	15983.52
689.05	15559.88
689.18	15592.65
689.32	15243.91
689.46	15634.78
689.59	15449.88
689.73	15538.82
689.86	15087.09
690.00	15122.20
690.13	15197.10
690.27	15016.88
690.41	15056.67
690.54	15187.74
690.68	14773.46
690.81	14977.09
690.95	15246.25
691.08	14958.36
691.22	14843.68
691.35	14801.55
691.49	14817.93
691.62	14799.21
691.76	14731.33
691.89	14618.99
692.03	14483.24
692.16	14431.74
692.30	14193.01
692.43	14298.33
692.57	14333.44
692.70	14113.43
692.84	14200.03
692.97	14085.34
693.11	14150.88
693.24	13884.06
693.38	14050.24
693.51	13898.10
693.65	13860.65
693.78	13750.65
693.92	13682.77
694.05	13832.57
694.19	13661.71
694.32	13425.31
694.45	13357.44
694.59	13455.74
694.72	13301.26
694.86	13111.68
694.99	13254.45
695.13	13301.26
695.26	13060.19
695.39	13029.76
695.53	13074.23
695.66	13142.11
695.80	13109.34
695.93	13132.75
696.07	12975.93
696.20	12987.63
696.33	13004.02
696.47	12877.63
696.60	12716.13
696.73	12533.57
696.87	12842.52
697.00	12720.81
697.14	12369.73
697.27	12416.54
697.40	12465.69
697.54	12243.34
697.67	12224.62
697.80	12170.79
697.94	12156.74
698.07	12210.57
698.21	12013.97
698.34	12219.94
698.47	12084.19
698.61	11920.35
698.74	12086.53
698.87	12236.32
699.01	11749.49
699.14	11726.08
699.27	11852.47
699.40	11712.04
699.54	11793.96
699.67	11473.31
699.80	11489.69
699.94	11431.18
700.07	11421.81
700.20	11255.64
700.34	11227.55
700.47	11054.35
700.60	11414.79
700.73	11335.21
700.87	11316.49
701.00	11208.83
701.13	11225.21
701.26	11192.44
701.40	11140.95
701.53	11098.82
701.66	10902.22
701.79	10808.59
701.93	10963.07
702.06	10789.87
702.19	10403.68
702.32	10614.33
702.46	10635.39
702.59	10413.04
702.72	10469.22
702.85	10340.49
702.99	10305.38
703.12	10394.32
703.25	10422.41
703.38	10310.06
703.51	10373.25
703.65	10342.83
703.78	10291.34
703.91	10319.42
704.04	10537.09
704.17	10125.16
704.31	10113.45
704.44	9818.55
704.57	9966.00
704.70	9745.99
704.83	9703.86
704.96	9771.74
705.10	9558.75
705.23	9802.16
>>>>>End Processed Spectral Data<<<<<
