SpectraSuite Data File
++++++++++++++++++++++++++++++++++++
Date: Fri Oct 18 13:58:01 GMT-05:00 2013
User: bianchi
Dark Spectrum Present: No
Reference Spectrum Present: No
Number of Sampled Component Spectra: 1
Spectrometers: USB2+H05261
Integration Time (usec): 50000 (USB2+H05261)
Spectra Averaged: 1 (USB2+H05261)
Boxcar Smoothing: 0 (USB2+H05261)
Correct for Electrical Dark: No (USB2+H05261)
Strobe/Lamp Enabled: No (USB2+H05261)
Correct for Detector Non-linearity: No (USB2+H05261)
Correct for Stray Light: No (USB2+H05261)
Number of Pixels in Processed Spectrum: 2048
>>>>>Begin Processed Spectral Data<<<<<
365.73	0.00
365.92	0.00
366.12	0.00
366.32	0.00
366.52	0.00
366.72	0.00
366.91	0.00
367.11	0.00
367.31	0.00
367.51	0.00
367.70	0.00
367.90	0.00
368.10	0.00
368.30	0.00
368.49	0.00
368.69	0.00
368.89	0.00
369.09	0.00
369.28	0.00
369.48	0.00
369.68	0.00
369.87	0.00
370.07	0.00
370.27	0.00
370.47	0.00
370.66	81.92
370.86	100.64
371.06	107.66
371.25	170.86
371.45	72.56
371.65	121.71
371.84	161.50
372.04	149.79
372.24	234.05
372.44	220.01
372.63	173.20
372.83	93.62
373.03	152.13
373.22	212.99
373.42	154.48
373.62	217.67
373.81	292.57
374.01	215.33
374.21	264.48
374.40	212.99
374.60	236.39
374.79	245.76
374.99	241.08
375.19	238.73
375.38	266.82
375.58	222.35
375.78	306.61
375.97	276.18
376.17	259.80
376.37	276.18
376.56	259.80
376.76	245.76
376.95	262.14
377.15	266.82
377.35	187.24
377.54	271.50
377.74	304.27
377.93	285.55
378.13	269.16
378.33	231.71
378.52	231.71
378.72	304.27
378.91	376.83
379.11	337.04
379.31	273.84
379.50	266.82
379.70	259.80
379.89	278.52
380.09	255.12
380.28	301.93
380.48	308.95
380.68	292.57
380.87	299.59
381.07	353.42
381.26	341.72
381.46	330.02
381.65	320.65
381.85	278.52
382.04	379.17
382.24	325.33
382.43	315.97
382.63	320.65
382.83	367.46
383.02	308.95
383.22	311.29
383.41	334.70
383.61	344.06
383.80	341.72
384.00	423.64
384.19	262.14
384.39	355.76
384.58	418.96
384.78	421.30
384.97	294.91
385.17	358.10
385.36	423.64
385.56	425.98
385.75	358.10
385.95	400.23
386.14	414.27
386.34	416.62
386.53	477.47
386.72	409.59
386.92	402.57
387.11	442.36
387.31	337.04
387.50	451.72
387.70	400.23
387.89	428.32
388.09	428.32
388.28	423.64
388.48	411.93
388.67	444.70
388.86	442.36
389.06	517.26
389.25	409.59
389.45	423.64
389.64	521.94
389.84	489.17
390.03	468.11
390.22	475.13
390.42	500.87
390.61	479.81
390.81	489.17
391.00	489.17
391.19	465.77
391.39	533.64
391.58	528.96
391.78	519.60
391.97	552.37
392.16	482.15
392.36	608.54
392.55	498.53
392.75	507.90
392.94	533.64
393.13	517.26
393.33	624.92
393.52	557.05
393.71	524.28
393.91	645.99
394.10	587.47
394.29	627.26
394.49	561.73
394.68	592.16
394.88	557.05
395.07	552.37
395.26	589.82
395.46	655.35
395.65	587.47
395.84	603.86
396.04	699.82
396.23	585.13
396.42	610.88
396.62	606.20
396.81	660.03
397.00	578.11
397.19	660.03
397.39	650.67
397.58	643.65
397.77	617.90
397.97	634.29
398.16	662.37
398.35	821.53
398.55	695.14
398.74	688.12
398.93	713.86
399.12	760.67
399.32	676.41
399.51	685.78
399.70	699.82
399.90	702.16
400.09	772.38
400.28	723.23
400.47	826.21
400.67	723.23
400.86	727.91
401.05	788.76
401.24	788.76
401.44	809.83
401.63	763.01
401.82	858.98
402.01	786.42
402.21	777.06
402.40	830.89
402.59	730.25
402.78	833.23
402.97	894.08
403.17	784.08
403.36	849.61
403.55	856.64
403.74	842.59
403.93	889.40
404.13	947.92
404.32	891.74
404.51	877.70
404.70	915.15
404.89	997.07
405.09	931.53
405.28	924.51
405.47	999.41
405.66	997.07
405.85	957.28
406.05	966.64
406.24	1020.47
406.43	976.00
406.62	929.19
406.81	1032.18
407.00	994.73
407.20	999.41
407.39	1029.84
407.58	1060.26
407.77	1041.54
407.96	1114.10
408.15	1151.54
408.34	1086.01
408.54	1144.52
408.73	1097.71
408.92	1046.22
409.11	1123.46
409.30	1193.67
409.49	1109.41
409.68	1156.22
409.87	1107.07
410.07	1170.27
410.26	1146.86
410.45	1149.20
410.64	1186.65
410.83	1331.76
411.02	1266.23
411.21	1238.14
411.40	1193.67
411.59	1247.51
411.78	1277.93
411.98	1224.10
412.17	1362.19
412.36	1287.29
412.55	1334.11
412.74	1526.03
412.93	1343.47
413.12	1348.15
413.31	1404.32
413.50	1336.45
413.69	1481.56
413.88	1500.28
414.07	1483.90
414.26	1322.40
414.45	1483.90
414.64	1479.22
414.83	1439.43
415.02	1533.05
415.22	1507.30
415.41	1544.75
415.60	1654.76
415.79	1579.86
415.98	1600.93
416.17	1565.82
416.36	1511.99
416.55	1624.33
416.74	1631.35
416.93	1640.72
417.12	1708.59
417.31	1650.08
417.50	1645.40
417.69	1724.97
417.88	1659.44
418.07	1806.89
418.26	1713.27
418.45	1919.24
418.64	1795.19
418.83	1732.00
419.02	1701.57
419.21	1806.89
419.39	1797.53
419.58	1830.30
419.77	1816.26
419.96	1804.55
420.15	1905.20
420.34	1863.07
420.53	1795.19
420.72	1900.52
420.91	1952.01
421.10	1900.52
421.29	1987.11
421.48	1961.37
421.67	1919.24
421.86	1947.33
422.05	1937.96
422.24	1944.99
422.43	1930.94
422.61	2001.16
422.80	1989.46
422.99	2008.18
423.18	1975.41
423.37	2010.52
423.56	1942.64
423.75	2012.86
423.94	1952.01
424.13	1734.34
424.32	1944.99
424.50	2094.78
424.69	2022.22
424.88	2174.36
425.07	2064.35
425.26	2165.00
425.45	1954.35
425.64	1966.05
425.83	2022.22
426.01	2059.67
426.20	2092.44
426.39	1989.46
426.58	2106.48
426.77	1956.69
426.96	2160.31
427.15	2069.03
427.33	2242.23
427.52	2050.31
427.71	2368.62
427.90	2106.48
428.09	2190.74
428.28	2172.02
428.46	2279.68
428.65	2207.13
428.84	2317.13
429.03	2249.25
429.22	2127.55
429.40	2258.62
429.59	2272.66
429.78	2062.01
429.97	2106.48
430.16	2235.21
430.34	2207.13
430.53	2347.56
430.72	2382.67
430.91	2237.55
431.10	2188.40
431.28	2326.49
431.47	2307.77
431.66	2291.38
431.85	2401.39
432.03	2427.14
432.22	2523.10
432.41	2286.70
432.60	2406.07
432.79	2413.09
432.97	2499.69
433.16	2385.01
433.35	2466.92
433.54	2427.14
433.72	2574.59
433.91	2438.84
434.10	2516.08
434.28	2438.84
434.47	2525.44
434.66	2504.37
434.85	2546.50
435.03	2637.78
435.22	2647.15
435.41	2703.32
435.59	2651.83
435.78	2593.31
435.97	2567.57
436.16	2644.81
436.34	2516.08
436.53	2612.04
436.72	2815.66
436.90	2679.91
437.09	2813.32
437.28	2708.00
437.46	2708.00
437.65	2733.75
437.84	2717.36
438.02	2789.92
438.21	2712.68
438.40	2810.98
438.58	2881.20
438.77	2829.71
438.96	2853.11
439.14	2960.78
439.33	2993.55
439.52	3049.72
439.70	3045.04
439.89	2932.69
440.08	2918.65
440.26	2944.39
440.45	2972.48
440.63	3026.31
440.82	3101.21
441.01	3194.83
441.19	3229.94
441.38	3129.30
441.57	3239.30
441.75	3204.19
441.94	3251.00
442.12	3272.07
442.31	3365.69
442.50	3236.96
442.68	3391.44
442.87	3260.37
443.05	3302.50
443.24	3438.25
443.43	3520.17
443.61	3426.54
443.80	3405.48
443.98	3258.03
444.17	3262.71
444.35	3339.94
444.54	3517.83
444.73	3424.20
444.91	3433.57
445.10	3637.19
445.28	3466.33
445.47	3339.94
445.65	3356.33
445.84	3274.41
446.02	3412.50
446.21	3510.80
446.39	3510.80
446.58	3531.87
446.77	3545.91
446.95	3445.27
447.14	3396.12
447.32	3545.91
447.51	3576.34
447.69	3510.80
447.88	3506.12
448.06	3499.10
448.25	3590.38
448.43	3550.59
448.62	3541.23
448.80	3557.61
448.99	3583.36
449.17	3492.08
449.36	3611.45
449.54	3686.34
449.73	3824.44
449.91	3667.62
450.10	3705.07
450.28	3693.37
450.46	3674.64
450.65	3772.94
450.83	3887.63
451.02	3648.90
451.20	3943.80
451.39	3805.71
451.57	3772.94
451.76	3784.65
451.94	3840.82
452.13	3730.81
452.31	3676.98
452.49	3815.07
452.68	3894.65
452.86	3880.61
453.05	3913.38
453.23	3786.99
453.42	3859.54
453.60	3906.35
453.78	3962.53
453.97	3955.51
454.15	3772.94
454.34	3878.27
454.52	3892.31
454.70	3964.87
454.89	3894.65
455.07	4032.74
455.26	4037.42
455.44	4135.73
455.62	3936.78
455.81	3983.59
455.99	4035.08
456.17	4189.56
456.36	4166.15
456.54	4196.58
456.73	4252.75
456.91	4306.59
457.09	4358.08
457.28	4351.06
457.46	4283.18
457.64	4269.14
457.83	4271.48
458.01	4322.97
458.19	4409.57
458.38	4212.96
458.56	4472.76
458.74	4479.79
458.93	4381.48
459.11	4376.80
459.29	4355.74
459.48	4636.60
459.66	4608.51
459.84	4521.92
460.03	4531.28
460.21	4404.89
460.39	4589.79
460.57	4561.70
460.76	4568.73
460.94	4709.16
461.12	4550.00
461.31	4507.87
461.49	4507.87
461.67	4690.43
461.85	4550.00
462.04	4671.71
462.22	4978.32
462.40	4711.50
462.59	4624.90
462.77	4793.42
462.95	4739.58
463.13	4830.87
463.32	4685.75
463.50	4709.16
463.68	4812.14
463.86	4805.12
464.05	4716.18
464.23	4770.01
464.41	4990.02
464.59	4793.42
464.78	5027.47
464.96	4901.08
465.14	4975.98
465.32	4919.81
465.50	5050.88
465.69	4987.68
465.87	5064.92
466.05	4870.65
466.23	5078.96
466.41	4915.12
466.60	4919.81
466.78	5041.51
466.96	5095.35
467.14	5064.92
467.32	5179.61
467.51	5172.58
467.69	5074.28
467.87	5095.35
468.05	5219.39
468.23	5144.50
468.41	5081.30
468.60	5118.75
468.78	5256.84
468.96	5123.43
469.14	5273.23
469.32	5411.32
469.50	5210.03
469.69	5158.54
469.87	5387.91
470.05	5352.81
470.23	5528.35
470.41	5568.13
470.59	5502.60
470.77	5327.06
470.95	5430.04
471.14	5675.80
471.32	5488.56
471.50	5701.54
471.68	5626.65
471.86	5530.69
472.04	5584.52
472.22	5596.22
472.40	5582.18
472.58	5621.97
472.77	5743.67
472.95	5774.10
473.13	6066.67
473.31	5785.80
473.49	5888.79
473.67	5872.40
473.85	6073.69
474.03	5987.09
474.21	6090.07
474.39	5989.43
474.57	6031.56
474.75	6155.61
474.93	6207.10
475.12	6139.23
475.30	6099.44
475.48	6232.85
475.66	6321.79
475.84	6286.68
476.02	6499.67
476.20	6347.53
476.38	6527.75
476.56	6773.51
476.74	6623.72
476.92	6366.26
477.10	6534.78
477.28	6670.53
477.46	6621.38
477.64	6586.27
477.82	6864.79
478.00	6881.18
478.18	6869.47
478.36	7110.55
478.54	7002.88
478.72	7005.22
478.90	7002.88
479.08	7206.51
479.26	7206.51
479.44	7082.46
479.62	7192.47
479.80	7314.17
479.98	7344.60
480.16	7517.80
480.34	7332.90
480.52	7569.29
480.70	7791.64
480.88	7442.90
481.06	7819.73
481.24	7723.77
481.41	7833.77
481.59	7950.80
481.77	7894.63
481.95	7960.16
482.13	8152.09
482.31	8182.51
482.49	8311.24
482.67	8360.39
482.85	8376.78
483.03	8601.47
483.21	8617.85
483.39	8685.73
483.57	8409.54
483.74	8454.02
483.92	8678.71
484.10	8737.22
484.28	8779.35
484.46	8947.87
484.64	9055.53
484.82	8966.59
485.00	8952.55
485.18	9184.26
485.35	9423.00
485.53	9308.31
485.71	9371.50
485.89	9589.17
486.07	9589.17
486.25	9535.34
486.43	9743.65
486.61	9727.27
486.78	9848.97
486.96	9926.21
487.14	9949.62
487.32	9916.85
487.50	10134.52
487.68	10153.24
487.85	10476.24
488.03	10452.83
488.21	10595.61
488.39	10707.95
488.57	10637.73
488.75	10923.28
488.92	10867.11
489.10	10869.45
489.28	11040.31
489.46	11206.48
489.64	10895.19
489.81	11246.27
489.99	11318.83
490.17	11442.88
490.35	11667.57
490.53	11276.70
490.70	11655.87
490.88	11536.50
491.06	11754.17
491.24	11604.38
491.41	11662.89
491.59	12023.33
491.77	12098.23
491.95	12400.16
492.13	12147.38
492.30	12002.27
492.48	12198.87
492.66	12023.33
492.84	12248.02
493.01	12444.63
493.19	12650.60
493.37	12746.56
493.54	12767.62
493.72	12999.34
493.90	12676.34
494.08	12776.98
494.25	12894.01
494.43	13046.15
494.61	13319.99
494.79	13280.20
494.96	13043.81
495.14	13425.31
495.32	13439.36
495.49	13563.40
495.67	13650.00
495.85	13610.22
496.02	13743.63
496.20	13855.97
496.38	13659.37
496.55	13975.34
496.73	14317.06
496.91	14319.40
497.09	14384.93
497.26	14230.46
497.44	14099.39
497.62	14176.62
497.79	14347.48
497.97	14672.82
498.14	14972.41
498.32	15037.94
498.50	14586.22
498.67	14785.16
498.85	14782.82
499.03	15070.71
499.20	15075.39
499.38	15143.27
499.56	14731.33
499.73	15407.75
499.91	15262.63
500.08	15307.10
500.26	15351.57
500.44	15442.85
500.61	15283.70
500.79	15276.68
500.97	15571.58
501.14	15798.62
501.32	15768.19
501.49	15531.80
501.67	15721.38
501.84	15772.87
502.02	16072.46
502.20	16137.99
502.37	16056.08
502.55	16046.71
502.72	15983.52
502.90	16093.52
503.07	16159.06
503.25	16479.71
503.43	16266.72
503.60	16475.03
503.78	16617.80
503.95	16561.63
504.13	16439.92
504.30	16629.51
504.48	16521.84
504.65	16320.56
504.83	16786.32
505.01	16931.44
505.18	17085.91
505.36	17380.82
505.53	16652.91
505.71	17142.08
505.88	17130.38
506.06	17137.40
506.23	17369.12
506.41	17413.59
506.58	17291.88
506.76	17502.53
506.93	17404.22
507.11	17446.35
507.28	17635.94
507.46	17720.20
507.63	17893.40
507.81	17891.06
507.98	17771.69
508.16	17832.54
508.33	17926.16
508.50	17898.08
508.68	18134.47
508.85	17963.61
509.03	18249.16
509.20	17790.41
509.38	18045.53
509.55	18562.79
509.73	18190.64
509.90	18483.21
510.08	18377.89
510.25	18162.56
510.42	18466.83
510.60	18630.66
510.77	18670.45
510.95	18810.89
511.12	18258.52
511.30	18733.65
511.47	18773.44
511.64	19009.83
511.82	19239.20
511.99	18747.69
512.17	19260.27
512.34	18829.61
512.51	19110.47
512.69	19234.52
512.86	19239.20
513.04	19297.72
513.21	19524.75
513.38	19417.08
513.56	19550.49
513.73	19726.04
513.90	19513.05
514.08	19360.91
514.25	19410.06
514.43	19709.65
514.60	19946.05
514.77	19796.25
514.95	20147.33
515.12	19864.13
515.29	19700.29
515.47	19599.65
515.64	20205.84
515.81	19988.18
515.99	20247.97
516.16	20262.02
516.33	20205.84
516.51	20404.79
516.68	19829.02
516.85	20238.61
517.03	20402.45
517.20	20446.92
517.37	20428.20
517.54	20570.97
517.72	20467.98
517.89	20629.48
518.06	20465.64
518.24	20306.49
518.41	20765.23
518.58	20849.49
518.75	20720.76
518.93	20805.02
519.10	20692.68
519.27	21081.21
519.45	20624.80
519.62	20795.66
519.79	21034.39
519.96	21186.53
520.14	21120.99
520.31	21090.57
520.48	21081.21
520.65	21378.45
520.83	21273.13
521.00	21500.16
521.17	21025.03
521.34	21249.72
521.52	21481.44
521.69	21341.00
521.86	21591.44
522.03	21802.09
522.20	21806.77
522.38	22029.12
522.55	21823.16
522.72	21685.06
522.89	21811.45
523.07	21965.93
523.24	21834.86
523.41	22207.00
523.58	21872.31
523.75	22104.02
523.92	22155.51
524.10	21792.73
524.27	22405.95
524.44	22295.94
524.61	22403.61
524.78	22328.71
524.96	22300.62
525.13	22960.66
525.30	22314.67
525.47	22146.15
525.64	22602.55
525.81	22459.78
525.98	22478.50
526.16	22869.37
526.33	22747.67
526.50	23012.15
526.67	22733.62
526.84	22871.72
527.01	22513.61
527.18	22717.24
527.36	23091.73
527.53	23269.61
527.70	23283.65
527.87	23234.50
528.04	23112.79
528.21	23335.14
528.38	23370.25
528.55	23407.70
528.72	23267.27
528.89	23363.23
529.07	23293.01
529.24	23098.75
529.41	23508.34
529.58	23424.08
529.75	23131.51
529.92	23506.00
530.09	23772.82
530.26	23875.80
530.43	23634.73
530.60	23686.22
530.77	23559.83
530.94	23491.96
531.11	23529.41
531.28	23587.92
531.46	24002.19
531.63	23828.99
531.80	23990.49
531.97	23981.13
532.14	24088.79
532.31	24119.22
532.48	24044.32
532.65	24271.36
532.82	24194.12
532.99	24119.22
533.16	24341.57
533.33	24428.17
533.50	24439.87
533.67	24372.00
533.84	24304.12
534.01	24549.88
534.18	24254.97
534.35	24334.55
534.52	24748.82
534.69	24465.62
534.86	24685.63
535.03	24694.99
535.20	24364.98
535.37	24606.05
535.54	24833.08
535.71	24711.38
535.88	24678.61
536.05	24575.62
536.22	25198.21
536.38	25039.05
536.55	25006.28
536.72	24982.88
536.89	24765.21
537.06	25006.28
537.23	25071.82
537.40	24982.88
537.57	25282.47
537.74	25127.99
537.91	25848.88
538.08	25310.55
538.25	25083.52
538.42	25504.82
538.59	25558.65
538.75	24978.20
538.92	25205.23
539.09	25270.76
539.26	25404.17
539.43	25401.83
539.60	25472.05
539.77	25472.05
539.94	25811.43
540.11	25270.76
540.28	25762.28
540.44	25680.36
540.61	25523.54
540.78	25738.87
540.95	25539.93
541.12	25652.27
541.29	25631.21
541.46	25565.67
541.62	25919.09
541.79	25888.67
541.96	26052.50
542.13	25916.75
542.30	25752.91
542.47	26087.61
542.63	25678.02
542.80	26209.32
542.97	26340.39
543.14	26190.59
543.31	25834.83
543.48	26342.73
543.64	26429.33
543.81	26422.31
543.98	26508.91
544.15	26347.41
544.32	26553.38
544.48	26639.98
544.65	26391.88
544.82	26106.34
544.99	26396.56
545.16	26593.17
545.32	26373.16
545.49	26506.57
545.66	26962.97
545.83	26962.97
546.00	26855.31
546.16	26916.16
546.33	26335.71
546.50	26457.42
546.67	26808.50
546.83	26623.59
547.00	26998.08
547.17	26796.79
547.34	26857.65
547.50	27019.14
547.67	27211.07
547.84	27075.32
548.00	27063.61
548.17	26925.52
548.34	27080.00
548.51	27290.65
548.67	27417.04
548.84	27365.54
549.01	27227.45
549.18	27271.92
549.34	27089.36
549.51	27190.00
549.68	27185.32
549.84	27150.21
550.01	26988.72
550.18	27307.03
550.34	27321.07
550.51	27557.47
550.68	27594.92
550.84	27442.78
551.01	27805.56
551.18	27463.85
551.34	27349.16
551.51	27578.53
551.68	27716.62
551.84	27461.51
552.01	27505.98
552.18	28044.30
552.34	27702.58
552.51	27840.67
552.68	27824.29
552.84	27625.34
553.01	28343.89
553.18	27831.31
553.34	27857.06
553.51	28224.52
553.67	27637.05
553.84	27988.13
554.01	27838.33
554.17	28294.74
554.34	27906.21
554.51	27960.04
554.67	27995.15
554.84	28301.76
555.00	28240.90
555.17	28105.15
555.33	28411.76
555.50	28222.18
555.67	27761.09
555.83	27845.35
556.00	28259.63
556.16	28276.01
556.33	28163.67
556.50	28240.90
556.66	28439.85
556.83	28020.89
556.99	28701.99
557.16	28514.75
557.32	28456.23
557.49	28418.78
557.65	28474.96
557.82	28498.36
557.98	28280.69
558.15	28755.82
558.32	28723.05
558.48	28463.25
558.65	28840.08
558.81	28755.82
558.98	28493.68
559.14	28912.64
559.31	28374.31
559.47	28610.71
559.64	28327.50
559.80	28741.78
559.97	28804.97
560.13	28690.29
560.30	28868.17
560.46	28741.78
560.63	29022.64
560.79	28833.06
560.96	28603.69
561.12	28814.34
561.29	28680.92
561.45	28879.87
561.61	28584.96
561.78	28800.29
561.94	29013.28
562.11	28865.83
562.27	28945.41
562.44	29380.74
562.60	28584.96
562.77	28924.34
562.93	28706.67
563.10	29146.69
563.26	28755.82
563.42	29308.19
563.59	29095.20
563.75	28936.04
563.92	28905.62
564.08	29034.35
564.24	28826.04
564.41	28968.81
564.57	29008.60
564.74	29296.49
564.90	29329.25
565.07	28856.46
565.23	29404.15
565.39	29383.09
565.56	29362.02
565.72	29247.33
565.88	29118.60
566.05	28940.72
566.21	28950.09
566.38	28968.81
566.54	29273.08
566.70	29287.12
566.87	29539.90
567.03	29036.69
567.19	29373.72
567.36	29355.00
567.52	29188.82
567.68	29371.38
567.85	29439.26
568.01	29165.42
568.17	29383.09
568.34	29460.32
568.50	29582.03
568.66	29633.52
568.83	29214.57
568.99	29003.92
569.15	29287.12
569.32	28912.64
569.48	28896.25
569.64	29596.07
569.81	29394.79
569.97	29193.50
570.13	29528.20
570.30	29228.61
570.46	29556.28
570.62	29542.24
570.78	29261.38
570.95	29230.95
571.11	29626.50
571.27	29076.48
571.43	29570.33
571.60	29212.23
571.76	29886.30
571.92	29741.19
572.09	29198.18
572.25	29425.22
572.41	29645.23
572.57	29687.36
572.74	29795.02
572.90	29287.12
573.06	29268.40
573.22	29586.71
573.38	29542.24
573.55	29706.08
573.71	30225.68
573.87	29666.29
574.03	29518.84
574.20	29895.66
574.36	29766.93
574.52	29652.25
574.68	29565.65
574.84	29539.90
575.01	29823.11
575.17	29624.16
575.33	29670.97
575.49	29823.11
575.65	29670.97
575.82	29731.83
575.98	29680.33
576.14	29670.97
576.30	29823.11
576.46	29589.05
576.62	29317.55
576.79	29357.34
576.95	29853.53
577.11	29600.76
577.27	29949.50
577.43	29832.47
577.59	29558.63
577.75	30108.65
577.92	29343.30
578.08	29537.56
578.24	29785.66
578.40	29806.72
578.56	29666.29
578.72	29626.50
578.88	30218.66
579.04	30036.09
579.21	29860.55
579.37	30024.39
579.53	30071.20
579.69	29539.90
579.85	29619.48
580.01	29799.70
580.17	29750.55
580.33	30010.35
580.49	29773.95
580.65	30033.75
580.82	30242.06
580.98	29874.60
581.14	29818.42
581.30	29813.74
581.46	29624.16
581.62	29699.06
581.78	29785.66
581.94	30061.84
582.10	30050.14
582.26	29586.71
582.42	30012.69
582.58	30094.61
582.74	29738.85
582.90	29937.79
583.06	29820.77
583.22	29710.76
583.38	29633.52
583.54	29919.07
583.70	29727.14
583.86	30300.58
584.02	29968.22
584.18	29989.28
584.34	29813.74
584.50	29979.92
584.66	30183.55
584.82	29738.85
584.98	29968.22
585.14	30352.07
585.30	29853.53
585.46	29804.38
585.62	29834.81
585.78	29862.90
585.94	30036.09
586.10	30239.72
586.26	30080.56
586.42	30265.47
586.58	30106.31
586.74	30148.44
586.90	29530.54
587.06	29778.64
587.22	30286.53
587.38	29823.11
587.54	30075.88
587.70	30267.81
587.86	29909.71
588.02	30331.00
588.18	30565.06
588.34	30366.11
588.49	29930.77
588.65	29872.26
588.81	30012.69
588.97	29853.53
589.13	30120.35
589.29	30167.16
589.45	30038.44
589.61	30373.13
589.77	30654.00
589.93	30230.36
590.08	30150.78
590.24	30239.72
590.40	30621.23
590.56	30345.05
590.72	30036.09
590.88	29979.92
591.04	30209.29
591.20	30389.52
591.35	30405.90
591.51	30876.35
591.67	30281.85
591.83	30581.44
591.99	30445.69
592.15	30319.30
592.31	30455.05
592.46	30312.28
592.62	30211.64
592.78	30347.39
592.94	30256.11
593.10	30295.89
593.26	30443.35
593.41	30569.74
593.57	30433.99
593.73	30288.87
593.89	30284.19
594.05	30787.41
594.20	30197.59
594.36	30663.36
594.52	30132.06
594.68	30426.96
594.84	30438.67
594.99	30536.97
595.15	30380.15
595.31	30693.79
595.47	30448.03
595.62	30586.12
595.78	30230.36
595.94	30506.54
596.10	30384.83
596.25	30146.10
596.41	30342.70
596.57	30120.35
596.73	30567.40
596.88	30183.55
597.04	30125.04
597.20	30293.55
597.36	30370.79
597.51	30799.11
597.67	30347.39
597.83	30312.28
597.99	30607.19
598.14	30141.42
598.30	30651.66
598.46	30314.62
598.61	30682.08
598.77	30204.61
598.93	30522.93
599.09	30405.90
599.24	30906.77
599.40	30543.99
599.56	30834.22
599.71	30370.79
599.87	30609.53
600.03	30356.75
600.18	30391.86
600.34	30394.20
600.50	30391.86
600.65	30417.60
600.81	31180.62
600.97	30754.64
601.12	30841.24
601.28	30831.88
601.44	30768.68
601.59	30586.12
601.75	30984.01
601.91	30398.88
602.06	30501.86
602.22	30492.50
602.37	30513.56
602.53	30478.46
602.69	31033.16
602.84	30429.30
603.00	30279.51
603.16	30675.06
603.31	30579.10
603.47	30485.48
603.62	30405.90
603.78	30480.80
603.94	30438.67
604.09	30480.80
604.25	30061.84
604.40	30335.68
604.56	30698.47
604.71	30368.45
604.87	30593.14
605.03	30630.59
605.18	30375.47
605.34	30506.54
605.49	30845.92
605.65	30316.96
605.80	29977.58
605.96	30412.92
606.12	30373.13
606.27	30614.21
606.43	30293.55
606.58	30586.12
606.74	30656.34
606.89	30295.89
607.05	30485.48
607.20	30738.26
607.36	30272.49
607.51	30698.47
607.67	30527.61
607.82	30382.49
607.98	30237.38
608.13	30654.00
608.29	30267.81
608.44	30178.87
608.60	30314.62
608.75	30338.02
608.91	30787.41
609.06	30436.33
609.22	30480.80
609.37	30338.02
609.53	30232.70
609.68	30008.01
609.84	30340.36
609.99	30202.27
610.15	30267.81
610.30	30106.31
610.46	30398.88
610.61	30237.38
610.76	30408.24
610.92	30218.66
611.07	30515.90
611.23	30361.43
611.38	30085.25
611.54	30197.59
611.69	30099.29
611.84	30302.92
612.00	29942.47
612.15	29991.62
612.31	30132.06
612.46	29771.61
612.62	30204.61
612.77	30000.99
612.92	30452.71
613.08	30082.91
613.23	29993.97
613.39	29832.47
613.54	30122.69
613.69	29972.90
613.85	29635.86
614.00	29956.52
614.15	29940.13
614.31	29813.74
614.46	30015.03
614.62	30148.44
614.77	29909.71
614.92	29947.15
615.08	30101.63
615.23	29851.19
615.38	29706.08
615.54	29652.25
615.69	29343.30
615.84	29755.23
616.00	29720.12
616.15	29757.57
616.30	29907.37
616.46	29745.87
616.61	29816.08
616.76	29914.39
616.92	29975.24
617.07	29729.48
617.22	29553.94
617.37	29570.33
617.53	29659.27
617.68	29582.03
617.83	29855.87
617.99	29582.03
618.14	29680.33
618.29	29509.47
618.45	29177.12
618.60	29422.87
618.75	29542.24
618.90	29703.74
619.06	29652.25
619.21	29567.99
619.36	29357.34
619.51	29301.17
619.67	29200.52
619.82	29195.84
619.97	29586.71
620.12	29186.48
620.28	29544.58
620.43	29385.43
620.58	29460.32
620.73	29333.93
620.89	29469.69
621.04	29338.62
621.19	29355.00
621.34	29331.59
621.49	29500.11
621.65	28936.04
621.80	29521.18
621.95	28898.59
622.10	29247.33
622.25	29252.02
622.41	29551.60
622.56	29364.36
622.71	29247.33
622.86	29055.41
623.01	29249.67
623.16	29441.60
623.32	29212.23
623.47	28943.06
623.62	29060.09
623.77	29027.32
623.92	28842.42
624.07	28914.98
624.23	28929.02
624.38	29113.92
624.53	28882.21
624.68	29013.28
624.83	29043.71
624.98	29275.42
625.13	28762.84
625.29	28917.32
625.44	28591.98
625.59	28879.87
625.74	28601.35
625.89	28348.57
626.04	28610.71
626.19	28638.80
626.34	28723.05
626.49	28533.47
626.65	28760.50
626.80	29029.66
626.95	28596.67
627.10	28517.09
627.25	28353.25
627.40	28524.11
627.55	28790.93
627.70	28587.30
627.85	28095.79
628.00	28547.51
628.15	28505.38
628.30	28292.40
628.45	28350.91
628.60	28360.27
628.76	28315.80
628.91	28678.58
629.06	28566.24
629.21	28491.34
629.36	28723.05
629.51	28280.69
629.66	27835.99
629.81	28332.18
629.96	28254.95
630.11	28261.97
630.26	28161.33
630.41	28063.02
630.56	28201.11
630.71	28346.23
630.86	28402.40
631.01	28102.81
631.16	28077.07
631.31	28238.56
631.46	27960.04
631.61	28025.57
631.76	27955.36
631.91	27882.80
632.06	27981.10
632.21	27597.26
632.36	27953.02
632.51	27777.48
632.66	28091.11
632.81	28025.57
632.96	28393.04
633.10	28252.61
633.25	28273.67
633.40	28287.71
633.55	28208.14
633.70	27892.16
633.85	27402.99
634.00	27835.99
634.15	27922.59
634.30	27718.96
634.45	27606.62
634.60	28058.34
634.75	27623.00
634.90	27651.09
635.05	27920.25
635.19	27777.48
635.34	27770.46
635.49	27887.48
635.64	27768.12
635.79	27260.22
635.94	27702.58
636.09	27803.22
636.24	27541.08
636.39	27168.94
636.53	27807.90
636.68	27393.63
636.83	27484.91
636.98	27234.47
637.13	27627.68
637.28	27468.53
637.43	27597.26
637.57	27536.40
637.72	27487.25
637.87	27147.87
638.02	27316.39
638.17	27480.23
638.32	27339.80
638.46	27005.10
638.61	27185.32
638.76	27035.53
638.91	27489.59
639.06	27292.99
639.20	27264.90
639.35	27271.92
639.50	27192.34
639.65	27295.33
639.80	27241.50
639.94	27545.76
640.09	26979.36
640.24	26771.05
640.39	27117.45
640.54	26885.73
640.68	26859.99
640.83	27115.11
640.98	26998.08
641.13	26759.34
641.27	27152.55
641.42	26820.20
641.57	27056.59
641.72	27264.90
641.86	27103.40
642.01	26782.75
642.16	26672.74
642.31	26817.86
642.45	27473.21
642.60	26771.05
642.75	26656.36
642.90	26663.38
643.04	26820.20
643.19	26689.13
643.34	26962.97
643.48	26583.80
643.63	27070.64
643.78	26719.56
643.93	26855.31
644.07	26754.66
644.22	26679.77
644.37	26827.22
644.51	26834.24
644.66	26852.97
644.81	26771.05
644.95	26532.31
645.10	26314.64
645.25	26253.79
645.39	26471.46
645.54	26869.35
645.69	26298.26
645.83	26162.51
645.98	26654.02
646.13	26588.49
646.27	26398.90
646.42	26298.26
646.57	26558.06
646.71	26281.88
646.86	25982.29
647.00	26506.57
647.15	26354.43
647.30	26050.16
647.44	25951.86
647.59	26249.11
647.74	26312.30
647.88	26410.60
648.03	26047.82
648.17	26515.93
648.32	26438.69
648.47	26525.29
648.61	26256.13
648.76	26394.22
648.90	26052.50
649.05	25930.80
649.20	26218.68
649.34	26239.75
649.49	25827.81
649.63	25902.71
649.78	26047.82
649.92	25902.71
650.07	26214.00
650.21	25876.96
650.36	25979.95
650.51	25591.42
650.65	26176.55
650.80	25947.18
650.94	25839.51
651.09	25804.41
651.23	25846.54
651.38	25872.28
651.52	26073.57
651.67	25862.92
651.81	25965.90
651.96	25923.77
652.10	25556.31
652.25	25820.79
652.39	26106.34
652.54	26038.46
652.68	26033.78
652.83	25914.41
652.97	25937.82
653.12	25668.66
653.26	25523.54
653.41	25614.82
653.55	25825.47
653.70	25472.05
653.84	25820.79
653.99	25462.69
654.13	25443.96
654.27	25582.06
654.42	25373.75
654.56	25467.37
654.71	25551.63
654.85	25408.86
655.00	25397.15
655.14	25493.12
655.29	25593.76
655.43	25207.57
655.57	25181.82
655.72	25560.99
655.86	25198.21
656.01	25422.90
656.15	25277.79
656.30	25373.75
656.44	25261.40
656.58	25142.03
656.73	25507.16
656.87	25184.16
657.01	25443.96
657.16	25420.56
657.30	25205.23
657.45	25514.18
657.59	25270.76
657.73	24915.00
657.88	25198.21
658.02	25135.01
658.16	24828.40
658.31	25149.06
658.45	24933.73
658.60	24662.22
658.74	25085.86
658.88	24744.14
659.03	24629.46
659.17	25025.01
659.31	24886.92
659.46	24936.07
659.60	25174.80
659.74	24975.86
659.89	24954.79
660.03	24748.82
660.17	24821.38
660.32	24629.46
660.46	24762.87
660.60	24332.21
660.74	24592.01
660.89	24334.55
661.03	24109.86
661.17	24341.57
661.32	24500.73
661.46	24376.68
661.60	24379.02
661.74	24603.71
661.89	24437.53
662.03	24411.79
662.17	24421.15
662.31	23833.68
662.46	24503.07
662.60	24264.33
662.74	24177.73
662.88	24182.42
663.03	23913.25
663.17	23807.93
663.31	23838.36
663.45	24032.62
663.60	23779.84
663.74	23742.39
663.88	24161.35
664.02	23894.53
664.17	24180.07
664.31	24088.79
664.45	23580.90
664.59	24002.19
664.73	23571.54
664.88	23798.57
665.02	23714.31
665.16	23658.14
665.30	23140.88
665.44	23747.08
665.59	23424.08
665.73	23447.49
665.87	23276.63
666.01	23433.44
666.15	23393.65
666.29	23197.05
666.44	23271.95
666.58	23550.47
666.72	23264.92
666.86	23220.45
667.00	23194.71
667.14	23152.58
667.28	23381.95
667.43	22937.25
667.57	23051.94
667.71	23150.24
667.85	23037.89
667.99	22909.16
668.13	22733.62
668.27	22735.96
668.41	22813.20
668.56	22590.85
668.70	22815.54
668.84	22970.02
668.98	22637.66
669.12	22876.40
669.26	23028.53
669.40	22548.72
669.54	22698.52
669.68	22941.93
669.82	22712.56
669.96	22192.96
670.10	22188.28
670.25	22492.55
670.39	22733.62
670.53	22204.66
670.67	22281.90
670.81	22377.86
670.95	22279.56
671.09	22431.69
671.23	22008.06
671.37	22190.62
671.51	22347.44
671.65	22422.33
671.79	22075.93
671.93	21781.03
672.07	21893.37
672.21	21769.32
672.35	21703.79
672.49	21535.27
672.63	21858.26
672.77	21659.32
672.91	21802.09
673.05	21530.59
673.19	22019.76
673.33	21582.08
673.47	21624.21
673.61	21685.06
673.75	21584.42
673.89	21509.52
674.03	21521.23
674.17	21408.88
674.31	21228.66
674.45	21202.91
674.59	21619.53
674.73	21380.79
674.87	21020.35
675.01	21048.44
675.15	21006.31
675.29	20540.54
675.43	20865.88
675.56	20999.29
675.70	20765.23
675.84	20795.66
675.98	20538.20
676.12	20940.77
676.26	20975.88
676.40	21064.82
676.54	20617.78
676.68	20580.33
676.82	20114.56
676.96	20510.11
677.10	20255.00
677.23	20018.60
677.37	20348.62
677.51	20109.88
677.65	20262.02
677.79	20273.72
677.93	20049.03
678.07	19693.27
678.21	19817.32
678.34	19777.53
678.48	19742.42
678.62	20002.22
678.76	19740.08
678.90	19585.60
679.04	19623.05
679.18	19625.39
679.31	19274.31
679.45	19335.17
679.59	19295.38
679.73	19271.97
679.87	18974.72
680.00	19101.11
680.14	18778.12
680.28	19044.94
680.42	19026.21
680.56	19049.62
680.70	18892.80
680.83	19215.80
680.97	19030.90
681.11	19164.31
681.25	18848.33
681.39	18518.32
681.52	18548.75
681.66	18401.29
681.80	18312.35
681.94	18548.75
682.07	18391.93
682.21	18349.80
682.35	18310.01
682.49	18244.48
682.62	17921.48
682.76	18218.73
682.90	18012.76
683.04	18153.20
683.17	18118.09
683.31	17933.18
683.45	18052.55
683.59	17745.94
683.72	17970.63
683.86	17977.65
684.00	17806.80
684.13	17476.78
684.27	17589.13
684.41	17537.63
684.55	17366.78
684.68	17291.88
684.82	17411.25
684.96	17139.74
685.09	17097.61
685.23	16989.95
685.37	17146.76
685.50	17020.38
685.64	17163.15
685.78	17219.32
685.91	16795.68
686.05	16989.95
686.19	17092.93
686.32	17118.68
686.46	16704.40
686.60	16624.83
686.73	16805.05
686.87	16704.40
687.01	16423.54
687.14	16400.13
687.28	16236.30
687.42	16255.02
687.55	16191.83
687.69	16180.12
687.82	16081.82
687.96	16119.27
688.10	16255.02
688.23	16081.82
688.37	15978.84
688.50	15957.77
688.64	15964.79
688.78	15587.97
688.91	15906.28
689.05	15836.06
689.18	15662.86
689.32	15304.76
689.46	15360.94
689.59	15653.50
689.73	15484.98
689.86	15089.43
690.00	15234.55
690.13	15342.21
690.27	15463.92
690.41	15316.47
690.54	15147.95
690.68	15185.40
690.81	15080.07
690.95	15145.61
691.08	14927.94
691.22	14736.01
691.35	14965.39
691.49	14803.89
691.62	14597.92
691.76	14728.99
691.89	14700.90
692.03	14321.74
692.16	14401.32
692.30	14403.66
692.43	14291.31
692.57	14232.80
692.70	14185.99
692.84	14115.77
692.97	14375.57
693.11	14441.11
693.24	13795.12
693.38	13991.72
693.51	14075.98
693.65	13961.30
693.78	13802.14
693.92	13933.21
694.05	13884.06
694.19	13802.14
694.32	13776.39
694.45	13647.66
694.59	13142.11
694.72	13085.94
694.86	13444.04
694.99	13055.51
695.13	13214.66
695.26	13242.75
695.39	13025.08
695.53	13259.13
695.66	13146.79
695.80	13099.98
695.93	13055.51
696.07	12947.84
696.20	13331.69
696.33	13006.36
696.47	12781.67
696.60	12884.65
696.73	12821.45
696.87	12891.67
697.00	12615.49
697.14	12285.47
697.27	12449.31
697.40	12194.19
697.54	12568.68
697.67	12217.60
697.80	12538.25
697.94	12058.44
698.07	12135.68
698.21	12182.49
698.34	12107.59
698.47	12210.57
698.61	11948.43
698.74	12226.96
698.87	11995.25
699.01	11910.99
699.14	11789.28
699.27	11892.26
699.40	11847.79
699.54	11618.42
699.67	11721.40
699.80	11592.67
699.94	11609.06
700.07	11513.10
700.20	11372.66
700.34	11091.80
700.47	11353.94
700.60	11295.43
700.73	11335.21
700.87	11344.58
701.00	11117.54
701.13	10986.47
701.26	11267.34
701.40	11323.51
701.53	11119.89
701.66	11136.27
701.79	10820.30
701.93	10925.62
702.06	10874.13
702.19	10595.61
702.32	10654.12
702.46	10670.50
702.59	10541.77
702.72	10457.51
702.85	10326.44
702.99	10457.51
703.12	10328.78
703.25	10293.68
703.38	10359.21
703.51	10349.85
703.65	10473.90
703.78	10181.33
703.91	10176.65
704.04	10455.17
704.17	10366.23
704.31	10073.67
704.44	9933.23
704.57	10207.08
704.70	9923.87
704.83	9638.33
704.96	9834.93
705.10	9834.93
705.23	9790.46
>>>>>End Processed Spectral Data<<<<<
