SpectraSuite Data File
++++++++++++++++++++++++++++++++++++
Date: Fri Oct 18 13:57:59 GMT-05:00 2013
User: bianchi
Dark Spectrum Present: No
Reference Spectrum Present: No
Number of Sampled Component Spectra: 1
Spectrometers: USB2+H05261
Integration Time (usec): 50000 (USB2+H05261)
Spectra Averaged: 1 (USB2+H05261)
Boxcar Smoothing: 0 (USB2+H05261)
Correct for Electrical Dark: No (USB2+H05261)
Strobe/Lamp Enabled: No (USB2+H05261)
Correct for Detector Non-linearity: No (USB2+H05261)
Correct for Stray Light: No (USB2+H05261)
Number of Pixels in Processed Spectrum: 2048
>>>>>Begin Processed Spectral Data<<<<<
365.73	0.00
365.92	0.00
366.12	0.00
366.32	0.00
366.52	0.00
366.72	0.00
366.91	0.00
367.11	0.00
367.31	0.00
367.51	0.00
367.70	0.00
367.90	0.00
368.10	0.00
368.30	0.00
368.49	0.00
368.69	0.00
368.89	0.00
369.09	0.00
369.28	0.00
369.48	0.00
369.68	0.00
369.87	0.00
370.07	0.00
370.27	0.00
370.47	0.00
370.66	117.03
370.86	102.98
371.06	128.73
371.25	86.60
371.45	72.56
371.65	70.22
371.84	156.82
372.04	98.30
372.24	215.33
372.44	208.31
372.63	138.09
372.83	220.01
373.03	294.91
373.22	201.29
373.42	196.60
373.62	187.24
373.81	198.95
374.01	248.10
374.21	243.42
374.40	198.95
374.60	259.80
374.79	255.12
374.99	269.16
375.19	269.16
375.38	332.36
375.58	283.20
375.78	278.52
375.97	278.52
376.17	299.59
376.37	315.97
376.56	255.12
376.76	304.27
376.95	255.12
377.15	266.82
377.35	318.31
377.54	255.12
377.74	297.25
377.93	337.04
378.13	348.74
378.33	264.48
378.52	322.99
378.72	283.20
378.91	215.33
379.11	297.25
379.31	278.52
379.50	322.99
379.70	306.61
379.89	367.46
380.09	252.78
380.28	304.27
380.48	315.97
380.68	292.57
380.87	362.78
381.07	264.48
381.26	348.74
381.46	320.65
381.65	330.02
381.85	341.72
382.04	393.21
382.24	325.33
382.43	395.55
382.63	395.55
382.83	358.10
383.02	430.66
383.22	362.78
383.41	367.46
383.61	360.44
383.80	418.96
384.00	320.65
384.19	376.83
384.39	414.27
384.58	390.87
384.78	393.21
384.97	386.19
385.17	397.89
385.36	407.25
385.56	409.59
385.75	456.40
385.95	454.06
386.14	454.06
386.34	447.04
386.53	381.51
386.72	383.85
386.92	444.70
387.11	400.23
387.31	376.83
387.50	393.21
387.70	409.59
387.89	465.77
388.09	404.91
388.28	388.53
388.48	496.19
388.67	425.98
388.86	456.40
389.06	451.72
389.25	468.11
389.45	470.45
389.64	451.72
389.84	486.83
390.03	524.28
390.22	538.32
390.42	526.62
390.61	514.92
390.81	517.26
391.00	566.41
391.19	524.28
391.39	545.34
391.58	372.15
391.78	554.71
391.97	540.66
392.16	491.51
392.36	557.05
392.55	512.58
392.75	601.52
392.94	545.34
393.13	543.00
393.33	622.58
393.52	482.15
393.71	596.84
393.91	564.07
394.10	540.66
394.29	557.05
394.49	510.24
394.68	545.34
394.88	596.84
395.07	688.12
395.26	629.60
395.46	650.67
395.65	620.24
395.84	617.90
396.04	688.12
396.23	667.05
396.42	636.63
396.62	585.13
396.81	634.29
397.00	697.48
397.19	671.73
397.39	636.63
397.58	751.31
397.77	732.59
397.97	697.48
398.16	765.36
398.35	751.31
398.55	734.93
398.74	702.16
398.93	706.84
399.12	655.35
399.32	727.91
399.51	753.65
399.70	720.88
399.90	751.31
400.09	760.67
400.28	763.01
400.47	718.54
400.67	858.98
400.86	854.30
401.05	734.93
401.24	798.12
401.44	887.06
401.63	863.66
401.82	826.21
402.01	767.70
402.21	763.01
402.40	884.72
402.59	840.25
402.78	870.68
402.97	887.06
403.17	931.53
403.36	896.43
403.55	931.53
403.74	908.13
403.93	947.92
404.13	889.40
404.32	866.00
404.51	926.85
404.70	985.37
404.89	990.05
405.09	1018.13
405.28	926.85
405.47	1013.45
405.66	1041.54
405.85	1008.77
406.05	1013.45
406.24	1069.62
406.43	1020.47
406.62	1067.28
406.81	1081.33
407.00	1076.65
407.20	1048.56
407.39	1121.12
407.58	1114.10
407.77	1125.80
407.96	1064.94
408.15	1135.16
408.34	1008.77
408.54	1097.71
408.73	1114.10
408.92	1062.60
409.11	1163.25
409.30	1174.95
409.49	1282.61
409.68	1165.59
409.87	1167.93
410.07	1221.76
410.26	1184.31
410.45	1151.54
410.64	1179.63
410.83	1219.42
411.02	1284.95
411.21	1296.66
411.40	1247.51
411.59	1275.59
411.78	1334.11
411.98	1322.40
412.17	1242.82
412.36	1357.51
412.55	1437.09
412.74	1366.87
412.93	1301.34
413.12	1308.36
413.31	1416.02
413.50	1413.68
413.69	1467.52
413.88	1383.26
414.07	1472.20
414.26	1453.47
414.45	1500.28
414.64	1521.35
414.83	1511.99
415.02	1528.37
415.22	1533.05
415.41	1680.50
415.60	1535.39
415.79	1689.87
415.98	1563.48
416.17	1619.65
416.36	1724.97
416.55	1591.56
416.74	1570.50
416.93	1671.14
417.12	1762.42
417.31	1764.76
417.50	1685.19
417.69	1963.71
417.88	1732.00
418.07	1776.47
418.26	1879.45
418.45	1881.79
418.64	1872.43
418.83	1823.28
419.02	1921.58
419.21	1825.62
419.39	1788.17
419.58	1830.30
419.77	1872.43
419.96	1816.26
420.15	1867.75
420.34	1867.75
420.53	1898.17
420.72	2031.58
420.91	1886.47
421.10	1952.01
421.29	1954.35
421.48	1947.33
421.67	1996.48
421.86	2005.84
422.05	2008.18
422.24	1952.01
422.43	1984.77
422.61	2024.56
422.80	1895.83
422.99	2050.31
423.18	2073.71
423.37	2057.33
423.56	2031.58
423.75	2054.99
423.94	2134.57
424.13	1900.52
424.32	1914.56
424.50	2024.56
424.69	2052.65
424.88	2045.63
425.07	1991.80
425.26	2099.46
425.45	1942.64
425.64	2012.86
425.83	2036.27
426.01	2101.80
426.20	2129.89
426.39	2150.95
426.58	2120.53
426.77	2111.16
426.96	2207.13
427.15	2200.10
427.33	2120.53
427.52	2162.66
427.71	2181.38
427.90	2085.42
428.09	2143.93
428.28	2186.06
428.46	2263.30
428.65	2230.53
428.84	2303.09
429.03	2272.66
429.22	2190.74
429.40	2246.91
429.59	2253.94
429.78	2197.76
429.97	2216.49
430.16	2277.34
430.34	2307.77
430.53	2490.33
430.72	2490.33
430.91	2265.64
431.10	2321.81
431.28	2445.86
431.47	2473.95
431.66	2602.68
431.85	2506.71
432.03	2520.76
432.22	2558.21
432.41	2539.48
432.60	2396.71
432.79	2415.43
432.97	2530.12
433.16	2537.14
433.35	2504.37
433.54	2478.63
433.72	2572.25
433.91	2544.16
434.10	2541.82
434.28	2420.11
434.47	2722.04
434.66	2651.83
434.85	2715.02
435.03	2626.08
435.22	2640.12
435.41	2764.17
435.59	2726.72
435.78	2520.76
435.97	2647.15
436.16	2647.15
436.34	2726.72
436.53	2782.90
436.72	2712.68
436.90	2752.47
437.09	2794.60
437.28	2810.98
437.46	2895.24
437.65	2883.54
437.84	2899.92
438.02	2803.96
438.21	3021.63
438.40	2820.35
438.58	2904.60
438.77	2958.44
438.96	2878.86
439.14	2974.82
439.33	3023.97
439.52	2979.50
439.70	2986.52
439.89	3068.44
440.08	3148.02
440.26	3112.91
440.45	3033.33
440.63	3110.57
440.82	3171.43
441.01	3192.49
441.19	3155.04
441.38	3304.84
441.57	3311.86
441.75	3382.07
441.94	3353.99
442.12	3323.56
442.31	3375.05
442.50	3370.37
442.68	3300.16
442.87	3346.97
443.05	3435.91
443.24	3435.91
443.43	3574.00
443.61	3588.04
443.80	3566.98
443.98	3485.06
444.17	3288.45
444.35	3489.74
444.54	3501.44
444.73	3480.38
444.91	3421.86
445.10	3510.80
445.28	3496.76
445.47	3524.85
445.65	3370.37
445.84	3566.98
446.02	3489.74
446.21	3499.10
446.39	3487.40
446.58	3602.08
446.77	3506.12
446.95	3496.76
447.14	3634.85
447.32	3592.72
447.51	3613.79
447.69	3492.08
447.88	3513.14
448.06	3485.06
448.25	3562.30
448.43	3616.13
448.62	3606.77
448.80	3566.98
448.99	3751.88
449.17	3737.84
449.36	3709.75
449.54	3765.92
449.73	3992.95
449.91	3784.65
450.10	3737.84
450.28	3871.25
450.46	3812.73
450.65	3819.75
450.83	3976.57
451.02	3850.18
451.20	4072.53
451.39	3822.09
451.57	3840.82
451.76	3822.09
451.94	3957.85
452.13	4032.74
452.31	3948.48
452.49	3758.90
452.68	3920.40
452.86	3887.63
453.05	3934.44
453.23	4042.11
453.42	4095.94
453.60	3892.31
453.78	3927.42
453.97	4063.17
454.15	3934.44
454.34	4037.42
454.52	3978.91
454.70	3873.59
454.89	4142.75
455.07	4016.36
455.26	4117.00
455.44	4215.30
455.62	4119.34
455.81	4208.28
455.99	4194.24
456.17	4262.12
456.36	4365.10
456.54	4222.33
456.73	4168.49
456.91	4388.50
457.09	4376.80
457.28	4418.93
457.46	4332.33
457.64	4461.06
457.83	4404.89
458.01	4528.94
458.19	4470.42
458.38	4503.19
458.56	4503.19
458.74	4601.49
458.93	4454.04
459.11	4554.68
459.29	4580.43
459.48	4622.56
459.66	4542.98
459.84	4585.11
460.03	4596.81
460.21	4596.81
460.39	4660.01
460.57	4664.69
460.76	4547.66
460.94	4699.80
461.12	4711.50
461.31	4781.71
461.49	4805.12
461.67	4788.74
461.85	4812.14
462.04	4891.72
462.22	5036.83
462.40	4929.17
462.59	4830.87
462.77	4765.33
462.95	4990.02
463.13	4924.49
463.32	4983.00
463.50	5027.47
463.68	4901.08
463.86	5032.15
464.05	4959.60
464.23	4826.18
464.41	5018.11
464.59	4980.66
464.78	5146.84
464.96	5064.92
465.14	4910.44
465.32	4961.94
465.50	5071.94
465.69	5090.67
465.87	5102.37
466.05	5191.31
466.23	5039.17
466.41	5116.41
466.60	5355.15
466.78	5116.41
466.96	5078.96
467.14	5207.69
467.32	5277.91
467.51	5263.86
467.69	5036.83
467.87	5125.77
468.05	5320.04
468.23	5320.04
468.41	5135.14
468.60	5345.78
468.78	5439.40
468.96	5331.74
469.14	5366.85
469.32	5493.24
469.50	5366.85
469.69	5364.51
469.87	5526.00
470.05	5486.22
470.23	5523.66
470.41	5441.75
470.59	5650.05
470.77	5647.71
470.95	5518.98
471.14	5776.44
471.32	5652.39
471.50	5694.52
471.68	5701.54
471.86	5753.04
472.04	5708.57
472.22	5872.40
472.40	5750.70
472.58	5816.23
472.77	6050.28
472.95	5987.09
473.13	6132.20
473.31	5860.70
473.49	5846.66
473.67	5956.66
473.85	5944.96
474.03	6242.21
474.21	6228.17
474.39	6211.78
474.57	6157.95
474.75	6307.74
474.93	6359.24
475.12	6305.40
475.30	6375.62
475.48	6359.24
475.66	6445.84
475.84	6392.00
476.02	6300.72
476.20	6441.15
476.38	6560.52
476.56	6633.08
476.74	6733.72
476.92	6834.36
477.10	6729.04
477.28	6881.18
477.46	6581.59
477.64	6925.65
477.82	6923.30
478.00	7269.70
478.18	7089.48
478.36	7063.74
478.54	7166.72
478.72	7386.73
478.90	7318.86
479.08	7279.07
479.26	7391.41
479.44	7339.92
479.62	7470.99
479.80	7541.21
479.98	7459.29
480.16	7826.75
480.34	7833.77
480.52	7925.05
480.70	7906.33
480.88	7801.01
481.06	7866.54
481.24	7695.68
481.41	7793.98
481.59	7922.71
481.77	8196.56
481.95	8114.64
482.13	8098.25
482.31	8402.52
482.49	8360.39
482.67	8315.92
482.85	8535.93
483.03	8683.39
483.21	8865.95
483.39	8580.40
483.57	8767.65
483.74	8966.59
483.92	9043.83
484.10	8833.18
484.28	9020.42
484.46	9362.14
484.64	9146.81
484.82	9329.38
485.00	9238.09
485.18	9547.05
485.35	9535.34
485.53	9530.66
485.71	9628.96
485.89	9898.13
486.07	9745.99
486.25	9809.19
486.43	10026.86
486.61	9745.99
486.78	10251.55
486.96	10125.16
487.14	10087.71
487.32	10523.05
487.50	10450.49
487.68	10576.88
487.85	10614.33
488.03	10602.63
488.21	10796.89
488.39	10799.23
488.57	10925.62
488.75	10956.05
488.92	11260.32
489.10	11056.69
489.28	11070.73
489.46	11335.21
489.64	11396.07
489.81	11573.95
489.99	11796.30
490.17	11606.72
490.35	11723.74
490.53	11932.05
490.70	11974.18
490.88	11885.24
491.06	11910.99
491.24	12053.76
491.41	12060.78
491.59	12236.32
491.77	12343.99
491.95	12306.54
492.13	12500.80
492.30	12531.23
492.48	12856.56
492.66	12554.63
492.84	12526.55
493.01	12802.73
493.19	12989.97
493.37	12992.31
493.54	13261.48
493.72	12828.48
493.90	13081.25
494.08	13345.73
494.25	13537.66
494.43	13619.58
494.61	13289.56
494.79	13734.26
494.96	13579.79
495.14	13696.82
495.32	13872.36
495.49	13884.06
495.67	14111.09
495.85	14157.90
496.02	14106.41
496.20	14214.07
496.38	14579.20
496.55	14305.35
496.73	14775.80
496.91	14422.38
497.09	14485.58
497.26	14677.50
497.44	14523.02
497.62	14806.23
497.79	14904.53
497.97	14965.39
498.14	14923.26
498.32	15225.18
498.50	15183.06
498.67	15428.81
498.85	15426.47
499.03	15704.99
499.20	15403.07
499.38	15683.93
499.56	15482.64
499.73	15515.41
499.91	15852.45
500.08	15627.76
500.26	15564.56
500.44	15932.03
500.61	15812.66
500.79	16067.78
500.97	15929.69
501.14	16341.62
501.32	16243.32
501.49	16037.35
501.67	16290.13
501.84	16446.94
502.02	16414.18
502.20	16451.63
502.37	16498.44
502.55	16561.63
502.72	16711.42
502.90	16884.62
503.07	16411.84
503.25	16568.65
503.43	16769.94
503.60	16847.18
503.78	17050.80
503.95	16837.81
504.13	16893.99
504.30	16980.59
504.48	16767.60
504.65	17380.82
504.83	17355.07
505.01	17525.93
505.18	17357.41
505.36	17598.49
505.53	17544.66
505.71	17621.89
505.88	17554.02
506.06	17151.45
506.23	17666.36
506.41	17884.03
506.58	17830.20
506.76	17621.89
506.93	18003.40
507.11	18050.21
507.28	18160.22
507.46	17898.08
507.63	18394.27
507.81	18143.83
507.98	17916.80
508.16	18118.09
508.33	18242.14
508.50	18382.57
508.68	18068.94
508.85	18590.88
509.03	18305.33
509.20	18766.42
509.38	18761.73
509.55	18946.64
509.73	18780.46
509.90	18775.78
510.08	18899.83
510.25	18700.88
510.42	19009.83
510.60	19089.41
510.77	19384.32
510.95	19470.92
511.12	19073.03
511.30	19267.29
511.47	19171.33
511.64	19398.36
511.82	19316.44
511.99	19344.53
512.17	19726.04
512.34	19604.33
512.51	19826.68
512.69	19613.69
512.86	19623.05
513.04	20027.96
513.21	20044.35
513.38	19913.28
513.56	19894.55
513.73	20002.22
513.90	19859.45
514.08	19754.12
514.25	20278.40
514.43	20077.12
514.60	20142.65
514.77	20325.21
514.95	20641.18
515.12	20350.96
515.29	20306.49
515.47	20582.67
515.64	20624.80
515.81	20704.38
515.99	20936.09
516.16	20924.39
516.33	20627.14
516.51	21006.31
516.68	20844.81
516.85	21153.76
517.03	21156.10
517.20	21083.55
517.37	20975.88
517.54	20886.94
517.72	20898.64
517.89	21301.22
518.06	21228.66
518.24	20926.73
518.41	20718.42
518.58	21179.51
518.75	21209.93
518.93	21469.73
519.10	21469.73
519.27	21490.80
519.45	21647.61
519.62	21642.93
519.79	21722.51
519.96	21766.98
520.14	21703.79
520.31	21523.57
520.48	21855.92
520.65	22005.72
520.83	21949.54
521.00	22111.04
521.17	21954.22
521.34	21979.97
521.52	22040.82
521.69	22204.66
521.86	22314.67
522.03	22431.69
522.20	22434.03
522.38	22515.95
522.55	22101.68
522.72	22480.85
522.89	22352.12
523.07	22806.18
523.24	22352.12
523.41	22560.42
523.58	22600.21
523.75	22700.86
523.92	22583.83
524.10	22761.71
524.27	22799.16
524.44	23014.49
524.61	23075.34
524.78	23091.73
524.96	22937.25
525.13	23164.28
525.30	23206.41
525.47	23110.45
525.64	22925.55
525.81	23276.63
525.98	23475.57
526.16	23227.48
526.33	23213.43
526.50	23606.64
526.67	23440.47
526.84	23470.89
527.01	23260.24
527.18	23501.32
527.36	23660.48
527.53	23508.34
527.70	23772.82
527.87	23796.23
528.04	23915.59
528.21	23618.35
528.38	23730.69
528.55	23817.29
528.72	23997.51
528.89	24231.57
529.07	24226.89
529.24	23992.83
529.41	24372.00
529.58	23885.17
529.75	24135.60
529.92	24290.08
530.09	24252.63
530.26	24379.02
530.43	24355.61
530.60	24472.64
530.77	24381.36
530.94	24505.41
531.11	24357.96
531.28	24437.53
531.46	24390.72
531.63	24411.79
531.80	24685.63
531.97	24376.68
532.14	24683.29
532.31	24657.54
532.48	24657.54
532.65	24989.90
532.82	24683.29
532.99	24837.76
533.16	24734.78
533.33	24821.38
533.50	25369.07
533.67	25184.16
533.84	24889.26
534.01	24634.14
534.18	24868.19
534.35	25317.57
534.52	25331.62
534.69	25429.92
534.86	25200.55
535.03	24989.90
535.20	25568.01
535.37	25291.83
535.54	25392.47
535.71	25544.61
535.88	25479.07
536.05	25221.61
536.22	25652.27
536.38	25532.90
536.55	25820.79
536.72	25738.87
536.89	25324.60
537.06	25579.71
537.23	25776.32
537.40	25762.28
537.57	25720.15
537.74	26195.28
537.91	26139.10
538.08	26235.06
538.25	25799.73
538.42	26284.22
538.59	25947.18
538.75	25839.51
538.92	25862.92
539.09	26092.29
539.26	26068.89
539.43	26008.03
539.60	26288.90
539.77	26127.40
539.94	26511.25
540.11	26307.62
540.28	26061.87
540.44	26368.48
540.61	26326.35
540.78	26192.94
540.95	26494.86
541.12	26225.70
541.29	26504.23
541.46	26698.49
541.62	26375.50
541.79	26611.89
541.96	26284.22
542.13	26527.63
542.30	26394.22
542.47	26815.52
542.63	27026.17
542.80	27094.04
542.97	27077.66
543.14	27283.62
543.31	26785.09
543.48	27105.74
543.64	27068.30
543.81	27147.87
543.98	27421.72
544.15	27349.16
544.32	27295.33
544.48	27124.47
544.65	27227.45
544.82	27239.15
544.99	27215.75
545.16	27337.46
545.32	27285.97
545.49	27484.91
545.66	27562.15
545.83	27564.49
546.00	27725.99
546.16	27438.10
546.33	27269.58
546.50	27084.68
546.67	27843.01
546.83	27363.20
547.00	27585.55
547.17	27796.20
547.34	27899.19
547.50	27814.93
547.67	28044.30
547.84	27686.20
548.00	27758.75
548.17	28032.60
548.34	27913.23
548.51	27950.68
548.67	27751.73
548.84	28009.19
549.01	28018.55
549.18	27866.42
549.34	27826.63
549.51	28102.81
549.68	27960.04
549.84	27810.25
550.01	28100.47
550.18	27735.35
550.34	27770.46
550.51	28294.74
550.68	28208.14
550.84	27985.79
551.01	28442.19
551.18	28067.70
551.34	28051.32
551.51	28472.62
551.68	28329.84
551.84	28666.88
552.01	28484.32
552.18	28596.67
552.34	28390.70
552.51	28491.34
552.68	28320.48
552.84	28802.63
553.01	28353.25
553.18	28711.35
553.34	28762.84
553.51	28723.05
553.67	28992.22
553.84	28856.46
554.01	28678.58
554.17	28929.02
554.34	28992.22
554.51	28835.40
554.67	28811.99
554.84	28627.09
555.00	28816.68
555.17	28891.57
555.33	29010.94
555.50	28851.78
555.67	28776.89
555.83	28811.99
556.00	28837.74
556.16	29621.82
556.33	29120.95
556.50	29010.94
556.66	28755.82
556.83	29032.00
556.99	29134.99
557.16	29570.33
557.32	29434.58
557.49	29284.78
557.65	28730.08
557.82	29207.55
557.98	29516.50
558.15	29317.55
558.32	29479.05
558.48	28994.56
558.65	29469.69
558.81	29640.54
558.98	29371.38
559.14	29472.03
559.31	29214.57
559.47	29394.79
559.64	29504.79
559.80	29450.96
559.97	29219.25
560.13	29228.61
560.30	29603.10
560.46	29755.23
560.63	29788.00
560.79	29376.06
560.96	29319.89
561.12	29518.84
561.29	29546.92
561.45	29563.31
561.61	29930.77
561.78	29624.16
561.94	29757.57
562.11	29656.93
562.27	29984.60
562.44	29738.85
562.60	29488.41
562.77	29654.59
562.93	29633.52
563.10	29860.55
563.26	29619.48
563.42	29951.84
563.59	29743.53
563.75	29879.28
563.92	29766.93
564.08	29890.98
564.24	29813.74
564.41	29656.93
564.57	29750.55
564.74	29986.94
564.90	30213.98
565.07	30000.99
565.23	29996.31
565.39	29989.28
565.56	29666.29
565.72	30071.20
565.88	29919.07
566.05	30029.07
566.21	29699.06
566.38	29949.50
566.54	30466.75
566.70	30249.08
566.87	30492.50
567.03	29834.81
567.19	30361.43
567.36	30082.91
567.52	30022.05
567.68	30436.33
567.85	30040.78
568.01	30195.25
568.17	29965.88
568.34	30410.58
568.50	30103.97
568.66	30541.65
568.83	30370.79
568.99	30445.69
569.15	30389.52
569.32	29893.32
569.48	30082.91
569.64	30396.54
569.81	30494.84
569.97	30089.93
570.13	30059.50
570.30	30059.50
570.46	30244.40
570.62	30412.92
570.78	30024.39
570.95	30349.73
571.11	30513.56
571.27	30000.99
571.43	30031.41
571.60	30459.73
571.76	30125.04
571.92	30174.19
572.09	30300.58
572.25	30719.53
572.41	30581.44
572.57	30511.22
572.74	30579.10
572.90	30473.78
573.06	30199.93
573.22	30139.08
573.38	30326.32
573.55	30492.50
573.71	30391.86
573.87	30787.41
574.03	30754.64
574.20	30576.76
574.36	30623.57
574.52	30284.19
574.68	30717.19
574.84	30642.29
575.01	30380.15
575.17	30761.66
575.33	30560.37
575.49	30611.87
575.65	30628.25
575.82	30714.85
575.98	30293.55
576.14	30558.03
576.30	30455.05
576.46	30291.21
576.62	30408.24
576.79	30726.55
576.95	30675.06
577.11	30714.85
577.27	30939.54
577.43	30724.21
577.59	30787.41
577.75	30920.82
577.92	30478.46
578.08	30483.14
578.24	30536.97
578.40	30403.56
578.56	30450.37
578.72	31021.46
578.88	30766.34
579.04	31040.18
579.21	30532.29
579.37	30625.91
579.53	30686.76
579.69	30326.32
579.85	30487.82
580.01	30691.44
580.17	30742.94
580.33	30759.32
580.49	30555.69
580.65	30909.11
580.82	30686.76
580.98	30764.00
581.14	30778.04
581.30	30824.86
581.46	30668.04
581.62	30555.69
581.78	31220.41
581.94	30567.40
582.10	30752.30
582.26	30700.81
582.42	30541.65
582.58	30904.43
582.74	30857.62
582.90	30773.36
583.06	30906.77
583.22	30611.87
583.38	30583.78
583.54	30665.70
583.70	30918.48
583.86	30529.95
584.02	30700.81
584.18	30632.93
584.34	31204.02
584.50	31159.55
584.66	30902.09
584.82	30569.74
584.98	30984.01
585.14	31187.64
585.30	30658.68
585.46	30672.72
585.62	30703.15
585.78	30501.86
585.94	30775.70
586.10	30637.61
586.26	30918.48
586.42	31009.76
586.58	31328.07
586.74	30925.50
586.90	30572.08
587.06	30492.50
587.22	30749.96
587.38	31058.91
587.54	30885.71
587.70	31246.15
587.86	31353.82
588.02	31297.64
588.18	31159.55
588.34	30675.06
588.49	30836.56
588.65	30579.10
588.81	30869.33
588.97	31079.97
589.13	31381.90
589.29	30916.14
589.45	31335.09
589.61	31428.71
589.77	31548.08
589.93	31391.26
590.08	31353.82
590.24	31445.10
590.40	31421.69
590.56	31054.23
590.72	31218.07
590.88	30710.17
591.04	30782.73
591.20	31370.20
591.35	31208.70
591.51	31618.30
591.67	31503.61
591.83	31459.14
591.99	31782.13
592.15	31208.70
592.31	31321.05
592.46	30941.88
592.62	31438.08
592.78	31014.44
592.94	31414.67
593.10	30787.41
593.26	31517.65
593.41	31536.38
593.57	31246.15
593.73	31576.17
593.89	31346.79
594.05	31405.31
594.20	30965.29
594.36	31133.81
594.52	31307.01
594.68	30852.94
594.84	31220.41
594.99	31407.65
595.15	31124.44
595.31	31620.64
595.47	31037.84
595.62	31452.12
595.78	31157.21
595.94	31299.98
596.10	31402.97
596.25	31386.58
596.41	31379.56
596.57	31105.72
596.73	31269.56
596.88	31419.35
597.04	31842.99
597.20	31309.35
597.36	31075.29
597.51	31761.07
597.67	31246.15
597.83	31201.68
597.99	31248.49
598.14	31274.24
598.30	31061.25
598.46	30810.81
598.61	31171.25
598.77	31669.79
598.93	31337.43
599.09	31285.94
599.24	31639.36
599.40	31304.67
599.56	31573.83
599.71	31473.18
599.87	31395.95
600.03	31262.54
600.18	31332.75
600.34	31562.12
600.50	31365.52
600.65	31323.39
600.81	31641.70
600.97	31391.26
601.12	31842.99
601.28	31864.05
601.44	31992.78
601.59	31672.13
601.75	31367.86
601.91	31782.13
602.06	31763.41
602.22	31791.50
602.37	31782.13
602.53	31431.05
602.69	31365.52
602.84	32023.21
603.00	31557.44
603.16	31283.60
603.31	31709.58
603.47	31789.16
603.62	31667.45
603.78	31594.89
603.94	31377.22
604.09	31054.23
604.25	31316.37
604.40	31477.86
604.56	31407.65
604.71	31152.53
604.87	31578.51
605.03	31421.69
605.18	31482.55
605.34	31346.79
605.49	31145.51
605.65	31353.82
605.80	31094.02
605.96	31445.10
606.12	31119.76
606.27	31529.36
606.43	31388.92
606.58	31503.61
606.74	31728.30
606.89	31527.02
607.05	31185.30
607.20	31246.15
607.36	31728.30
607.51	31367.86
607.67	30993.37
607.82	31667.45
607.98	31391.26
608.13	31463.82
608.29	31072.95
608.44	31122.10
608.60	31751.71
608.75	31342.11
608.91	31381.90
609.06	31016.78
609.22	31419.35
609.37	31005.08
609.53	31147.85
609.68	30998.06
609.84	31351.48
609.99	31136.15
610.15	30925.50
610.30	31285.94
610.46	31276.58
610.61	31239.13
610.76	31473.18
610.92	31323.39
611.07	31098.70
611.23	31122.10
611.38	31091.68
611.54	31007.42
611.69	30705.49
611.84	30801.45
612.00	30927.84
612.15	31014.44
612.31	30841.24
612.46	31094.02
612.62	31140.83
612.77	31590.21
612.92	31445.10
613.08	31082.31
613.23	31056.57
613.39	30742.94
613.54	30888.05
613.69	31253.17
613.85	30892.73
614.00	30986.35
614.15	30855.28
614.31	30665.70
614.46	31250.83
614.62	31192.32
614.77	30639.95
614.92	31000.40
615.08	31061.25
615.23	31047.21
615.38	30923.16
615.54	30951.24
615.69	30546.33
615.84	30642.29
616.00	30583.78
616.15	30700.81
616.30	31241.47
616.46	30944.22
616.61	30988.69
616.76	30803.79
616.92	30635.27
617.07	30820.17
617.22	30438.67
617.37	30548.67
617.53	30693.79
617.68	30504.20
617.83	30536.97
617.99	30277.17
618.14	30490.16
618.29	30529.95
618.45	30232.70
618.60	30331.00
618.75	30141.42
618.90	30319.30
619.06	30546.33
619.21	30300.58
619.36	30492.50
619.51	30223.34
619.67	30176.53
619.82	29912.05
619.97	30029.07
620.12	30059.50
620.28	30494.84
620.43	30412.92
620.58	30597.82
620.73	30417.60
620.89	30703.15
621.04	30267.81
621.19	30579.10
621.34	29984.60
621.49	30169.51
621.65	30307.60
621.80	30370.79
621.95	29968.22
622.10	30096.95
622.25	29923.75
622.41	29886.30
622.56	30125.04
622.71	30213.98
622.86	30368.45
623.01	29937.79
623.16	30232.70
623.32	29963.54
623.47	30096.95
623.62	29771.61
623.77	29916.73
623.92	29965.88
624.07	30132.06
624.23	29488.41
624.38	30012.69
624.53	29776.30
624.68	30476.12
624.83	29493.09
624.98	29825.45
625.13	29813.74
625.29	29771.61
625.44	29537.56
625.59	29228.61
625.74	29923.75
625.89	29317.55
626.04	29736.51
626.19	29909.71
626.34	29633.52
626.49	29230.95
626.65	29614.80
626.80	30087.59
626.95	29570.33
627.10	29582.03
627.25	29350.32
627.40	29450.96
627.55	29504.79
627.70	28886.89
627.85	29383.09
628.00	29376.06
628.15	29235.63
628.30	29230.95
628.45	29364.36
628.60	29359.68
628.76	29448.62
628.91	29642.88
629.06	29511.81
629.21	29223.93
629.36	29099.88
629.51	29216.91
629.66	29364.36
629.81	29151.37
629.96	28877.53
630.11	28774.55
630.26	28636.45
630.41	28980.51
630.56	28973.49
630.71	28828.38
630.86	28882.21
631.01	28989.88
631.16	29127.97
631.31	29181.80
631.46	28662.20
631.61	29130.31
631.76	28992.22
631.91	29123.29
632.06	28716.03
632.21	29006.26
632.36	28879.87
632.51	28795.61
632.66	28617.73
632.81	28371.97
632.96	28999.24
633.10	28980.51
633.25	28978.17
633.40	28964.13
633.55	28662.20
633.70	28739.44
633.85	28325.16
634.00	28645.82
634.15	28645.82
634.30	28608.37
634.45	28505.38
634.60	28718.37
634.75	28781.57
634.90	28467.94
635.05	29029.66
635.19	28685.61
635.34	28945.41
635.49	29092.86
635.64	28783.91
635.79	28573.26
635.94	28432.83
636.09	28870.51
636.24	28245.58
636.39	28386.02
636.53	28772.21
636.68	28423.47
636.83	28692.63
636.98	28259.63
637.13	28465.60
637.28	28704.33
637.43	28472.62
637.57	28393.04
637.72	28442.19
637.87	28453.89
638.02	27941.32
638.17	28346.23
638.32	28341.55
638.46	27873.44
638.61	27845.35
638.76	27878.12
638.91	28210.48
639.06	28023.23
639.20	28147.28
639.35	28210.48
639.50	28210.48
639.65	28510.07
639.80	28250.27
639.94	28231.54
640.09	28339.21
640.24	27700.24
640.39	27873.44
640.54	27845.35
640.68	27599.60
640.83	27821.95
640.98	27843.01
641.13	27435.76
641.27	28067.70
641.42	28151.96
641.57	27620.66
641.72	27686.20
641.86	27529.38
642.01	27985.79
642.16	27704.92
642.31	27665.13
642.45	27435.76
642.60	27482.57
642.75	27384.27
642.90	27159.58
643.04	27342.14
643.19	27236.81
643.34	27517.68
643.48	27894.50
643.63	27784.50
643.78	27864.08
643.93	27796.20
644.07	27974.08
644.22	27885.14
644.37	27646.41
644.51	27611.30
644.66	27854.72
644.81	27253.20
644.95	27218.09
645.10	27491.93
645.25	27351.50
645.39	27204.05
645.54	27349.16
645.69	27424.06
645.83	27241.50
645.98	27496.61
646.13	27536.40
646.27	27351.50
646.42	27126.81
646.57	27168.94
646.71	27377.25
646.86	27087.02
647.00	27295.33
647.15	26899.78
647.30	26974.67
647.44	26752.32
647.59	26974.67
647.74	27124.47
647.88	27030.85
648.03	27178.30
648.17	27204.05
648.32	27084.68
648.47	27346.82
648.61	26967.65
648.76	26862.33
648.90	27208.73
649.05	26995.74
649.20	26843.60
649.34	26895.10
649.49	26792.11
649.63	26843.60
649.78	26834.24
649.92	26614.23
650.07	26967.65
650.21	26551.04
650.36	26810.84
650.51	26452.73
650.65	26785.09
650.80	26817.86
650.94	26801.47
651.09	26611.89
651.23	26576.78
651.38	26792.11
651.52	26796.79
651.67	26359.11
651.81	26565.08
651.96	26778.07
652.10	26689.13
652.25	26794.45
652.39	26841.26
652.54	26876.37
652.68	26902.12
652.83	26621.25
652.97	26682.11
653.12	26752.32
653.26	26869.35
653.41	26436.35
653.55	26532.31
653.70	25848.88
653.84	26628.27
653.99	26670.40
654.13	26904.46
654.27	26515.93
654.42	26569.76
654.56	26466.78
654.71	26263.15
654.85	26438.69
655.00	26675.09
655.14	26473.80
655.29	26174.21
655.43	26508.91
655.57	26237.41
655.72	26419.97
655.86	25979.95
656.01	25769.30
656.15	25907.39
656.30	26249.11
656.44	26192.94
656.58	26024.42
656.73	25989.31
656.87	25986.97
657.01	26045.48
657.16	26277.19
657.30	26160.17
657.45	26389.54
657.59	25844.20
657.73	25752.91
657.88	26111.02
658.02	26101.65
658.16	26040.80
658.31	25539.93
658.45	25797.38
658.60	25575.03
658.74	25383.11
658.88	25748.23
659.03	25525.88
659.17	25687.38
659.31	25724.83
659.46	25731.85
659.60	25825.47
659.74	25764.62
659.89	25640.57
660.03	25521.20
660.17	25450.99
660.32	25263.74
660.46	25198.21
660.60	24849.47
660.74	25392.47
660.89	25280.13
661.03	25282.47
661.17	25333.96
661.32	24940.75
661.46	25287.15
661.60	25380.77
661.74	25516.52
661.89	25422.90
662.03	25116.29
662.17	24828.40
662.31	25015.65
662.46	25219.27
662.60	25392.47
662.74	25085.86
662.88	25003.94
663.03	24795.64
663.17	24854.15
663.31	24582.65
663.45	24346.25
663.60	24947.77
663.74	24634.14
663.88	24638.82
664.02	24631.80
664.17	24875.21
664.31	24584.99
664.45	24458.60
664.59	24856.49
664.73	24732.44
664.88	24395.40
665.02	24512.43
665.16	24285.40
665.30	24217.52
665.44	24259.65
665.59	24142.63
665.73	24350.93
665.87	23880.49
666.01	24332.21
666.15	23992.83
666.29	24208.16
666.44	24498.39
666.58	23962.40
666.72	23927.30
666.86	24180.07
667.00	24229.23
667.14	24315.83
667.28	23648.77
667.43	23625.37
667.57	23899.21
667.71	23946.02
667.85	23955.38
667.99	23878.15
668.13	23571.54
668.27	23688.56
668.41	23714.31
668.56	23695.58
668.70	23840.70
668.84	23386.63
668.98	23761.12
669.12	23658.14
669.26	23506.00
669.40	23648.77
669.54	23777.50
669.68	23218.11
669.82	23271.95
669.96	23438.12
670.10	22824.90
670.25	23522.38
670.39	23075.34
670.53	23077.68
670.67	22845.97
670.81	23262.58
670.95	23178.33
671.09	23124.49
671.23	22972.36
671.37	23194.71
671.51	22878.74
671.65	22778.09
671.79	22944.27
671.93	22824.90
672.07	22841.29
672.21	22476.16
672.35	22532.34
672.49	22677.45
672.63	22658.73
672.77	22340.41
672.91	22375.52
673.05	22342.75
673.19	22265.52
673.33	22277.22
673.47	21879.33
673.61	22391.91
673.75	22288.92
673.89	22232.75
674.03	22235.09
674.17	22309.99
674.31	22003.38
674.45	21776.34
674.59	21933.16
674.73	21898.05
674.87	21626.55
675.01	21788.05
675.15	21685.06
675.29	21366.75
675.43	21649.96
675.56	21518.89
675.70	21806.77
675.84	21743.58
675.98	20987.58
676.12	21413.56
676.26	21769.32
676.40	21479.10
676.54	21310.58
676.68	21060.14
676.82	20798.00
676.96	20851.83
677.10	20559.27
677.23	20893.96
677.37	20861.19
677.51	20786.30
677.65	20854.17
677.79	20582.67
677.93	20781.62
678.07	20697.36
678.21	20470.33
678.34	20339.26
678.48	20245.63
678.62	20477.35
678.76	20641.18
678.90	20184.78
679.04	20456.28
679.18	20517.14
679.31	20009.24
679.45	19730.72
679.59	19988.18
679.73	19857.10
679.87	19812.63
680.00	19655.82
680.14	19688.59
680.28	19805.61
680.42	19716.67
680.56	19866.47
680.70	19702.63
680.83	19662.84
680.97	19859.45
681.11	19269.63
681.25	19283.67
681.39	19529.43
681.52	19658.16
681.66	19075.37
681.80	19145.58
681.94	18944.30
682.07	19227.50
682.21	18913.87
682.35	18574.49
682.49	18869.40
682.62	18902.17
682.76	18696.20
682.90	18735.99
683.04	18743.01
683.17	18764.07
683.31	18609.60
683.45	18803.86
683.59	18431.72
683.72	18340.44
683.86	18576.83
684.00	18520.66
684.13	18209.37
684.27	18097.02
684.41	17841.90
684.55	17949.57
684.68	17680.41
684.82	17638.28
684.96	17731.90
685.09	17472.10
685.23	17769.35
685.37	17467.42
685.50	17673.39
685.64	17539.97
685.78	17488.48
685.91	17577.42
686.05	17504.87
686.19	17345.71
686.32	17163.15
686.46	17371.46
686.60	17088.25
686.73	17060.16
686.87	17266.13
687.01	17076.55
687.14	17163.15
687.28	16919.73
687.42	16889.31
687.55	16805.05
687.69	16493.76
687.82	16926.75
687.96	16552.27
688.10	16573.33
688.23	16865.90
688.37	16386.09
688.50	16442.26
688.64	16407.16
688.78	16435.24
688.91	16088.84
689.05	16341.62
689.18	16271.40
689.32	15803.30
689.46	16126.29
689.59	16154.38
689.73	15646.48
689.86	15976.50
690.00	16023.31
690.13	15658.18
690.27	15726.06
690.41	15683.93
690.54	15899.26
690.68	15391.36
690.81	15917.98
690.95	15384.34
691.08	15669.89
691.22	15653.50
691.35	15349.23
691.49	15314.13
691.62	15276.68
691.76	15279.02
691.89	14834.32
692.03	14986.45
692.16	14916.23
692.30	14824.95
692.43	14890.49
692.57	14820.27
692.70	14546.43
692.84	14541.75
692.97	14621.33
693.11	14970.07
693.24	14523.02
693.38	14857.72
693.51	14572.18
693.65	14406.00
693.78	14375.57
693.92	14176.62
694.05	14263.22
694.19	14036.19
694.32	14303.01
694.45	14190.67
694.59	13554.04
694.72	13877.04
694.86	13935.55
694.99	13668.73
695.13	13802.14
695.26	13511.91
695.39	13570.43
695.53	13750.65
695.66	13579.79
695.80	13788.10
695.93	13668.73
696.07	13521.27
696.20	13493.19
696.33	13238.07
696.47	13462.76
696.60	13287.22
696.73	13345.73
696.87	13392.55
697.00	12989.97
697.14	12971.25
697.27	12589.74
697.40	13064.87
697.54	12835.50
697.67	12725.49
697.80	12617.83
697.94	12556.97
698.07	12573.36
698.21	12453.99
698.34	12603.78
698.47	12468.03
698.61	12638.89
698.74	12615.49
698.87	12411.86
699.01	12184.83
699.14	12334.62
699.27	12074.82
699.40	12163.76
699.54	12210.57
699.67	11969.50
699.80	11857.15
699.94	11857.15
700.07	11889.92
700.20	11763.53
700.34	11604.38
700.47	11653.53
700.60	11513.10
700.73	11875.88
700.87	11566.93
701.00	11473.31
701.13	11604.38
701.26	11494.37
701.40	11496.71
701.53	11538.84
701.66	11265.00
701.79	11527.14
701.93	11267.34
702.06	11131.59
702.19	10960.73
702.32	11173.72
702.46	11005.20
702.59	10707.95
702.72	10801.57
702.85	10897.53
702.99	10691.57
703.12	10635.39
703.25	10611.99
703.38	10483.26
703.51	10712.63
703.65	10850.72
703.78	10705.61
703.91	10480.92
704.04	10682.20
704.17	10714.97
704.31	10303.04
704.44	10464.54
704.57	10176.65
704.70	10279.63
704.83	10136.86
704.96	10134.52
705.10	10052.60
705.23	9860.68
>>>>>End Processed Spectral Data<<<<<
