SpectraSuite Data File
++++++++++++++++++++++++++++++++++++
Date: Fri Oct 18 13:58:01 GMT-05:00 2013
User: bianchi
Dark Spectrum Present: No
Reference Spectrum Present: No
Number of Sampled Component Spectra: 1
Spectrometers: USB2+H05261
Integration Time (usec): 50000 (USB2+H05261)
Spectra Averaged: 1 (USB2+H05261)
Boxcar Smoothing: 0 (USB2+H05261)
Correct for Electrical Dark: No (USB2+H05261)
Strobe/Lamp Enabled: No (USB2+H05261)
Correct for Detector Non-linearity: No (USB2+H05261)
Correct for Stray Light: No (USB2+H05261)
Number of Pixels in Processed Spectrum: 2048
>>>>>Begin Processed Spectral Data<<<<<
365.73	0.00
365.92	0.00
366.12	0.00
366.32	0.00
366.52	0.00
366.72	0.00
366.91	0.00
367.11	0.00
367.31	0.00
367.51	0.00
367.70	0.00
367.90	0.00
368.10	0.00
368.30	0.00
368.49	0.00
368.69	0.00
368.89	0.00
369.09	0.00
369.28	0.00
369.48	0.00
369.68	0.00
369.87	0.00
370.07	0.00
370.27	0.00
370.47	79.58
370.66	49.15
370.86	49.15
371.06	110.01
371.25	156.82
371.45	201.29
371.65	100.64
371.84	201.29
372.04	194.26
372.24	166.18
372.44	201.29
372.63	248.10
372.83	252.78
373.03	220.01
373.22	117.03
373.42	257.46
373.62	252.78
373.81	177.88
374.01	229.37
374.21	175.54
374.40	231.71
374.60	205.97
374.79	198.95
374.99	290.23
375.19	315.97
375.38	259.80
375.58	234.05
375.78	191.92
375.97	124.05
376.17	259.80
376.37	210.65
376.56	297.25
376.76	278.52
376.95	320.65
377.15	266.82
377.35	313.63
377.54	271.50
377.74	290.23
377.93	341.72
378.13	238.73
378.33	262.14
378.52	292.57
378.72	318.31
378.91	353.42
379.11	238.73
379.31	229.37
379.50	280.86
379.70	311.29
379.89	311.29
380.09	280.86
380.28	287.89
380.48	344.06
380.68	369.80
380.87	327.68
381.07	388.53
381.26	332.36
381.46	367.46
381.65	332.36
381.85	285.55
382.04	320.65
382.24	290.23
382.43	332.36
382.63	414.27
382.83	397.89
383.02	390.87
383.22	372.15
383.41	318.31
383.61	318.31
383.80	318.31
384.00	355.76
384.19	299.59
384.39	362.78
384.58	355.76
384.78	383.85
384.97	388.53
385.17	339.38
385.36	367.46
385.56	409.59
385.75	435.34
385.95	346.40
386.14	390.87
386.34	365.12
386.53	341.72
386.72	484.49
386.92	388.53
387.11	372.15
387.31	351.08
387.50	496.19
387.70	414.27
387.89	409.59
388.09	472.79
388.28	437.68
388.48	451.72
388.67	547.69
388.86	421.30
389.06	496.19
389.25	411.93
389.45	461.09
389.64	524.28
389.84	449.38
390.03	454.06
390.22	479.81
390.42	519.60
390.61	465.77
390.81	489.17
391.00	519.60
391.19	519.60
391.39	500.87
391.58	521.94
391.78	552.37
391.97	580.45
392.16	521.94
392.36	557.05
392.55	475.13
392.75	468.11
392.94	498.53
393.13	585.13
393.33	585.13
393.52	550.03
393.71	580.45
393.91	533.64
394.10	615.56
394.29	638.97
394.49	533.64
394.68	608.54
394.88	491.51
395.07	592.16
395.26	667.05
395.46	629.60
395.65	657.69
395.84	596.84
396.04	713.86
396.23	655.35
396.42	554.71
396.62	660.03
396.81	720.88
397.00	657.69
397.19	629.60
397.39	594.50
397.58	702.16
397.77	587.47
397.97	723.23
398.16	688.12
398.35	669.39
398.55	723.23
398.74	601.52
398.93	753.65
399.12	643.65
399.32	725.57
399.51	744.29
399.70	746.63
399.90	671.73
400.09	765.36
400.28	720.88
400.47	706.84
400.67	777.06
400.86	835.57
401.05	777.06
401.24	777.06
401.44	753.65
401.63	770.04
401.82	795.78
402.01	833.23
402.21	770.04
402.40	880.04
402.59	779.40
402.78	777.06
402.97	814.51
403.17	870.68
403.36	889.40
403.55	854.30
403.74	940.90
403.93	842.59
404.13	889.40
404.32	922.17
404.51	903.45
404.70	880.04
404.89	903.45
405.09	931.53
405.28	823.87
405.47	889.40
405.66	1006.43
405.85	912.81
406.05	940.90
406.24	929.19
406.43	987.71
406.62	1029.84
406.81	1050.90
407.00	983.02
407.20	940.90
407.39	1001.75
407.58	1006.43
407.77	1001.75
407.96	1083.67
408.15	1114.10
408.34	1013.45
408.54	994.73
408.73	1008.77
408.92	1102.39
409.11	1191.33
409.30	1008.77
409.49	1165.59
409.68	1123.46
409.87	1128.14
410.07	1217.08
410.26	1067.28
410.45	1184.31
410.64	1149.20
410.83	1254.53
411.02	1203.04
411.21	1291.98
411.40	1196.01
411.59	1289.64
411.78	1231.12
411.98	1242.82
412.17	1280.27
412.36	1282.61
412.55	1387.94
412.74	1383.26
412.93	1369.21
413.12	1287.29
413.31	1373.89
413.50	1336.45
413.69	1378.58
413.88	1427.73
414.07	1479.22
414.26	1446.45
414.45	1390.28
414.64	1481.56
414.83	1430.07
415.02	1572.84
415.22	1633.69
415.41	1535.39
415.60	1455.81
415.79	1554.12
415.98	1614.97
416.17	1664.12
416.36	1565.82
416.55	1598.59
416.74	1598.59
416.93	1708.59
417.12	1689.87
417.31	1736.68
417.50	1596.25
417.69	1834.98
417.88	1694.55
418.07	1694.55
418.26	1657.10
418.45	1675.82
418.64	1818.60
418.83	1736.68
419.02	1769.44
419.21	1905.20
419.39	1888.81
419.58	1825.62
419.77	1844.34
419.96	1865.41
420.15	1830.30
420.34	1973.07
420.53	1860.73
420.72	1975.41
420.91	2043.29
421.10	1980.09
421.29	1907.54
421.48	1881.79
421.67	1949.67
421.86	2031.58
422.05	1937.96
422.24	1930.94
422.43	1874.77
422.61	1933.28
422.80	2012.86
422.99	1966.05
423.18	1987.11
423.37	1998.82
423.56	2057.33
423.75	1973.07
423.94	1811.57
424.13	1851.36
424.32	1907.54
424.50	2092.44
424.69	2120.53
424.88	2064.35
425.07	2108.82
425.26	2003.50
425.45	2024.56
425.64	2015.20
425.83	1984.77
426.01	2134.57
426.20	2076.06
426.39	2050.31
426.58	2026.90
426.77	2094.78
426.96	2047.97
427.15	2080.74
427.33	2139.25
427.52	2207.13
427.71	2244.57
427.90	2094.78
428.09	2183.72
428.28	2190.74
428.46	2136.91
428.65	2267.98
428.84	2230.53
429.03	2108.82
429.22	2155.63
429.40	2249.25
429.59	2256.28
429.78	2071.37
429.97	2064.35
430.16	2230.53
430.34	2342.88
430.53	2296.07
430.72	2298.41
430.91	2394.37
431.10	2230.53
431.28	2417.77
431.47	2352.24
431.66	2375.64
431.85	2319.47
432.03	2387.35
432.22	2377.98
432.41	2338.20
432.60	2455.22
432.79	2422.45
432.97	2471.61
433.16	2497.35
433.35	2480.97
433.54	2644.81
433.72	2473.95
433.91	2509.05
434.10	2581.61
434.28	2415.43
434.47	2595.65
434.66	2471.61
434.85	2616.72
435.03	2668.21
435.22	2499.69
435.41	2551.18
435.59	2609.70
435.78	2534.80
435.97	2700.98
436.16	2597.99
436.34	2712.68
436.53	2401.39
436.72	2977.16
436.90	2717.36
437.09	2686.94
437.28	2581.61
437.46	2810.98
437.65	2665.87
437.84	2754.81
438.02	2651.83
438.21	2874.18
438.40	2670.55
438.58	2937.37
438.77	2928.01
438.96	2972.48
439.14	2874.18
439.33	3002.91
439.52	2953.76
439.70	2932.69
439.89	2939.71
440.08	2949.08
440.26	3045.04
440.45	3056.74
440.63	3061.42
440.82	3178.45
441.01	3080.14
441.19	3028.65
441.38	3190.15
441.57	3199.51
441.75	3279.09
441.94	3389.10
442.12	3311.86
442.31	3300.16
442.50	3489.74
442.68	3260.37
442.87	3297.81
443.05	3435.91
443.24	3426.54
443.43	3337.60
443.61	3412.50
443.80	3494.42
443.98	3335.26
444.17	3265.05
444.35	3363.35
444.54	3449.95
444.73	3454.63
444.91	3382.07
445.10	3405.48
445.28	3253.34
445.47	3389.10
445.65	3370.37
445.84	3398.46
446.02	3548.25
446.21	3534.21
446.39	3445.27
446.58	3538.89
446.77	3428.88
446.95	3251.00
447.14	3463.99
447.32	3555.27
447.51	3405.48
447.69	3435.91
447.88	3421.86
448.06	3419.52
448.25	3431.23
448.43	3478.04
448.62	3569.32
448.80	3531.87
448.99	3480.38
449.17	3557.61
449.36	3552.93
449.54	3733.15
449.73	3571.66
449.91	3882.95
450.10	3641.87
450.28	3606.77
450.46	3653.58
450.65	3726.13
450.83	3772.94
451.02	3754.22
451.20	3824.44
451.39	3728.47
451.57	3758.90
451.76	3721.45
451.94	3882.95
452.13	3955.51
452.31	3936.78
452.49	3796.35
452.68	3817.41
452.86	3852.52
453.05	3915.72
453.23	4079.55
453.42	3941.46
453.60	3927.42
453.78	3911.04
453.97	3796.35
454.15	3868.91
454.34	3880.61
454.52	4028.06
454.70	4100.62
454.89	4018.70
455.07	3906.35
455.26	4105.30
455.44	4077.21
455.62	4114.66
455.81	4128.70
455.99	4126.36
456.17	4234.03
456.36	4070.19
456.54	4208.28
456.73	4250.41
456.91	4138.07
457.09	4315.95
457.28	4337.01
457.46	4276.16
457.64	4348.72
457.83	4269.14
458.01	4266.80
458.19	4280.84
458.38	4482.13
458.56	4374.46
458.74	4329.99
458.93	4411.91
459.11	4486.81
459.29	4407.23
459.48	4358.08
459.66	4521.92
459.84	4582.77
460.03	4657.67
460.21	4484.47
460.39	4505.53
460.57	4428.29
460.76	4524.26
460.94	4725.54
461.12	4608.51
461.31	4648.30
461.49	4528.94
461.67	4606.17
461.85	4791.08
462.04	4542.98
462.22	4873.00
462.40	4849.59
462.59	4641.28
462.77	4643.62
462.95	4643.62
463.13	4898.74
463.32	4615.54
463.50	4854.27
463.68	4807.46
463.86	4898.74
464.05	4784.06
464.23	4858.95
464.41	4971.30
464.59	4807.46
464.78	4767.67
464.96	4931.51
465.14	4758.31
465.32	5032.15
465.50	5015.77
465.69	5074.28
465.87	4816.82
466.05	4873.00
466.23	5165.56
466.41	5020.45
466.60	5174.92
466.78	4947.89
466.96	4889.38
467.14	5032.15
467.32	5025.13
467.51	5076.62
467.69	4812.14
467.87	5235.78
468.05	5214.71
468.23	5219.39
468.41	5280.25
468.60	5413.66
468.78	5359.83
468.96	5085.98
469.14	5156.20
469.32	5252.16
469.50	5046.20
469.69	5380.89
469.87	5518.98
470.05	5507.28
470.23	5404.30
470.41	5284.93
470.59	5540.05
470.77	5355.15
470.95	5509.62
471.14	5607.92
471.32	5582.18
471.50	5607.92
471.68	5671.12
471.86	5797.51
472.04	5600.90
472.22	5849.00
472.40	5703.89
472.58	5701.54
472.77	5701.54
472.95	5804.53
473.13	5982.41
473.31	5722.61
473.49	5923.90
473.67	5830.27
473.85	6010.50
474.03	5905.17
474.21	5984.75
474.39	6115.82
474.57	6033.90
474.75	6108.80
474.93	6277.32
475.12	6157.95
475.30	6190.72
475.48	6193.06
475.66	6291.36
475.84	6190.72
476.02	6413.07
476.20	6354.55
476.38	6553.50
476.56	6551.16
476.74	6595.63
476.92	6604.99
477.10	6548.82
477.28	6633.08
477.46	6555.84
477.64	6640.10
477.82	6707.98
478.00	6920.96
478.18	6853.09
478.36	7026.29
478.54	6935.01
478.72	7049.69
478.90	7068.42
479.08	7110.55
479.26	7148.00
479.44	7234.60
479.62	7391.41
479.80	7225.23
479.98	7328.22
480.16	7555.25
480.34	7581.00
480.52	7691.00
480.70	7740.15
480.88	7555.25
481.06	7676.96
481.24	7571.63
481.41	7817.39
481.59	7786.96
481.77	7843.14
481.95	8002.29
482.13	8088.89
482.31	8070.17
482.49	8166.13
482.67	8231.66
482.85	8379.12
483.03	8346.35
483.21	8512.53
483.39	8528.91
483.57	8613.17
483.74	8690.41
483.92	8489.12
484.10	8638.92
484.28	8823.82
484.46	8910.42
484.64	9238.09
484.82	8982.98
485.00	8973.61
485.18	9387.89
485.35	9420.66
485.53	9294.27
485.71	9418.32
485.89	9666.41
486.07	9465.13
486.25	9540.02
486.43	9720.24
486.61	9633.64
486.78	9783.44
486.96	9834.93
487.14	10129.84
487.32	9841.95
487.50	10232.82
487.68	10101.75
487.85	10342.83
488.03	10483.26
488.21	10333.47
488.39	10370.91
488.57	10677.52
488.75	10714.97
488.92	10984.13
489.10	10846.04
489.28	10876.47
489.46	11190.10
489.64	11063.71
489.81	11208.83
489.99	11176.06
490.17	11375.00
490.35	11328.19
490.53	11433.52
490.70	11550.54
490.88	11662.89
491.06	11672.25
491.24	11740.13
491.41	11913.33
491.59	11786.94
491.77	11992.90
491.95	12210.57
492.13	12465.69
492.30	12266.75
492.48	12301.86
492.66	12351.01
492.84	12383.77
493.01	12379.09
493.19	12367.39
493.37	12746.56
493.54	12945.50
493.72	12713.79
493.90	12645.91
494.08	12844.86
494.25	12851.88
494.43	13111.68
494.61	13247.43
494.79	13121.04
494.96	13308.29
495.14	13273.18
495.32	13341.05
495.49	13425.31
495.67	13638.30
495.85	13785.76
496.02	13886.40
496.20	13678.09
496.38	13928.53
496.55	13809.16
496.73	14167.26
496.91	13912.14
497.09	14288.97
497.26	14134.50
497.44	14300.67
497.62	14242.16
497.79	14443.45
497.97	14462.17
498.14	14869.42
498.32	14726.65
498.50	14941.98
498.67	14911.55
498.85	14801.55
499.03	14846.02
499.20	15012.20
499.38	15161.99
499.56	15229.87
499.73	15346.89
499.91	15314.13
500.08	15452.22
500.26	15344.55
500.44	15215.82
500.61	15379.66
500.79	15620.74
500.97	15648.82
501.14	15868.83
501.32	15740.10
501.49	15754.15
501.67	15733.08
501.84	16009.26
502.02	15744.78
502.20	16039.69
502.37	16224.59
502.55	16152.04
502.72	16411.84
502.90	16390.77
503.07	16168.42
503.25	16456.31
503.43	16224.59
503.60	16514.82
503.78	16533.54
503.95	16308.85
504.13	16381.41
504.30	16507.80
504.48	16713.77
504.65	16648.23
504.83	16968.88
505.01	16933.78
505.18	17062.51
505.36	16760.58
505.53	16905.69
505.71	17142.08
505.88	17139.74
506.06	17118.68
506.23	17413.59
506.41	17343.37
506.58	17331.67
506.76	17270.81
506.93	17181.87
507.11	17371.46
507.28	17563.38
507.46	17455.72
507.63	17558.70
507.81	18038.51
507.98	17745.94
508.16	17600.83
508.33	17708.49
508.50	17827.86
508.68	18244.48
508.85	17961.27
509.03	18090.00
509.20	17862.97
509.38	18441.08
509.55	18328.74
509.73	18286.61
509.90	18340.44
510.08	18286.61
510.25	18347.46
510.42	18665.77
510.60	18930.25
510.77	18799.18
510.95	18511.30
511.12	18295.97
511.30	18574.49
511.47	18752.37
511.64	18780.46
511.82	19077.71
511.99	18897.49
512.17	18820.25
512.34	19168.99
512.51	19005.15
512.69	18745.35
512.86	19442.83
513.04	19435.81
513.21	19517.73
513.38	19332.82
513.56	19707.31
513.73	19337.51
513.90	19573.90
514.08	19672.20
514.25	19583.26
514.43	19634.75
514.60	19564.54
514.77	19690.93
514.95	19924.98
515.12	19784.55
515.29	19814.98
515.47	19761.14
515.64	20072.43
515.81	19800.93
515.99	20128.61
516.16	20276.06
516.33	20306.49
516.51	20332.23
516.68	20189.46
516.85	20037.33
517.03	20327.55
517.20	20386.07
517.37	20900.98
517.54	20556.93
517.72	20669.27
517.89	20369.68
518.06	20423.51
518.24	20477.35
518.41	20744.17
518.58	21006.31
518.75	20617.78
518.93	20657.57
519.10	20856.51
519.27	20938.43
519.45	20844.81
519.62	21003.97
519.79	21097.59
519.96	20978.22
520.14	20994.61
520.31	21156.10
520.48	21062.48
520.65	21099.93
520.83	21467.39
521.00	21324.62
521.17	21200.57
521.34	21001.63
521.52	21359.73
521.69	21631.23
521.86	21542.29
522.03	21640.59
522.20	21661.66
522.38	21989.33
522.55	22057.21
522.72	21511.86
522.89	21802.09
523.07	21970.61
523.24	22104.02
523.41	22113.38
523.58	21876.99
523.75	22174.24
523.92	21944.86
524.10	22183.60
524.27	22106.36
524.44	22412.97
524.61	22841.29
524.78	22499.57
524.96	22237.43
525.13	22403.61
525.30	22434.03
525.47	22445.74
525.64	22696.17
525.81	22576.81
525.98	22904.48
526.16	22382.54
526.33	22855.33
526.50	22885.76
526.67	22719.58
526.84	22998.10
527.01	22932.57
527.18	22860.01
527.36	22841.29
527.53	22939.59
527.70	23484.94
527.87	23552.81
528.04	22864.69
528.21	23183.01
528.38	23129.17
528.55	23192.37
528.72	23145.56
528.89	23271.95
529.07	22960.66
529.24	23300.03
529.41	23655.79
529.58	23253.22
529.75	23166.62
529.92	23777.50
530.09	23515.36
530.26	23548.13
530.43	23941.34
530.60	23838.36
530.77	23538.77
530.94	23543.45
531.11	23473.23
531.28	23800.91
531.46	23798.57
531.63	24142.63
531.80	23915.59
531.97	23826.65
532.14	24081.77
532.31	24044.32
532.48	24290.08
532.65	24233.91
532.82	23988.15
532.99	24098.16
533.16	23917.93
533.33	24395.40
533.50	24472.64
533.67	24552.22
533.84	24280.72
534.01	24421.15
534.18	23931.98
534.35	24577.97
534.52	24402.43
534.69	24629.46
534.86	24896.28
535.03	24491.37
535.20	24699.67
535.37	24987.56
535.54	24812.02
535.71	24283.06
535.88	24718.40
536.05	24641.16
536.22	24737.12
536.38	25111.61
536.55	24931.39
536.72	24739.46
536.89	24985.22
537.06	25116.29
537.23	25111.61
537.40	24903.30
537.57	24985.22
537.74	24943.09
537.91	25401.83
538.08	25249.70
538.25	25298.85
538.42	24898.62
538.59	25626.53
538.75	25074.16
538.92	25233.32
539.09	25221.61
539.26	25275.45
539.43	25549.29
539.60	25713.13
539.77	25336.30
539.94	25539.93
540.11	25392.47
540.28	25638.23
540.44	25556.31
540.61	25589.08
540.78	25633.55
540.95	25568.01
541.12	25991.65
541.29	25752.91
541.46	25422.90
541.62	25905.05
541.79	25717.81
541.96	25439.28
542.13	25970.58
542.30	25905.05
542.47	26066.55
542.63	26171.87
542.80	26136.76
542.97	26569.76
543.14	26459.76
543.31	26579.12
543.48	26452.73
543.64	26340.39
543.81	26647.00
543.98	26754.66
544.15	26331.03
544.32	26300.60
544.48	26630.62
544.65	26281.88
544.82	26302.94
544.99	26387.20
545.16	26623.59
545.32	26511.25
545.49	26555.72
545.66	26979.36
545.83	26775.73
546.00	26904.46
546.16	26595.51
546.33	26614.23
546.50	26443.37
546.67	26827.22
546.83	26579.12
547.00	26759.34
547.17	26775.73
547.34	26644.66
547.50	27161.92
547.67	26977.01
547.84	26932.54
548.00	27040.21
548.17	27164.26
548.34	27019.14
548.51	27234.47
548.67	27115.11
548.84	27033.19
549.01	27152.55
549.18	27229.79
549.34	27321.07
549.51	27414.69
549.68	27316.39
549.84	27400.65
550.01	27440.44
550.18	27644.07
550.34	27529.38
550.51	27580.87
550.68	27707.26
550.84	27402.99
551.01	27133.83
551.18	27391.29
551.34	27295.33
551.51	27543.42
551.68	27716.62
551.84	27204.05
552.01	27337.46
552.18	27859.40
552.34	27625.34
552.51	27999.83
552.68	27585.55
552.84	27615.98
553.01	27520.02
553.18	27665.13
553.34	27920.25
553.51	27562.15
553.67	28166.01
553.84	27866.42
554.01	27508.32
554.17	27721.30
554.34	27922.59
554.51	27779.82
554.67	28283.03
554.84	28098.13
555.00	27728.33
555.17	27819.61
555.33	28503.04
555.50	28608.37
555.67	28173.03
555.83	28149.62
556.00	27845.35
556.16	28360.27
556.33	28266.65
556.50	28339.21
556.66	28439.85
556.83	28067.70
556.99	28627.09
557.16	28512.41
557.32	28135.58
557.49	28409.42
557.65	28294.74
557.82	28116.86
557.98	28327.50
558.15	28456.23
558.32	28601.35
558.48	28425.81
558.65	28727.74
558.81	28833.06
558.98	28842.42
559.14	28652.84
559.31	28472.62
559.47	28121.54
559.64	28641.14
559.80	28835.40
559.97	28819.02
560.13	28187.07
560.30	28732.42
560.46	28985.19
560.63	28912.64
560.79	28856.46
560.96	28613.05
561.12	28680.92
561.29	28650.50
561.45	28472.62
561.61	28961.79
561.78	28989.88
561.94	28945.41
562.11	29277.76
562.27	29153.71
562.44	28737.10
562.60	28765.18
562.77	28727.74
562.93	28664.54
563.10	28849.44
563.26	28687.95
563.42	28823.70
563.59	29191.16
563.75	28872.85
563.92	28760.50
564.08	29331.59
564.24	28828.38
564.41	28774.55
564.57	29013.28
564.74	29359.68
564.90	29364.36
565.07	29324.57
565.23	28992.22
565.39	29230.95
565.56	29439.26
565.72	29043.71
565.88	29399.47
566.05	29149.03
566.21	28940.72
566.38	29188.82
566.54	29303.51
566.70	29249.67
566.87	29476.71
567.03	29633.52
567.19	29656.93
567.36	29233.29
567.52	29287.12
567.68	29390.11
567.85	29160.73
568.01	29303.51
568.17	29443.94
568.34	29720.12
568.50	29343.30
568.66	29518.84
568.83	29493.09
568.99	29483.73
569.15	29502.45
569.32	29315.21
569.48	29362.02
569.64	29406.49
569.81	29603.10
569.97	29111.58
570.13	29530.54
570.30	29022.64
570.46	29654.59
570.62	29153.71
570.78	29249.67
570.95	29256.70
571.11	29523.52
571.27	29455.64
571.43	29352.66
571.60	29474.37
571.76	29263.72
571.92	29303.51
572.09	29502.45
572.25	29895.66
572.41	29902.68
572.57	29825.45
572.74	29610.12
572.90	29481.39
573.06	29663.95
573.22	29230.95
573.38	29429.90
573.55	29647.57
573.71	29935.45
573.87	29970.56
574.03	29570.33
574.20	29795.02
574.36	29516.50
574.52	29701.40
574.68	29584.37
574.84	30176.53
575.01	29532.88
575.17	29696.72
575.33	29898.00
575.49	29549.26
575.65	29914.39
575.82	29668.63
575.98	30071.20
576.14	29738.85
576.30	29790.34
576.46	29652.25
576.62	29371.38
576.79	29607.78
576.95	29624.16
577.11	29766.93
577.27	29577.35
577.43	30103.97
577.59	29813.74
577.75	30047.80
577.92	29586.71
578.08	29923.75
578.24	29436.92
578.40	29734.17
578.56	29937.79
578.72	29715.44
578.88	29954.18
579.04	30064.18
579.21	30108.65
579.37	29855.87
579.53	29750.55
579.69	29759.91
579.85	30122.69
580.01	29741.19
580.17	29771.61
580.33	29560.97
580.49	29996.31
580.65	29855.87
580.82	29755.23
580.98	29867.58
581.14	29977.58
581.30	30047.80
581.46	29675.65
581.62	29804.38
581.78	29776.30
581.94	29788.00
582.10	29898.00
582.26	29900.34
582.42	29734.17
582.58	29825.45
582.74	29752.89
582.90	30183.55
583.06	30197.59
583.22	29970.56
583.38	29816.08
583.54	29827.79
583.70	30061.84
583.86	29736.51
584.02	29465.00
584.18	30195.25
584.34	29916.73
584.50	30052.48
584.66	30110.99
584.82	29862.90
584.98	30347.39
585.14	30050.14
585.30	29776.30
585.46	29961.20
585.62	30010.35
585.78	29834.81
585.94	29834.81
586.10	29893.32
586.26	30232.70
586.42	30213.98
586.58	30462.07
586.74	30099.29
586.90	29565.65
587.06	29879.28
587.22	30118.01
587.38	29827.79
587.54	29839.49
587.70	30101.63
587.86	30143.76
588.02	30139.08
588.18	30216.32
588.34	30338.02
588.49	29965.88
588.65	29731.83
588.81	29951.84
588.97	30073.54
589.13	29916.73
589.29	29986.94
589.45	30054.82
589.61	30199.93
589.77	30232.70
589.93	30541.65
590.08	29813.74
590.24	30286.53
590.40	30536.97
590.56	30094.61
590.72	29855.87
590.88	29986.94
591.04	29909.71
591.20	30457.39
591.35	30466.75
591.51	30714.85
591.67	30632.93
591.83	30260.79
591.99	30305.26
592.15	30251.42
592.31	30206.95
592.46	30354.41
592.62	30115.67
592.78	30239.72
592.94	30232.70
593.10	30256.11
593.26	30015.03
593.41	30188.23
593.57	30319.30
593.73	30466.75
593.89	30569.74
594.05	30534.63
594.20	30242.06
594.36	30263.13
594.52	30356.75
594.68	30333.34
594.84	30221.00
594.99	30733.57
595.15	30352.07
595.31	30251.42
595.47	30637.61
595.62	31007.42
595.78	30534.63
595.94	30459.73
596.10	30426.96
596.25	30335.68
596.41	30321.64
596.57	30106.31
596.73	30331.00
596.88	30623.57
597.04	30092.27
597.20	30698.47
597.36	30511.22
597.51	30836.56
597.67	30333.34
597.83	30445.69
597.99	30071.20
598.14	30529.95
598.30	30831.88
598.46	30162.48
598.61	30253.76
598.77	30075.88
598.93	30796.77
599.09	30494.84
599.24	30799.11
599.40	30588.46
599.56	30726.55
599.71	30644.63
599.87	30368.45
600.03	30232.70
600.18	30160.14
600.34	30071.20
600.50	30401.22
600.65	30618.89
600.81	30644.63
600.97	30930.18
601.12	30747.62
601.28	30822.51
601.44	30794.43
601.59	30565.06
601.75	30143.76
601.91	30717.19
602.06	30485.48
602.22	30986.35
602.37	30462.07
602.53	30677.40
602.69	30871.67
602.84	30445.69
603.00	30466.75
603.16	30857.62
603.31	30646.97
603.47	30632.93
603.62	30263.13
603.78	30593.14
603.94	30366.11
604.09	30338.02
604.25	30412.92
604.40	30665.70
604.56	30513.56
604.71	30520.59
604.87	30604.84
605.03	30752.30
605.18	30410.58
605.34	30855.28
605.49	30235.04
605.65	30539.31
605.80	30110.99
605.96	30288.87
606.12	30754.64
606.27	30452.71
606.43	30394.20
606.58	30742.94
606.74	30185.89
606.89	30862.30
607.05	30693.79
607.20	30618.89
607.36	30485.48
607.51	30202.27
607.67	30101.63
607.82	30277.17
607.98	30057.16
608.13	29951.84
608.29	30096.95
608.44	30394.20
608.60	29900.34
608.75	30621.23
608.91	30504.20
609.06	30342.70
609.22	30448.03
609.37	30237.38
609.53	30040.78
609.68	30094.61
609.84	30029.07
609.99	30747.62
610.15	30314.62
610.30	30075.88
610.46	29956.52
610.61	30228.02
610.76	30499.52
610.92	30391.86
611.07	30291.21
611.23	30162.48
611.38	30082.91
611.54	30099.29
611.69	30057.16
611.84	29776.30
612.00	30110.99
612.15	29783.32
612.31	30244.40
612.46	29886.30
612.62	30258.45
612.77	30487.82
612.92	30235.04
613.08	29874.60
613.23	30108.65
613.39	29605.44
613.54	29844.17
613.69	29766.93
613.85	29937.79
614.00	29954.18
614.15	29778.64
614.31	29729.48
614.46	30202.27
614.62	29769.27
614.77	30265.47
614.92	29905.02
615.08	29816.08
615.23	29792.68
615.38	29883.96
615.54	29912.05
615.69	29364.36
615.84	29890.98
616.00	29647.57
616.15	30040.78
616.30	29699.06
616.46	29656.93
616.61	29682.67
616.76	30106.31
616.92	29666.29
617.07	29820.77
617.22	29773.95
617.37	29134.99
617.53	29535.22
617.68	29621.82
617.83	29764.59
617.99	29663.95
618.14	29476.71
618.29	29902.68
618.45	29593.73
618.60	29806.72
618.75	29333.93
618.90	29593.73
619.06	29820.77
619.21	29411.17
619.36	29788.00
619.51	29537.56
619.67	28994.56
619.82	29116.26
619.97	29369.04
620.12	29319.89
620.28	29289.46
620.43	29191.16
620.58	29699.06
620.73	29558.63
620.89	29413.51
621.04	29680.33
621.19	29345.64
621.34	29486.07
621.49	29198.18
621.65	29371.38
621.80	29446.28
621.95	29256.70
622.10	29167.76
622.25	29001.58
622.41	28961.79
622.56	28938.38
622.71	29338.62
622.86	28900.94
623.01	28879.87
623.16	29329.25
623.32	29064.77
623.47	29336.27
623.62	29071.79
623.77	28828.38
623.92	29191.16
624.07	28685.61
624.23	28531.13
624.38	29191.16
624.53	28779.23
624.68	29134.99
624.83	29483.73
624.98	28900.94
625.13	28554.54
625.29	29144.35
625.44	28999.24
625.59	28491.34
625.74	28542.83
625.89	28725.39
626.04	29060.09
626.19	28755.82
626.34	28474.96
626.49	28556.88
626.65	28624.75
626.80	28802.63
626.95	28510.07
627.10	28804.97
627.25	28547.51
627.40	28683.27
627.55	28664.54
627.70	28575.60
627.85	28519.43
628.00	28613.05
628.15	28603.69
628.30	28226.86
628.45	28425.81
628.60	28526.45
628.76	28652.84
628.91	28952.43
629.06	28278.35
629.21	28348.57
629.36	28187.07
629.51	28484.32
629.66	28652.84
629.81	28112.17
629.96	28290.06
630.11	28393.04
630.26	28137.92
630.41	28149.62
630.56	27864.08
630.71	28285.37
630.86	28362.61
631.01	28451.55
631.16	28210.48
631.31	28070.04
631.46	28060.68
631.61	28332.18
631.76	27974.08
631.91	28189.41
632.06	28077.07
632.21	28077.07
632.36	28371.97
632.51	27756.41
632.66	27718.96
632.81	27534.06
632.96	28229.20
633.10	27882.80
633.25	28180.05
633.40	27985.79
633.55	27889.82
633.70	27686.20
633.85	27316.39
634.00	27740.03
634.15	27751.73
634.30	27447.46
634.45	27899.19
634.60	28175.37
634.75	27807.90
634.90	27578.53
635.05	27658.11
635.19	27934.29
635.34	27824.29
635.49	27995.15
635.64	28163.67
635.79	27491.93
635.94	27606.62
636.09	27484.91
636.24	27747.05
636.39	27344.48
636.53	27414.69
636.68	27641.73
636.83	27679.18
636.98	27515.34
637.13	27557.47
637.28	27819.61
637.43	27737.69
637.57	27538.74
637.72	27672.15
637.87	27580.87
638.02	27435.76
638.17	27410.01
638.32	27115.11
638.46	27262.56
638.61	27098.72
638.76	27112.77
638.91	27220.43
639.06	27402.99
639.20	27185.32
639.35	27124.47
639.50	27402.99
639.65	27557.47
639.80	27548.11
639.94	27325.75
640.09	26939.57
640.24	27295.33
640.39	27367.88
640.54	26925.52
640.68	27232.13
640.83	27253.20
640.98	26960.63
641.13	26349.75
641.27	26862.33
641.42	27129.15
641.57	26850.63
641.72	26911.48
641.86	26888.07
642.01	26710.19
642.16	26871.69
642.31	26504.23
642.45	26941.91
642.60	26270.17
642.75	26466.78
642.90	26567.42
643.04	26197.62
643.19	26841.26
643.34	26611.89
643.48	26768.71
643.63	26714.87
643.78	26534.65
643.93	26955.95
644.07	26724.24
644.22	26691.47
644.37	26675.09
644.51	26621.25
644.66	26424.65
644.81	26382.52
644.95	26487.84
645.10	26274.85
645.25	26672.74
645.39	26096.97
645.54	26490.18
645.69	26438.69
645.83	26651.68
645.98	26185.91
646.13	26677.43
646.27	26352.09
646.42	26354.43
646.57	26515.93
646.71	26595.51
646.86	26448.05
647.00	26249.11
647.15	26590.83
647.30	26085.27
647.44	25909.73
647.59	26398.90
647.74	26216.34
647.88	26419.97
648.03	26087.61
648.17	26178.89
648.32	26438.69
648.47	26164.85
648.61	26099.31
648.76	26101.65
648.90	26494.86
649.05	26579.12
649.20	26644.66
649.34	26099.31
649.49	25951.86
649.63	25696.74
649.78	25727.17
649.92	25783.34
650.07	26155.49
650.21	25818.45
650.36	26146.12
650.51	25996.33
650.65	26089.95
650.80	25881.64
650.94	26080.59
651.09	25799.73
651.23	25699.08
651.38	25699.08
651.52	25724.83
651.67	26108.68
651.81	25539.93
651.96	25441.62
652.10	26017.40
652.25	25825.47
652.39	25956.54
652.54	26129.74
652.68	25575.03
652.83	25769.30
652.97	26078.25
653.12	25759.94
653.26	25656.95
653.41	25816.11
653.55	25993.99
653.70	25544.61
653.84	25811.43
653.99	25385.45
654.13	25371.41
654.27	25539.93
654.42	25301.19
654.56	25685.04
654.71	25242.68
654.85	25546.95
655.00	25699.08
655.14	25443.96
655.29	25640.57
655.43	25624.18
655.57	25617.16
655.72	25415.88
655.86	25575.03
656.01	25036.71
656.15	25238.00
656.30	25275.45
656.44	25118.63
656.58	24985.22
656.73	25216.93
656.87	25350.34
657.01	25333.96
657.16	25198.21
657.30	25149.06
657.45	25212.25
657.59	25350.34
657.73	25041.39
657.88	25628.87
658.02	24959.47
658.16	25055.43
658.31	24685.63
658.45	25106.93
658.60	24580.31
658.74	24577.97
658.88	24842.45
659.03	24697.33
659.17	24746.48
659.31	24978.20
659.46	24547.54
659.60	24826.06
659.74	24926.71
659.89	24912.66
660.03	24957.13
660.17	24521.79
660.32	24835.42
660.46	24636.48
660.60	24133.26
660.74	24414.13
660.89	24477.32
661.03	24283.06
661.17	24341.57
661.32	24173.05
661.46	24474.98
661.60	24451.58
661.74	24374.34
661.89	24360.30
662.03	24416.47
662.17	24627.12
662.31	24411.79
662.46	24105.18
662.60	24407.11
662.74	24173.05
662.88	24112.20
663.03	23931.98
663.17	24182.42
663.31	23901.55
663.45	23723.67
663.60	23786.86
663.74	24049.00
663.88	24170.71
664.02	23798.57
664.17	24114.54
664.31	23807.93
664.45	23658.14
664.59	23728.35
664.73	23962.40
664.88	23690.90
665.02	23438.12
665.16	23768.14
665.30	23882.83
665.44	23871.12
665.59	23365.57
665.73	23847.72
665.87	23124.49
666.01	23597.28
666.15	23309.40
666.29	23660.48
666.44	23419.40
666.58	23026.19
666.72	23087.04
666.86	23417.06
667.00	23515.36
667.14	23047.26
667.28	22965.34
667.43	22984.06
667.57	22911.50
667.71	22794.48
667.85	22941.93
667.99	23159.60
668.13	22955.97
668.27	23037.89
668.41	22806.18
668.56	22380.20
668.70	22927.89
668.84	23232.16
668.98	22607.23
669.12	22696.17
669.26	22998.10
669.40	22843.63
669.54	22621.28
669.68	22553.40
669.82	22415.31
669.96	22583.83
670.10	22324.03
670.25	22553.40
670.39	22331.05
670.53	22024.44
670.67	22356.80
670.81	22302.96
670.95	22307.65
671.09	22317.01
671.23	22340.41
671.37	22368.50
671.51	22354.46
671.65	22167.21
671.79	22033.80
671.93	22038.48
672.07	22071.25
672.21	22047.85
672.35	21844.22
672.49	21872.31
672.63	21586.76
672.77	21989.33
672.91	21781.03
673.05	21827.84
673.19	21642.93
673.33	21575.06
673.47	21528.25
673.61	21046.10
673.75	21591.44
673.89	21525.91
674.03	21345.69
674.17	21525.91
674.31	21280.15
674.45	21064.82
674.59	21418.24
674.73	20943.11
674.87	20755.87
675.01	21137.38
675.15	21231.00
675.29	21013.33
675.43	21116.31
675.56	21008.65
675.70	21041.42
675.84	20851.83
675.98	20467.98
676.12	20767.57
676.26	20919.71
676.40	20971.20
676.54	20680.97
676.68	20725.44
676.82	19929.66
676.96	20140.31
677.10	20327.55
677.23	20077.12
677.37	20051.37
677.51	20140.31
677.65	20187.12
677.79	19758.80
677.93	19927.32
678.07	19934.34
678.21	19976.47
678.34	19618.37
678.48	19435.81
678.62	19653.48
678.76	19709.65
678.90	19564.54
679.04	19246.23
679.18	19765.82
679.31	19229.84
679.45	19168.99
679.59	18988.77
679.73	19049.62
679.87	19073.03
680.00	19105.79
680.14	18951.32
680.28	18663.43
680.42	19129.20
680.56	18841.31
680.70	19110.47
680.83	19330.48
680.97	19077.71
681.11	18761.73
681.25	18813.23
681.39	18483.21
681.52	18630.66
681.66	18670.45
681.80	18415.34
681.94	18377.89
682.07	18431.72
682.21	18427.04
682.35	18097.02
682.49	18108.72
682.62	17888.71
682.76	18366.18
682.90	18148.51
683.04	17647.64
683.17	18066.60
683.31	17987.02
683.45	17970.63
683.59	17785.73
683.72	17680.41
683.86	17612.53
684.00	17687.43
684.13	17839.56
684.27	17343.37
684.41	17614.87
684.55	17455.72
684.68	17104.64
684.82	17341.03
684.96	17277.83
685.09	17233.36
685.23	16917.39
685.37	17312.94
685.50	17144.42
685.64	17015.69
685.78	17128.04
685.91	17364.43
686.05	17247.41
686.19	16968.88
686.32	16603.76
686.46	16758.24
686.60	16620.14
686.73	16638.87
686.87	16460.99
687.01	16376.73
687.14	16367.37
687.28	16025.65
687.42	16311.19
687.55	16084.16
687.69	16449.28
687.82	16133.31
687.96	16205.87
688.10	15967.13
688.23	16259.70
688.37	15910.96
688.50	16070.12
688.64	16088.84
688.78	15763.51
688.91	15906.28
689.05	15604.35
689.18	15878.19
689.32	15122.20
689.46	15417.11
689.59	15421.79
689.73	15456.90
689.86	15323.49
690.00	15105.82
690.13	15098.80
690.27	15255.61
690.41	15508.39
690.54	15272.00
690.68	15171.35
690.81	15014.54
690.95	15154.97
691.08	14988.79
691.22	14839.00
691.35	15094.11
691.49	14909.21
691.62	14867.08
691.76	14808.57
691.89	14642.39
692.03	14523.02
692.16	14476.21
692.30	14129.81
692.43	14122.79
692.57	14253.86
692.70	14321.74
692.84	14157.90
692.97	14064.28
693.11	14061.94
693.24	14272.59
693.38	14073.64
693.51	13727.24
693.65	13872.36
693.78	13738.94
693.92	13965.98
694.05	13668.73
694.19	13516.59
694.32	13603.19
694.45	13605.53
694.59	13495.53
694.72	13315.31
694.86	13355.10
694.99	13202.96
695.13	13444.04
695.26	13476.80
695.39	13317.65
695.53	13270.84
695.66	13088.28
695.80	13144.45
695.93	13121.04
696.07	13078.91
696.20	13109.34
696.33	13095.30
696.47	12805.07
696.60	12823.80
696.73	12744.22
696.87	12861.24
697.00	12706.77
697.14	12486.76
697.27	12390.80
697.40	12292.49
697.54	12528.89
697.67	12334.62
697.80	12287.81
697.94	12224.62
698.07	11992.90
698.21	12088.87
698.34	11808.00
698.47	12278.45
698.61	11990.56
698.74	11995.25
698.87	11983.54
699.01	11882.90
699.14	12058.44
699.27	11693.32
699.40	11934.39
699.54	11665.23
699.67	11632.46
699.80	11763.53
699.94	11410.11
700.07	11585.65
700.20	11386.71
700.34	11274.36
700.47	11241.59
700.60	11461.60
700.73	11325.85
700.87	11372.66
701.00	11171.38
701.13	11239.25
701.26	11098.82
701.40	11035.63
701.53	11063.71
701.66	11190.10
701.79	10848.38
701.93	10967.75
702.06	10736.04
702.19	10607.31
702.32	10836.68
702.46	10469.22
702.59	10450.49
702.72	10635.39
702.85	10389.64
702.99	10633.05
703.12	10321.76
703.25	10384.96
703.38	10258.57
703.51	10232.82
703.65	10246.87
703.78	10113.45
703.91	10195.37
704.04	10239.84
704.17	10178.99
704.31	10092.39
704.44	10005.79
704.57	10080.69
704.70	9790.46
704.83	9797.48
704.96	9650.03
705.10	9694.50
705.23	9757.69
>>>>>End Processed Spectral Data<<<<<
