SpectraSuite Data File
++++++++++++++++++++++++++++++++++++
Date: Fri Oct 18 13:58:16 GMT-05:00 2013
User: bianchi
Dark Spectrum Present: No
Reference Spectrum Present: No
Number of Sampled Component Spectra: 1
Spectrometers: USB2+H05261
Integration Time (usec): 50000 (USB2+H05261)
Spectra Averaged: 1 (USB2+H05261)
Boxcar Smoothing: 0 (USB2+H05261)
Correct for Electrical Dark: No (USB2+H05261)
Strobe/Lamp Enabled: No (USB2+H05261)
Correct for Detector Non-linearity: No (USB2+H05261)
Correct for Stray Light: No (USB2+H05261)
Number of Pixels in Processed Spectrum: 2048
>>>>>Begin Processed Spectral Data<<<<<
365.73	0.00
365.92	0.00
366.12	0.00
366.32	0.00
366.52	0.00
366.72	0.00
366.91	0.00
367.11	0.00
367.31	0.00
367.51	0.00
367.70	0.00
367.90	0.00
368.10	0.00
368.30	0.00
368.49	0.00
368.69	0.00
368.89	0.00
369.09	0.00
369.28	0.00
369.48	0.00
369.68	0.00
369.87	0.00
370.07	0.00
370.27	0.00
370.47	0.00
370.66	142.77
370.86	86.60
371.06	105.32
371.25	210.65
371.45	121.71
371.65	117.03
371.84	126.39
372.04	149.79
372.24	140.43
372.44	234.05
372.63	208.31
372.83	252.78
373.03	121.71
373.22	196.60
373.42	229.37
373.62	215.33
373.81	215.33
374.01	266.82
374.21	201.29
374.40	203.63
374.60	215.33
374.79	271.50
374.99	234.05
375.19	145.11
375.38	264.48
375.58	241.08
375.78	271.50
375.97	290.23
376.17	320.65
376.37	224.69
376.56	269.16
376.76	257.46
376.95	273.84
377.15	308.95
377.35	243.42
377.54	243.42
377.74	224.69
377.93	283.20
378.13	252.78
378.33	376.83
378.52	210.65
378.72	271.50
378.91	248.10
379.11	264.48
379.31	327.68
379.50	285.55
379.70	290.23
379.89	236.39
380.09	327.68
380.28	362.78
380.48	369.80
380.68	191.92
380.87	273.84
381.07	327.68
381.26	318.31
381.46	339.38
381.65	367.46
381.85	280.86
382.04	278.52
382.24	367.46
382.43	344.06
382.63	330.02
382.83	393.21
383.02	355.76
383.22	334.70
383.41	269.16
383.61	330.02
383.80	404.91
384.00	381.51
384.19	273.84
384.39	346.40
384.58	351.08
384.78	337.04
384.97	285.55
385.17	369.80
385.36	313.63
385.56	339.38
385.75	341.72
385.95	348.74
386.14	411.93
386.34	367.46
386.53	318.31
386.72	395.55
386.92	369.80
387.11	388.53
387.31	491.51
387.50	407.25
387.70	360.44
387.89	386.19
388.09	456.40
388.28	348.74
388.48	472.79
388.67	402.57
388.86	416.62
389.06	503.22
389.25	524.28
389.45	386.19
389.64	465.77
389.84	477.47
390.03	512.58
390.22	470.45
390.42	409.59
390.61	456.40
390.81	442.36
391.00	493.85
391.19	582.79
391.39	500.87
391.58	531.30
391.78	486.83
391.97	503.22
392.16	585.13
392.36	533.64
392.55	507.90
392.75	526.62
392.94	484.49
393.13	624.92
393.33	627.26
393.52	505.56
393.71	589.82
393.91	613.22
394.10	571.09
394.29	524.28
394.49	540.66
394.68	564.07
394.88	610.88
395.07	638.97
395.26	655.35
395.46	631.94
395.65	599.18
395.84	564.07
396.04	678.76
396.23	615.56
396.42	596.84
396.62	631.94
396.81	627.26
397.00	678.76
397.19	608.54
397.39	643.65
397.58	638.97
397.77	643.65
397.97	744.29
398.16	760.67
398.35	664.71
398.55	627.26
398.74	697.48
398.93	732.59
399.12	685.78
399.32	671.73
399.51	723.23
399.70	777.06
399.90	706.84
400.09	704.50
400.28	763.01
400.47	681.10
400.67	765.36
400.86	718.54
401.05	854.30
401.24	847.27
401.44	812.17
401.63	819.19
401.82	781.74
402.01	793.44
402.21	830.89
402.40	915.15
402.59	849.61
402.78	835.57
402.97	978.34
403.17	828.55
403.36	821.53
403.55	837.91
403.74	978.34
403.93	887.06
404.13	891.74
404.32	1006.43
404.51	954.94
404.70	950.26
404.89	976.00
405.09	1062.60
405.28	938.55
405.47	936.21
405.66	966.64
405.85	959.62
406.05	1015.79
406.24	1062.60
406.43	1046.22
406.62	1011.11
406.81	1050.90
407.00	952.60
407.20	936.21
407.39	983.02
407.58	1027.50
407.77	1067.28
407.96	971.32
408.15	961.96
408.34	1006.43
408.54	1043.88
408.73	1111.75
408.92	1097.71
409.11	1095.37
409.30	1067.28
409.49	1200.69
409.68	1130.48
409.87	1104.73
410.07	1235.80
410.26	1118.78
410.45	1116.44
410.64	1081.33
410.83	1188.99
411.02	1224.10
411.21	1165.59
411.40	1219.42
411.59	1303.68
411.78	1315.38
411.98	1247.51
412.17	1313.04
412.36	1327.08
412.55	1317.72
412.74	1416.02
412.93	1392.62
413.12	1352.83
413.31	1430.07
413.50	1434.75
413.69	1420.71
413.88	1418.36
414.07	1369.21
414.26	1469.86
414.45	1399.64
414.64	1446.45
414.83	1519.01
415.02	1486.24
415.22	1610.29
415.41	1439.43
415.60	1469.86
415.79	1476.88
415.98	1568.16
416.17	1514.33
416.36	1558.80
416.55	1696.89
416.74	1708.59
416.93	1767.10
417.12	1743.70
417.31	1640.72
417.50	1675.82
417.69	1820.94
417.88	1694.55
418.07	1643.06
418.26	1675.82
418.45	1631.35
418.64	1930.94
418.83	1797.53
419.02	1741.36
419.21	1839.66
419.39	1844.34
419.58	1802.21
419.77	1706.25
419.96	1886.47
420.15	1886.47
420.34	1851.36
420.53	1837.32
420.72	1804.55
420.91	1989.46
421.10	1968.39
421.29	1900.52
421.48	1886.47
421.67	1968.39
421.86	1991.80
422.05	1989.46
422.24	2001.16
422.43	1839.66
422.61	1872.43
422.80	2001.16
422.99	2010.52
423.18	1984.77
423.37	2038.61
423.56	1928.60
423.75	1949.67
423.94	1944.99
424.13	1872.43
424.32	1944.99
424.50	2062.01
424.69	1968.39
424.88	2078.40
425.07	1966.05
425.26	1907.54
425.45	2010.52
425.64	2012.86
425.83	2057.33
426.01	2017.54
426.20	2150.95
426.39	2059.67
426.58	2111.16
426.77	2064.35
426.96	1994.14
427.15	2026.90
427.33	1940.30
427.52	2019.88
427.71	2087.76
427.90	2209.47
428.09	2195.42
428.28	2148.61
428.46	2146.27
428.65	2258.62
428.84	2174.36
429.03	2242.23
429.22	2193.08
429.40	2172.02
429.59	2272.66
429.78	2204.78
429.97	2183.72
430.16	2209.47
430.34	2221.17
430.53	2317.13
430.72	2352.24
430.91	2272.66
431.10	2209.47
431.28	2349.90
431.47	2361.60
431.66	2310.11
431.85	2368.62
432.03	2455.22
432.22	2506.71
432.41	2401.39
432.60	2382.67
432.79	2478.63
432.97	2422.45
433.16	2569.91
433.35	2445.86
433.54	2544.16
433.72	2401.39
433.91	2380.32
434.10	2553.52
434.28	2471.61
434.47	2574.59
434.66	2581.61
434.85	2565.23
435.03	2511.39
435.22	2558.21
435.41	2829.71
435.59	2560.55
435.78	2595.65
435.97	2689.28
436.16	2590.97
436.34	2733.75
436.53	2679.91
436.72	2766.51
436.90	2668.21
437.09	2684.59
437.28	2607.36
437.46	2689.28
437.65	2722.04
437.84	2752.47
438.02	2750.13
438.21	2736.09
438.40	2743.11
438.58	2899.92
438.77	2869.50
438.96	2700.98
439.14	2796.94
439.33	2972.48
439.52	2998.23
439.70	2937.37
439.89	3047.38
440.08	3087.17
440.26	2988.86
440.45	3045.04
440.63	3122.27
440.82	3066.10
441.01	3220.58
441.19	3103.55
441.38	3227.60
441.57	3145.68
441.75	3187.81
441.94	3243.98
442.12	3234.62
442.31	3192.49
442.50	3323.56
442.68	3300.16
442.87	3239.30
443.05	3246.32
443.24	3300.16
443.43	3325.90
443.61	3311.86
443.80	3543.57
443.98	3267.39
444.17	3295.47
444.35	3368.03
444.54	3386.76
444.73	3283.77
444.91	3318.88
445.10	3358.67
445.28	3405.48
445.47	3363.35
445.65	3300.16
445.84	3410.16
446.02	3449.95
446.21	3346.97
446.39	3428.88
446.58	3459.31
446.77	3332.92
446.95	3412.50
447.14	3559.95
447.32	3576.34
447.51	3456.97
447.69	3447.61
447.88	3562.30
448.06	3461.65
448.25	3529.53
448.43	3566.98
448.62	3503.78
448.80	3468.67
448.99	3473.36
449.17	3534.21
449.36	3407.82
449.54	3637.19
449.73	3616.13
449.91	3613.79
450.10	3559.95
450.28	3798.69
450.46	3716.77
450.65	3665.28
450.83	3684.00
451.02	3723.79
451.20	3705.07
451.39	3660.60
451.57	3672.30
451.76	3684.00
451.94	3904.01
452.13	3829.12
452.31	3812.73
452.49	3875.93
452.68	3976.57
452.86	3887.63
453.05	3882.95
453.23	3918.06
453.42	3852.52
453.60	3927.42
453.78	3840.82
453.97	3906.35
454.15	3925.08
454.34	3885.29
454.52	4067.85
454.70	3859.54
454.89	3960.19
455.07	4004.66
455.26	4081.89
455.44	4074.87
455.62	4016.36
455.81	3983.59
455.99	4011.68
456.17	4313.61
456.36	4095.94
456.54	4313.61
456.73	4161.47
456.91	4311.27
457.09	4243.39
457.28	4306.59
457.46	4224.67
457.64	4472.76
457.83	4257.43
458.01	4348.72
458.19	4346.37
458.38	4297.22
458.56	4362.76
458.74	4318.29
458.93	4383.82
459.11	4379.14
459.29	4430.63
459.48	4540.64
459.66	4568.73
459.84	4535.96
460.03	4564.04
460.21	4526.60
460.39	4376.80
460.57	4582.77
460.76	4573.41
460.94	4629.58
461.12	4444.68
461.31	4435.32
461.49	4479.79
461.67	4580.43
461.85	4741.93
462.04	4758.31
462.22	4912.78
462.40	4784.06
462.59	4755.97
462.77	4709.16
462.95	4655.33
463.13	4861.29
463.32	4823.84
463.50	4840.23
463.68	4798.10
463.86	4734.90
464.05	4802.78
464.23	4802.78
464.41	4929.17
464.59	4809.80
464.78	5060.24
464.96	4896.40
465.14	4772.35
465.32	5015.77
465.50	4870.65
465.69	4992.36
465.87	4947.89
466.05	4917.47
466.23	4975.98
466.41	4894.06
466.60	5137.48
466.78	5029.81
466.96	4980.66
467.14	4865.97
467.32	5004.07
467.51	5226.42
467.69	5093.01
467.87	5221.74
468.05	5130.45
468.23	5203.01
468.41	5203.01
468.60	5076.62
468.78	5331.74
468.96	5046.20
469.14	5373.87
469.32	5364.51
469.50	5273.23
469.69	5324.72
469.87	5390.25
470.05	5324.72
470.23	5289.61
470.41	5224.08
470.59	5355.15
470.77	5390.25
470.95	5434.72
471.14	5598.56
471.32	5427.70
471.50	5631.33
471.68	5392.59
471.86	5610.26
472.04	5469.83
472.22	5734.31
472.40	5584.52
472.58	5853.68
472.77	5820.91
472.95	5738.99
473.13	5797.51
473.31	5809.21
473.49	5905.17
473.67	5664.10
473.85	5879.43
474.03	5734.31
474.21	6064.33
474.39	6092.41
474.57	6104.12
474.75	6099.44
474.93	6265.61
475.12	6127.52
475.30	6003.47
475.48	6001.13
475.66	6134.54
475.84	6345.19
476.02	6134.54
476.20	6394.34
476.38	6282.00
476.56	6431.79
476.74	6548.82
476.92	6471.58
477.10	6530.09
477.28	6633.08
477.46	6504.35
477.64	6665.85
477.82	6801.60
478.00	7098.84
478.18	6881.18
478.36	6869.47
478.54	6974.80
478.72	6956.07
478.90	7000.54
479.08	7077.78
479.26	7077.78
479.44	7241.62
479.62	7346.94
479.80	7272.04
479.98	7461.63
480.16	7489.71
480.34	7332.90
480.52	7590.36
480.70	7641.85
480.88	7391.41
481.06	7623.12
481.24	7606.74
481.41	7854.84
481.59	8098.25
481.77	7838.45
481.95	7962.50
482.13	8039.74
482.31	8262.09
482.49	8147.40
482.67	8184.85
482.85	8245.71
483.03	8442.31
483.21	8517.21
483.39	8592.11
483.57	8362.73
483.74	8573.38
483.92	8547.64
484.10	8669.34
484.28	8650.62
484.46	8945.53
484.64	9039.15
484.82	8894.04
485.00	9104.68
485.18	9357.46
485.35	9261.50
485.53	9418.32
485.71	9336.40
485.89	9462.79
486.07	9425.34
486.25	9511.94
486.43	9472.15
486.61	9596.20
486.78	9811.53
486.96	9853.66
487.14	9729.61
487.32	9963.66
487.50	10202.40
487.68	9991.75
487.85	10452.83
488.03	10242.18
488.21	10611.99
488.39	10396.66
488.57	10726.68
488.75	10637.73
488.92	10490.28
489.10	10752.42
489.28	10808.59
489.46	11162.01
489.64	11000.52
489.81	11176.06
489.99	11293.08
490.17	11452.24
490.35	11611.40
490.53	11384.37
490.70	11449.90
490.88	11559.91
491.06	11719.06
491.24	11707.36
491.41	11693.32
491.59	11873.54
491.77	11716.72
491.95	12009.29
492.13	12119.29
492.30	12243.34
492.48	12131.00
492.66	12198.87
492.84	12315.90
493.01	12489.10
493.19	12678.68
493.37	12704.43
493.54	12589.74
493.72	12709.11
493.90	12475.06
494.08	12947.84
494.25	12809.75
494.43	12896.35
494.61	13177.22
494.79	13336.37
494.96	13308.29
495.14	13460.42
495.32	13448.72
495.49	13224.03
495.67	13502.55
495.85	13584.47
496.02	14017.47
496.20	13884.06
496.38	13645.32
496.55	13694.47
496.73	14155.56
496.91	13900.44
497.09	14483.24
497.26	14279.61
497.44	14352.16
497.62	14546.43
497.79	14588.56
497.97	14183.65
498.14	14663.46
498.32	14813.25
498.50	14796.87
498.67	14874.10
498.85	14693.88
499.03	14902.19
499.20	14876.44
499.38	14707.93
499.56	15096.46
499.73	14939.64
499.91	15281.36
500.08	15293.06
500.26	15389.02
500.44	15367.96
500.61	15592.65
500.79	15391.36
500.97	15419.45
501.14	15623.08
501.32	15800.96
501.49	15800.96
501.67	15707.34
501.84	15672.23
502.02	15857.13
502.20	16088.84
502.37	16074.80
502.55	16006.92
502.72	16123.95
502.90	16046.71
503.07	15943.73
503.25	16285.45
503.43	16135.65
503.60	16744.19
503.78	16400.13
503.95	16283.11
504.13	16533.54
504.30	16629.51
504.48	16432.90
504.65	16561.63
504.83	16711.42
505.01	16819.09
505.18	16968.88
505.36	17123.36
505.53	16865.90
505.71	17095.27
505.88	17025.06
506.06	16966.54
506.23	17088.25
506.41	16725.47
506.58	17242.73
506.76	17153.79
506.93	17387.84
507.11	17280.18
507.28	17296.56
507.46	17174.85
507.63	18040.85
507.81	17923.82
507.98	17638.28
508.16	17713.17
508.33	17465.08
508.50	17884.03
508.68	17596.15
508.85	18043.19
509.03	17898.08
509.20	18017.44
509.38	18230.43
509.55	18139.15
509.73	18153.20
509.90	18157.88
510.08	18010.42
510.25	18354.48
510.42	18312.35
510.60	18377.89
510.77	18574.49
510.95	18714.92
511.12	18420.02
511.30	18609.60
511.47	18871.74
511.64	18817.91
511.82	18796.84
511.99	18789.82
512.17	19211.12
512.34	18789.82
512.51	19187.71
512.69	19225.16
512.86	19054.30
513.04	19466.24
513.21	19215.80
513.38	19391.34
513.56	19302.40
513.73	19316.44
513.90	19257.93
514.08	19304.74
514.25	19487.30
514.43	19456.87
514.60	19557.52
514.77	19742.42
514.95	19939.02
515.12	19758.80
515.29	19513.05
515.47	19999.88
515.64	20086.48
515.81	19978.81
515.99	20116.90
516.16	20297.13
516.33	20173.08
516.51	20257.34
516.68	20297.13
516.85	20285.42
517.03	20283.08
517.20	20451.60
517.37	20357.98
517.54	20294.79
517.72	20315.85
517.89	20688.00
518.06	20556.93
518.24	20442.24
518.41	20599.05
518.58	20769.91
518.75	20634.16
518.93	20861.19
519.10	20690.34
519.27	20872.90
519.45	21083.55
519.62	21057.80
519.79	20872.90
519.96	20882.26
520.14	21329.30
520.31	21188.87
520.48	20910.35
520.65	21303.56
520.83	21160.78
521.00	21490.80
521.17	21008.65
521.34	21411.22
521.52	21259.09
521.69	21563.36
521.86	21626.55
522.03	21645.27
522.20	21198.23
522.38	21762.30
522.55	21486.12
522.72	21671.02
522.89	21715.49
523.07	22033.80
523.24	21874.65
523.41	22085.30
523.58	22104.02
523.75	22071.25
523.92	21846.56
524.10	22251.47
524.27	22146.15
524.44	22429.35
524.61	22305.31
524.78	22576.81
524.96	22354.46
525.13	22401.27
525.30	22455.10
525.47	22291.26
525.64	22335.73
525.81	22342.75
525.98	22576.81
526.16	22625.96
526.33	22609.58
526.50	23208.75
526.67	22520.63
526.84	22628.30
527.01	22654.05
527.18	22682.13
527.36	23044.91
527.53	22955.97
527.70	23080.02
527.87	23175.98
528.04	23087.04
528.21	23117.47
528.38	23211.09
528.55	23012.15
528.72	22923.21
528.89	22934.91
529.07	23407.70
529.24	22904.48
529.41	23271.95
529.58	23440.47
529.75	23470.89
529.92	23077.68
530.09	23433.44
530.26	23445.15
530.43	23756.44
530.60	23253.22
530.77	23278.97
530.94	23625.37
531.11	23548.13
531.28	23534.09
531.46	23632.39
531.63	24065.39
531.80	24201.14
531.97	24173.05
532.14	24109.86
532.31	23828.99
532.48	24081.77
532.65	24060.71
532.82	23934.32
532.99	23896.87
533.16	23843.04
533.33	24156.67
533.50	24477.32
533.67	24046.66
533.84	24259.65
534.01	24072.41
534.18	24229.23
534.35	24437.53
534.52	24184.76
534.69	24505.41
534.86	24816.70
535.03	24613.07
535.20	24563.92
535.37	24463.28
535.54	24877.55
535.71	24280.72
535.88	24713.72
536.05	24589.67
536.22	25027.35
536.38	24893.94
536.55	24650.52
536.72	24795.64
536.89	24748.82
537.06	25275.45
537.23	24950.11
537.40	25025.01
537.57	25025.01
537.74	24868.19
537.91	25385.45
538.08	25186.50
538.25	24793.29
538.42	25448.64
538.59	25472.05
538.75	25025.01
538.92	25209.91
539.09	25261.40
539.26	25003.94
539.43	25603.12
539.60	25324.60
539.77	25198.21
539.94	25511.84
540.11	25200.55
540.28	25343.32
540.44	25273.10
540.61	25322.26
540.78	25394.81
540.95	25528.22
541.12	25476.73
541.29	25591.42
541.46	25570.35
541.62	25792.70
541.79	25427.58
541.96	25106.93
542.13	25411.20
542.30	25556.31
542.47	25979.95
542.63	26008.03
542.80	26197.62
542.97	26342.73
543.14	26052.50
543.31	26190.59
543.48	26272.51
543.64	26223.36
543.81	26384.86
543.98	26565.08
544.15	26593.17
544.32	26623.59
544.48	26684.45
544.65	26211.66
544.82	26068.89
544.99	26305.28
545.16	26471.46
545.32	26382.52
545.49	26611.89
545.66	26962.97
545.83	27009.78
546.00	26745.30
546.16	26682.11
546.33	26342.73
546.50	25937.82
546.67	26808.50
546.83	26211.66
547.00	26855.31
547.17	26651.68
547.34	26899.78
547.50	26923.18
547.67	26766.37
547.84	26780.41
548.00	27168.94
548.17	27204.05
548.34	26761.69
548.51	26998.08
548.67	27168.94
548.84	27058.93
549.01	27225.11
549.18	27180.64
549.34	27028.51
549.51	27166.60
549.68	26838.92
549.84	27229.79
550.01	27353.84
550.18	27140.85
550.34	27634.71
550.51	27501.29
550.68	27515.34
550.84	27234.47
551.01	27215.75
551.18	27087.02
551.34	27058.93
551.51	27283.62
551.68	27435.76
551.84	27363.20
552.01	27367.88
552.18	27690.88
552.34	27604.28
552.51	27271.92
552.68	27531.72
552.84	27704.92
553.01	27833.65
553.18	27370.22
553.34	27833.65
553.51	27613.64
553.67	27742.37
553.84	27917.91
554.01	28135.58
554.17	27889.82
554.34	27948.34
554.51	27538.74
554.67	27714.28
554.84	27639.39
555.00	28109.83
555.17	27985.79
555.33	27978.76
555.50	27688.54
555.67	28088.77
555.83	27679.18
556.00	27623.00
556.16	28350.91
556.33	27948.34
556.50	28320.48
556.66	28070.04
556.83	28163.67
556.99	28224.52
557.16	28151.96
557.32	28353.25
557.49	28292.40
557.65	28259.63
557.82	27934.29
557.98	28170.69
558.15	28245.58
558.32	28437.51
558.48	28519.43
558.65	28650.50
558.81	28355.59
558.98	28746.46
559.14	28236.22
559.31	28545.17
559.47	28591.98
559.64	28725.39
559.80	28620.07
559.97	28477.30
560.13	28224.52
560.30	28521.77
560.46	28652.84
560.63	28793.27
560.79	28470.28
560.96	28699.65
561.12	28680.92
561.29	28357.93
561.45	28631.77
561.61	28739.44
561.78	28788.59
561.94	28851.78
562.11	28987.53
562.27	28694.97
562.44	28884.55
562.60	28753.48
562.77	28723.05
562.93	28573.26
563.10	28868.17
563.26	28994.56
563.42	29071.79
563.59	28622.41
563.75	28547.51
563.92	28982.85
564.08	28701.99
564.24	29010.94
564.41	28657.52
564.57	28950.09
564.74	28980.51
564.90	29315.21
565.07	29177.12
565.23	28912.64
565.39	28762.84
565.56	29191.16
565.72	28987.53
565.88	29071.79
566.05	28957.11
566.21	28650.50
566.38	29462.66
566.54	29160.73
566.70	29600.76
566.87	29167.76
567.03	28924.34
567.19	29387.77
567.36	29469.69
567.52	29216.91
567.68	28907.96
567.85	29060.09
568.01	29057.75
568.17	29170.10
568.34	29256.70
568.50	29347.98
568.66	28982.85
568.83	29053.07
568.99	29284.78
569.15	29062.43
569.32	28954.77
569.48	28725.39
569.64	29277.76
569.81	29205.20
569.97	29345.64
570.13	29317.55
570.30	29195.84
570.46	29371.38
570.62	29181.80
570.78	29284.78
570.95	29146.69
571.11	29268.40
571.27	29104.56
571.43	29308.19
571.60	29228.61
571.76	29111.58
571.92	29551.60
572.09	29053.07
572.25	29649.91
572.41	29605.44
572.57	29371.38
572.74	29560.97
572.90	29488.41
573.06	28929.02
573.22	29352.66
573.38	29656.93
573.55	29668.63
573.71	29551.60
573.87	29401.81
574.03	29139.67
574.20	29659.27
574.36	29355.00
574.52	29326.91
574.68	29516.50
574.84	29507.13
575.01	29469.69
575.17	29390.11
575.33	29476.71
575.49	29528.20
575.65	29872.26
575.82	29324.57
575.98	29546.92
576.14	29593.73
576.30	29202.86
576.46	29507.13
576.62	29385.43
576.79	29565.65
576.95	29677.99
577.11	29780.98
577.27	29441.60
577.43	29380.74
577.59	29663.95
577.75	29785.66
577.92	29703.74
578.08	29596.07
578.24	29567.99
578.40	29528.20
578.56	29467.34
578.72	29558.63
578.88	30071.20
579.04	30101.63
579.21	29420.53
579.37	29759.91
579.53	29682.67
579.69	29399.47
579.85	29617.14
580.01	29338.62
580.17	29078.82
580.33	29788.00
580.49	30040.78
580.65	29642.88
580.82	29628.84
580.98	29687.36
581.14	29673.31
581.30	29745.87
581.46	29469.69
581.62	29778.64
581.78	29600.76
581.94	29443.94
582.10	29724.80
582.26	29661.61
582.42	29553.94
582.58	29741.19
582.74	30031.41
582.90	29544.58
583.06	29844.17
583.22	29680.33
583.38	29727.14
583.54	29783.32
583.70	29773.95
583.86	29773.95
584.02	29521.18
584.18	29560.97
584.34	30012.69
584.50	29624.16
584.66	29626.50
584.82	29916.73
584.98	29956.52
585.14	29659.27
585.30	29600.76
585.46	29766.93
585.62	29586.71
585.78	29923.75
585.94	29397.13
586.10	29692.04
586.26	30017.37
586.42	30122.69
586.58	30000.99
586.74	29687.36
586.90	29516.50
587.06	29336.27
587.22	29853.53
587.38	29603.10
587.54	29907.37
587.70	29694.38
587.86	29837.15
588.02	30213.98
588.18	30490.16
588.34	30108.65
588.49	29776.30
588.65	30094.61
588.81	29982.26
588.97	30118.01
589.13	29909.71
589.29	29813.74
589.45	30148.44
589.61	30185.89
589.77	30113.33
589.93	30436.33
590.08	29998.65
590.24	30412.92
590.40	30433.99
590.56	29905.02
590.72	29628.84
590.88	29783.32
591.04	30054.82
591.20	30110.99
591.35	30368.45
591.51	30775.70
591.67	30328.66
591.83	30263.13
591.99	30162.48
592.15	30120.35
592.31	30082.91
592.46	30265.47
592.62	30040.78
592.78	30005.67
592.94	30242.06
593.10	29832.47
593.26	30258.45
593.41	30085.25
593.57	30279.51
593.73	30167.16
593.89	30263.13
594.05	30188.23
594.20	30256.11
594.36	30323.98
594.52	30059.50
594.68	29628.84
594.84	29741.19
594.99	30841.24
595.15	30338.02
595.31	30195.25
595.47	30455.05
595.62	30340.36
595.78	30080.56
595.94	29916.73
596.10	30338.02
596.25	30340.36
596.41	30199.93
596.57	30370.79
596.73	30019.71
596.88	29811.40
597.04	30389.52
597.20	30490.16
597.36	30323.98
597.51	30539.31
597.67	30300.58
597.83	30284.19
597.99	30300.58
598.14	30511.22
598.30	30164.82
598.46	30331.00
598.61	30373.13
598.77	29764.59
598.93	30349.73
599.09	30017.37
599.24	30768.68
599.40	30487.82
599.56	30452.71
599.71	30522.93
599.87	30286.53
600.03	30471.43
600.18	30363.77
600.34	30258.45
600.50	30029.07
600.65	30352.07
600.81	30742.94
600.97	30384.83
601.12	30754.64
601.28	30618.89
601.44	30368.45
601.59	30506.54
601.75	30230.36
601.91	30529.95
602.06	30363.77
602.22	30235.04
602.37	30539.31
602.53	30096.95
602.69	30277.17
602.84	30328.66
603.00	30508.88
603.16	30368.45
603.31	30611.87
603.47	30291.21
603.62	30515.90
603.78	30405.90
603.94	30569.74
604.09	30352.07
604.25	29970.56
604.40	30417.60
604.56	30377.81
604.71	30218.66
604.87	30256.11
605.03	30513.56
605.18	30429.30
605.34	30003.33
605.49	29919.07
605.65	30293.55
605.80	29989.28
605.96	30085.25
606.12	29928.43
606.27	30356.75
606.43	30192.91
606.58	30455.05
606.74	30579.10
606.89	30316.96
607.05	30394.20
607.20	30684.42
607.36	30431.65
607.51	30415.26
607.67	30101.63
607.82	29926.09
607.98	30054.82
608.13	29893.32
608.29	30080.56
608.44	30216.32
608.60	30129.72
608.75	30333.34
608.91	30148.44
609.06	29905.02
609.22	30462.07
609.37	29893.32
609.53	29942.47
609.68	30096.95
609.84	29773.95
609.99	30110.99
610.15	29759.91
610.30	29872.26
610.46	30225.68
610.61	30192.91
610.76	30223.34
610.92	30024.39
611.07	30150.78
611.23	30059.50
611.38	30225.68
611.54	29937.79
611.69	30071.20
611.84	29783.32
612.00	29921.41
612.15	29633.52
612.31	30024.39
612.46	29549.26
612.62	29998.65
612.77	29984.60
612.92	30199.93
613.08	30038.44
613.23	29750.55
613.39	29963.54
613.54	29734.17
613.69	29846.51
613.85	29722.46
614.00	29340.96
614.15	29944.81
614.31	29930.77
614.46	30115.67
614.62	29975.24
614.77	29722.46
614.92	29860.55
615.08	29399.47
615.23	29656.93
615.38	29617.14
615.54	29514.16
615.69	29418.19
615.84	29654.59
616.00	29633.52
616.15	29827.79
616.30	29675.65
616.46	29738.85
616.61	28886.89
616.76	29790.34
616.92	29741.19
617.07	29572.67
617.22	29151.37
617.37	29270.74
617.53	29315.21
617.68	29266.06
617.83	29170.10
617.99	29043.71
618.14	29242.65
618.29	29273.08
618.45	29284.78
618.60	29308.19
618.75	29443.94
618.90	29935.45
619.06	29436.92
619.21	28980.51
619.36	29659.27
619.51	29099.88
619.67	29050.73
619.82	28666.88
619.97	29457.98
620.12	29207.55
620.28	29205.20
620.43	29153.71
620.58	29427.56
620.73	28936.04
620.89	29230.95
621.04	29563.31
621.19	29439.26
621.34	29359.68
621.49	28746.46
621.65	29060.09
621.80	29296.49
621.95	28584.96
622.10	28910.30
622.25	28879.87
622.41	29003.92
622.56	29198.18
622.71	29081.16
622.86	29069.45
623.01	29076.48
623.16	28477.30
623.32	28879.87
623.47	28591.98
623.62	28430.49
623.77	28905.62
623.92	28802.63
624.07	28694.97
624.23	28978.17
624.38	28744.12
624.53	28959.45
624.68	28847.10
624.83	29083.50
624.98	28814.34
625.13	29017.96
625.29	28701.99
625.44	28662.20
625.59	28435.17
625.74	28367.29
625.89	28336.87
626.04	28601.35
626.19	28189.41
626.34	28718.37
626.49	28683.27
626.65	28648.16
626.80	28683.27
626.95	28474.96
627.10	28201.11
627.25	28512.41
627.40	28175.37
627.55	28266.65
627.70	28357.93
627.85	28196.43
628.00	28273.67
628.15	27988.13
628.30	28121.54
628.45	28318.14
628.60	28402.40
628.76	28395.38
628.91	28505.38
629.06	28285.37
629.21	28376.66
629.36	28432.83
629.51	28299.42
629.66	27840.67
629.81	27803.22
629.96	27618.32
630.11	27917.91
630.26	28056.00
630.41	27697.90
630.56	27772.80
630.71	27747.05
630.86	28519.43
631.01	28194.09
631.16	28163.67
631.31	27520.02
631.46	27889.82
631.61	27779.82
631.76	27887.48
631.91	27557.47
632.06	28175.37
632.21	28402.40
632.36	27908.55
632.51	27601.94
632.66	28266.65
632.81	27765.78
632.96	28102.81
633.10	27644.07
633.25	27861.74
633.40	27651.09
633.55	27704.92
633.70	27517.68
633.85	27564.49
634.00	27243.84
634.15	27522.36
634.30	27873.44
634.45	27641.73
634.60	27454.48
634.75	27229.79
634.90	27660.45
635.05	27578.53
635.19	27285.97
635.34	27969.40
635.49	27564.49
635.64	27728.33
635.79	27332.78
635.94	27529.38
636.09	27323.41
636.24	27056.59
636.39	26986.38
636.53	27426.40
636.68	26859.99
636.83	27442.78
636.98	27395.97
637.13	27580.87
637.28	27402.99
637.43	27246.18
637.57	27248.52
637.72	27194.68
637.87	27267.24
638.02	27498.95
638.17	27569.17
638.32	27119.79
638.46	27068.30
638.61	26717.22
638.76	26920.84
638.91	27110.43
639.06	26977.01
639.20	26911.48
639.35	27152.55
639.50	27260.22
639.65	27243.84
639.80	27243.84
639.94	27185.32
640.09	27243.84
640.24	27089.36
640.39	26801.47
640.54	26780.41
640.68	26757.00
640.83	27026.17
640.98	26544.02
641.13	26885.73
641.27	26721.90
641.42	26838.92
641.57	26712.53
641.72	26780.41
641.86	26771.05
642.01	26206.98
642.16	27138.51
642.31	26654.02
642.45	26682.11
642.60	26445.71
642.75	26356.77
642.90	26272.51
643.04	26363.79
643.19	26417.63
643.34	26675.09
643.48	26267.83
643.63	26429.33
643.78	26586.15
643.93	26534.65
644.07	26803.82
644.22	26490.18
644.37	26359.11
644.51	26321.66
644.66	26490.18
644.81	26286.56
644.95	26366.13
645.10	26611.89
645.25	26356.77
645.39	26026.76
645.54	26394.22
645.69	26127.40
645.83	26434.01
645.98	26228.04
646.13	26438.69
646.27	26522.95
646.42	26181.23
646.57	26331.03
646.71	26373.16
646.86	26459.76
647.00	26281.88
647.15	26267.83
647.30	26218.68
647.44	26026.76
647.59	26595.51
647.74	25956.54
647.88	26118.04
648.03	26082.93
648.17	26251.45
648.32	26316.98
648.47	26237.41
648.61	26036.12
648.76	26326.35
648.90	25984.63
649.05	26064.21
649.20	26092.29
649.34	25750.57
649.49	25727.17
649.63	26176.55
649.78	25827.81
649.92	25724.83
650.07	25855.90
650.21	25556.31
650.36	25907.39
650.51	26019.74
650.65	25654.61
650.80	25717.81
650.94	25792.70
651.09	25584.40
651.23	25738.87
651.38	25776.32
651.52	25340.98
651.67	25619.50
651.81	25961.22
651.96	25818.45
652.10	25855.90
652.25	25563.33
652.39	25535.24
652.54	25773.98
652.68	25586.74
652.83	25759.94
652.97	25607.80
653.12	25839.51
653.26	25366.73
653.41	25687.38
653.55	25378.43
653.70	25663.97
653.84	25371.41
653.99	25425.24
654.13	25123.31
654.27	25172.46
654.42	25488.43
654.56	25708.44
654.71	25343.32
654.85	25144.38
655.00	25621.84
655.14	25422.90
655.29	25158.42
655.43	25216.93
655.57	25380.77
655.72	25106.93
655.86	24854.15
656.01	25102.25
656.15	25132.67
656.30	24980.54
656.44	25069.48
656.58	25256.72
656.73	24947.77
656.87	25200.55
657.01	25064.80
657.16	24947.77
657.30	25191.19
657.45	25142.03
657.59	25069.48
657.73	24816.70
657.88	24821.38
658.02	25085.86
658.16	24685.63
658.31	25172.46
658.45	24854.15
658.60	24400.08
658.74	24580.31
658.88	24573.28
659.03	24697.33
659.17	24744.14
659.31	24875.21
659.46	24748.82
659.60	24931.39
659.74	24620.10
659.89	24627.12
660.03	24615.41
660.17	24549.88
660.32	24416.47
660.46	24133.26
660.60	24219.86
660.74	24559.24
660.89	24074.75
661.03	24149.65
661.17	24496.05
661.32	24093.47
661.46	24297.10
661.60	24533.50
661.74	24334.55
661.89	24474.98
662.03	24184.76
662.17	24320.51
662.31	23941.34
662.46	24032.62
662.60	23871.12
662.74	23957.72
662.88	24109.86
663.03	23763.46
663.17	23571.54
663.31	23571.54
663.45	23697.92
663.60	23878.15
663.74	23585.58
663.88	24039.64
664.02	23749.42
664.17	23740.05
664.31	23889.85
664.45	23569.19
664.59	23765.80
664.73	23351.52
664.88	23786.86
665.02	23377.27
665.16	23506.00
665.30	23096.41
665.44	23035.55
665.59	23330.46
665.73	23159.60
665.87	22977.04
666.01	23293.01
666.15	23363.23
666.29	23311.74
666.44	23400.68
666.58	22965.34
666.72	23161.94
666.86	23005.13
667.00	23229.82
667.14	23185.35
667.28	23117.47
667.43	23122.15
667.57	22778.09
667.71	22546.38
667.85	22757.03
667.99	22698.52
668.13	22464.46
668.27	22740.64
668.41	23133.86
668.56	22771.07
668.70	22874.06
668.84	22691.49
668.98	22787.46
669.12	22824.90
669.26	22644.68
669.40	22228.07
669.54	22675.11
669.68	22693.83
669.82	22537.02
669.96	22160.19
670.10	22225.73
670.25	22249.13
670.39	22314.67
670.53	22232.75
670.67	21727.19
670.81	22239.77
670.95	22143.81
671.09	22544.04
671.23	22106.36
671.37	22340.41
671.51	22115.72
671.65	21914.44
671.79	21825.50
671.93	21797.41
672.07	22003.38
672.21	21930.82
672.35	21734.21
672.49	21572.72
672.63	21565.70
672.77	21198.23
672.91	21649.96
673.05	21333.98
673.19	21546.97
673.33	21481.44
673.47	21408.88
673.61	21642.93
673.75	21476.76
673.89	21577.40
674.03	21558.67
674.17	21352.71
674.31	21228.66
674.45	20769.91
674.59	21027.37
674.73	20947.79
674.87	20982.90
675.01	20657.57
675.15	20685.65
675.29	20833.11
675.43	20854.17
675.56	20666.93
675.70	20671.61
675.84	20627.14
675.98	20135.63
676.12	20739.49
676.26	20968.86
676.40	20762.89
676.54	20353.30
676.68	20203.50
676.82	19992.86
676.96	20341.60
677.10	20196.48
677.23	20063.07
677.37	20163.72
677.51	20044.35
677.65	19887.53
677.79	19686.25
677.93	20149.67
678.07	19873.49
678.21	19403.04
678.34	19637.09
678.48	19651.14
678.62	19871.15
678.76	19447.51
678.90	19140.90
679.04	19391.34
679.18	19674.54
679.31	19257.93
679.45	19023.87
679.59	19108.13
679.73	19168.99
679.87	19365.59
680.00	19108.13
680.14	18672.79
680.28	18984.09
680.42	19000.47
680.56	18845.99
680.70	18686.84
680.83	19056.64
680.97	18614.28
681.11	18696.20
681.25	18710.24
681.39	18623.64
681.52	18735.99
681.66	18616.62
681.80	18607.26
681.94	18345.12
682.07	18305.33
682.21	18235.11
682.35	18225.75
682.49	18146.17
682.62	18134.47
682.76	18183.62
682.90	17970.63
683.04	17987.02
683.17	17790.41
683.31	17902.76
683.45	18052.55
683.59	17972.97
683.72	17584.44
683.86	17937.87
684.00	17554.02
684.13	17554.02
684.27	17373.80
684.41	17621.89
684.55	17142.08
684.68	17104.64
684.82	17231.02
684.96	16952.50
685.09	17195.92
685.23	16615.46
685.37	16858.88
685.50	17118.68
685.64	16826.11
685.78	16842.50
685.91	17116.34
686.05	16835.47
686.19	16755.90
686.32	16578.01
686.46	16491.41
686.60	16568.65
686.73	16402.47
686.87	16245.66
687.01	16400.13
687.14	16222.25
687.28	16306.51
687.42	16486.73
687.55	16053.73
687.69	15920.32
687.82	16210.55
687.96	15974.16
688.10	15798.62
688.23	15747.12
688.37	15850.11
688.50	15943.73
688.64	15850.11
688.78	15758.83
688.91	15665.21
689.05	15501.37
689.18	15510.73
689.32	15403.07
689.46	15489.67
689.59	15288.38
689.73	15061.35
689.86	15229.87
690.00	15124.54
690.13	15257.95
690.27	15077.73
690.41	15288.38
690.54	14963.04
690.68	14972.41
690.81	15009.86
690.95	14909.21
691.08	14745.38
691.22	15122.20
691.35	14949.00
691.49	14967.73
691.62	14874.10
691.76	14602.60
691.89	14511.32
692.03	14480.89
692.16	14288.97
692.30	14111.09
692.43	14211.73
692.57	14363.87
692.70	14061.94
692.84	14047.90
692.97	13858.31
693.11	13982.36
693.24	13998.74
693.38	14029.17
693.51	13750.65
693.65	13881.72
693.78	13715.54
693.92	13687.45
694.05	13713.20
694.19	13357.44
694.32	13624.26
694.45	13467.44
694.59	13027.42
694.72	13441.70
694.86	13359.78
694.99	12961.89
695.13	13069.55
695.26	13125.72
695.39	13060.19
695.53	13137.43
695.66	12908.05
695.80	12982.95
695.93	12652.94
696.07	13107.00
696.20	12828.48
696.33	12961.89
696.47	12737.20
696.60	13050.83
696.73	12648.26
696.87	13013.38
697.00	12538.25
697.14	12315.90
697.27	12091.21
697.40	12065.46
697.54	12049.08
697.67	12205.89
697.80	12006.95
697.94	12079.50
698.07	11763.53
698.21	11922.69
698.34	11936.73
698.47	12238.66
698.61	11939.07
698.74	11964.82
698.87	11936.73
699.01	11918.01
699.14	11758.85
699.27	11620.76
699.40	11765.87
699.54	11707.36
699.67	11506.07
699.80	11473.31
699.94	11293.08
700.07	11407.77
700.20	11255.64
700.34	11082.44
700.47	11066.05
700.60	11391.39
700.73	11250.96
700.87	11049.67
701.00	11059.03
701.13	10956.05
701.26	11119.89
701.40	10899.87
701.53	10869.45
701.66	10937.32
701.79	10843.70
701.93	10684.55
702.06	10766.46
702.19	10583.90
702.32	10628.37
702.46	10509.01
702.59	10523.05
702.72	10443.47
702.85	10242.18
702.99	10356.87
703.12	10347.51
703.25	10026.86
703.38	10200.05
703.51	10239.84
703.65	10256.23
703.78	10174.31
703.91	9841.95
704.04	10214.10
704.17	10281.97
704.31	10186.01
704.44	9888.76
704.57	10052.60
704.70	9795.14
704.83	9900.47
704.96	9476.83
705.10	9614.92
705.23	9598.54
>>>>>End Processed Spectral Data<<<<<
