SpectraSuite Data File
++++++++++++++++++++++++++++++++++++
Date: Fri Oct 18 13:58:32 GMT-05:00 2013
User: bianchi
Dark Spectrum Present: No
Reference Spectrum Present: No
Number of Sampled Component Spectra: 1
Spectrometers: USB2+H05261
Integration Time (usec): 50000 (USB2+H05261)
Spectra Averaged: 1 (USB2+H05261)
Boxcar Smoothing: 0 (USB2+H05261)
Correct for Electrical Dark: No (USB2+H05261)
Strobe/Lamp Enabled: No (USB2+H05261)
Correct for Detector Non-linearity: No (USB2+H05261)
Correct for Stray Light: No (USB2+H05261)
Number of Pixels in Processed Spectrum: 2048
>>>>>Begin Processed Spectral Data<<<<<
365.73	0.00
365.92	0.00
366.12	0.00
366.32	0.00
366.52	0.00
366.72	0.00
366.91	0.00
367.11	0.00
367.31	0.00
367.51	0.00
367.70	0.00
367.90	0.00
368.10	0.00
368.30	0.00
368.49	0.00
368.69	0.00
368.89	0.00
369.09	0.00
369.28	0.00
369.48	0.00
369.68	0.00
369.87	0.00
370.07	0.00
370.27	0.00
370.47	0.00
370.66	70.22
370.86	18.72
371.06	114.69
371.25	128.73
371.45	107.66
371.65	175.54
371.84	159.16
372.04	88.94
372.24	142.77
372.44	149.79
372.63	170.86
372.83	166.18
373.03	161.50
373.22	163.84
373.42	290.23
373.62	224.69
373.81	189.58
374.01	189.58
374.21	301.93
374.40	222.35
374.60	217.67
374.79	201.29
374.99	175.54
375.19	262.14
375.38	262.14
375.58	278.52
375.78	250.44
375.97	250.44
376.17	264.48
376.37	269.16
376.56	217.67
376.76	182.56
376.95	248.10
377.15	259.80
377.35	212.99
377.54	304.27
377.74	271.50
377.93	301.93
378.13	245.76
378.33	330.02
378.52	334.70
378.72	266.82
378.91	191.92
379.11	198.95
379.31	344.06
379.50	351.08
379.70	365.12
379.89	301.93
380.09	334.70
380.28	271.50
380.48	278.52
380.68	355.76
380.87	280.86
381.07	271.50
381.26	292.57
381.46	381.51
381.65	308.95
381.85	280.86
382.04	306.61
382.24	285.55
382.43	283.20
382.63	393.21
382.83	320.65
383.02	334.70
383.22	353.42
383.41	325.33
383.61	348.74
383.80	362.78
384.00	386.19
384.19	315.97
384.39	355.76
384.58	390.87
384.78	315.97
384.97	465.77
385.17	404.91
385.36	332.36
385.56	393.21
385.75	320.65
385.95	322.99
386.14	404.91
386.34	393.21
386.53	397.89
386.72	374.49
386.92	442.36
387.11	407.25
387.31	428.32
387.50	379.17
387.70	386.19
387.89	404.91
388.09	395.55
388.28	486.83
388.48	433.00
388.67	484.49
388.86	484.49
389.06	496.19
389.25	451.72
389.45	440.02
389.64	407.25
389.84	507.90
390.03	470.45
390.22	521.94
390.42	407.25
390.61	421.30
390.81	454.06
391.00	379.17
391.19	528.96
391.39	566.41
391.58	566.41
391.78	496.19
391.97	470.45
392.16	552.37
392.36	543.00
392.55	444.70
392.75	543.00
392.94	564.07
393.13	662.37
393.33	505.56
393.52	554.71
393.71	521.94
393.91	571.09
394.10	608.54
394.29	603.86
394.49	592.16
394.68	557.05
394.88	610.88
395.07	667.05
395.26	507.90
395.46	617.90
395.65	545.34
395.84	669.39
396.04	690.46
396.23	643.65
396.42	674.07
396.62	629.60
396.81	582.79
397.00	648.33
397.19	603.86
397.39	571.09
397.58	641.31
397.77	713.86
397.97	746.63
398.16	648.33
398.35	638.97
398.55	645.99
398.74	727.91
398.93	706.84
399.12	643.65
399.32	627.26
399.51	781.74
399.70	835.57
399.90	767.70
400.09	751.31
400.28	748.97
400.47	758.33
400.67	798.12
400.86	880.04
401.05	770.04
401.24	779.40
401.44	718.54
401.63	711.52
401.82	741.95
402.01	772.38
402.21	777.06
402.40	833.23
402.59	837.91
402.78	858.98
402.97	795.78
403.17	880.04
403.36	823.87
403.55	873.02
403.74	842.59
403.93	891.74
404.13	940.90
404.32	917.49
404.51	887.06
404.70	889.40
404.89	917.49
405.09	964.30
405.28	954.94
405.47	931.53
405.66	940.90
405.85	999.41
406.05	968.98
406.24	957.28
406.43	959.62
406.62	1048.56
406.81	1078.99
407.00	964.30
407.20	931.53
407.39	983.02
407.58	1081.33
407.77	1074.31
407.96	1029.84
408.15	1067.28
408.34	1074.31
408.54	1128.14
408.73	1053.24
408.92	1043.88
409.11	1118.78
409.30	1062.60
409.49	1025.15
409.68	1057.92
409.87	1193.67
410.07	1242.82
410.26	1203.04
410.45	1174.95
410.64	1156.22
410.83	1172.61
411.02	1172.61
411.21	1289.64
411.40	1254.53
411.59	1291.98
411.78	1277.93
411.98	1186.65
412.17	1308.36
412.36	1320.06
412.55	1228.78
412.74	1343.47
412.93	1343.47
413.12	1322.40
413.31	1350.49
413.50	1378.58
413.69	1425.39
413.88	1416.02
414.07	1432.41
414.26	1376.24
414.45	1315.38
414.64	1411.34
414.83	1493.26
415.02	1514.33
415.22	1488.58
415.41	1526.03
415.60	1542.41
415.79	1540.07
415.98	1530.71
416.17	1537.73
416.36	1544.75
416.55	1640.72
416.74	1706.25
416.93	1699.23
417.12	1570.50
417.31	1647.74
417.50	1696.89
417.69	1629.01
417.88	1706.25
418.07	1741.36
418.26	1598.59
418.45	1724.97
418.64	1778.81
418.83	1837.32
419.02	1743.70
419.21	1788.17
419.39	1774.13
419.58	1872.43
419.77	1809.23
419.96	1799.87
420.15	1795.19
420.34	1839.66
420.53	1710.93
420.72	1902.86
420.91	1853.70
421.10	1865.41
421.29	1933.28
421.48	1928.60
421.67	1888.81
421.86	1877.11
422.05	1984.77
422.24	1834.98
422.43	1891.15
422.61	1912.22
422.80	1944.99
422.99	2031.58
423.18	1984.77
423.37	1961.37
423.56	2005.84
423.75	1987.11
423.94	1982.43
424.13	1830.30
424.32	1966.05
424.50	1898.17
424.69	2064.35
424.88	1991.80
425.07	1926.26
425.26	1898.17
425.45	2040.95
425.64	2019.88
425.83	2083.08
426.01	1980.09
426.20	2005.84
426.39	2062.01
426.58	1968.39
426.77	2008.18
426.96	1996.48
427.15	2057.33
427.33	2064.35
427.52	2090.10
427.71	2153.29
427.90	2071.37
428.09	2071.37
428.28	2157.97
428.46	2183.72
428.65	2223.51
428.84	2188.40
429.03	2195.42
429.22	2150.95
429.40	2256.28
429.59	2155.63
429.78	2157.97
429.97	2087.76
430.16	2270.32
430.34	2186.06
430.53	2324.15
430.72	2244.57
430.91	2239.89
431.10	2211.81
431.28	2324.15
431.47	2310.11
431.66	2385.01
431.85	2293.72
432.03	2445.86
432.22	2375.64
432.41	2380.32
432.60	2410.75
432.79	2221.17
432.97	2403.73
433.16	2441.18
433.35	2380.32
433.54	2403.73
433.72	2558.21
433.91	2532.46
434.10	2546.50
434.28	2516.08
434.47	2504.37
434.66	2635.44
434.85	2518.42
435.03	2471.61
435.22	2644.81
435.41	2635.44
435.59	2537.14
435.78	2595.65
435.97	2612.04
436.16	2626.08
436.34	2658.85
436.53	2700.98
436.72	2654.17
436.90	2649.49
437.09	2682.25
437.28	2644.81
437.46	2693.96
437.65	2642.46
437.84	2754.81
438.02	2792.26
438.21	2796.94
438.40	2768.85
438.58	2679.91
438.77	2911.63
438.96	2937.37
439.14	2967.80
439.33	2930.35
439.52	2855.45
439.70	2906.95
439.89	2932.69
440.08	2986.52
440.26	2981.84
440.45	2993.55
440.63	3077.80
440.82	3023.97
441.01	2981.84
441.19	3110.57
441.38	3180.79
441.57	3236.96
441.75	3148.02
441.94	3143.34
442.12	3133.98
442.31	3304.84
442.50	3288.45
442.68	3290.79
442.87	3218.24
443.05	3180.79
443.24	3337.60
443.43	3332.92
443.61	3265.05
443.80	3454.63
443.98	3328.24
444.17	3316.54
444.35	3318.88
444.54	3531.87
444.73	3339.94
444.91	3253.34
445.10	3485.06
445.28	3332.92
445.47	3379.73
445.65	3389.10
445.84	3293.13
446.02	3531.87
446.21	3332.92
446.39	3304.84
446.58	3592.72
446.77	3541.23
446.95	3300.16
447.14	3456.97
447.32	3597.40
447.51	3428.88
447.69	3407.82
447.88	3674.64
448.06	3508.46
448.25	3562.30
448.43	3396.12
448.62	3534.21
448.80	3534.21
448.99	3595.06
449.17	3550.59
449.36	3463.99
449.54	3562.30
449.73	3564.64
449.91	3564.64
450.10	3714.43
450.28	3742.52
450.46	3634.85
450.65	3646.55
450.83	3702.73
451.02	3571.66
451.20	3742.52
451.39	3735.50
451.57	3655.92
451.76	3602.08
451.94	3794.01
452.13	3852.52
452.31	3784.65
452.49	3686.34
452.68	3637.19
452.86	3812.73
453.05	4009.34
453.23	3878.27
453.42	3716.77
453.60	3775.28
453.78	3985.93
453.97	3824.44
454.15	3866.56
454.34	3838.48
454.52	3920.40
454.70	3840.82
454.89	4011.68
455.07	3941.46
455.26	4028.06
455.44	4112.32
455.62	3932.10
455.81	4166.15
455.99	4072.53
456.17	4147.43
456.36	4016.36
456.54	4205.94
456.73	4077.21
456.91	4358.08
457.09	4161.47
457.28	4322.97
457.46	4124.02
457.64	4416.59
457.83	4241.05
458.01	4292.54
458.19	4227.01
458.38	4234.03
458.56	4262.12
458.74	4166.15
458.93	4269.14
459.11	4341.69
459.29	4470.42
459.48	4573.41
459.66	4355.74
459.84	4407.23
460.03	4550.00
460.21	4507.87
460.39	4491.49
460.57	4500.85
460.76	4540.64
460.94	4610.86
461.12	4369.78
461.31	4519.57
461.49	4634.26
461.67	4519.57
461.85	4634.26
462.04	4559.36
462.22	4692.77
462.40	4734.90
462.59	4627.24
462.77	4613.20
462.95	4718.52
463.13	4875.34
463.32	4739.58
463.50	4762.99
463.68	4847.25
463.86	4777.03
464.05	4758.31
464.23	4620.22
464.41	4887.04
464.59	4648.30
464.78	4968.96
464.96	4800.44
465.14	4968.96
465.32	4978.32
465.50	4847.25
465.69	4947.89
465.87	4917.47
466.05	4973.64
466.23	4936.19
466.41	5027.47
466.60	5144.50
466.78	4910.44
466.96	4954.91
467.14	4880.02
467.32	5053.22
467.51	5298.97
467.69	4978.32
467.87	5142.16
468.05	5123.43
468.23	4959.60
468.41	5041.51
468.60	5046.20
468.78	5114.07
468.96	5043.85
469.14	5160.88
469.32	5287.27
469.50	5128.11
469.69	5320.04
469.87	5420.68
470.05	5289.61
470.23	5329.40
470.41	5401.96
470.59	5235.78
470.77	5280.25
470.95	5322.38
471.14	5394.93
471.32	5345.78
471.50	5584.52
471.68	5481.53
471.86	5530.69
472.04	5565.79
472.22	5741.33
472.40	5500.26
472.58	5682.82
472.77	5624.31
472.95	5593.88
473.13	5980.07
473.31	5886.45
473.49	5823.25
473.67	5696.86
473.85	5769.42
474.03	6003.47
474.21	5989.43
474.39	5891.13
474.57	6024.54
474.75	6108.80
474.93	6099.44
475.12	6094.76
475.30	6033.90
475.48	5944.96
475.66	6293.70
475.84	6211.78
476.02	6438.81
476.20	6118.16
476.38	6525.41
476.56	6417.75
476.74	6478.60
476.92	6368.60
477.10	6633.08
477.28	6438.81
477.46	6464.56
477.64	6743.08
477.82	6675.21
478.00	6974.80
478.18	6871.81
478.36	6827.34
478.54	6937.35
478.72	6782.87
478.90	7037.99
479.08	7112.89
479.26	7192.47
479.44	7045.01
479.62	7407.80
479.80	7253.32
479.98	7358.64
480.16	7445.24
480.34	7316.51
480.52	7396.09
480.70	7606.74
480.88	7452.27
481.06	7552.91
481.24	7475.67
481.41	7583.34
481.59	7754.19
481.77	7948.46
481.95	7838.45
482.13	7885.26
482.31	7932.08
482.49	8086.55
482.67	8198.90
482.85	8255.07
483.03	8299.54
483.21	8400.18
483.39	8498.49
483.57	8505.51
483.74	8484.44
483.92	8596.79
484.10	8659.98
484.28	8879.99
484.46	8870.63
484.64	9144.47
484.82	8723.18
485.00	9067.24
485.18	9050.85
485.35	9231.07
485.53	9376.19
485.71	9385.55
485.89	9488.53
486.07	9348.10
486.25	9652.37
486.43	9692.16
486.61	9540.02
486.78	9657.05
486.96	9900.47
487.14	9832.59
487.32	9996.43
487.50	10047.92
487.68	10085.37
487.85	10076.01
488.03	10281.97
488.21	10431.77
488.39	10579.22
488.57	10513.69
488.75	10541.77
488.92	10757.10
489.10	10796.89
489.28	10878.81
489.46	11000.52
489.64	10757.10
489.81	11005.20
489.99	11084.78
490.17	10956.05
490.35	11417.13
490.53	11325.85
490.70	11536.50
490.88	11454.58
491.06	11648.85
491.24	11398.41
491.41	11709.70
491.59	11674.59
491.77	11758.85
491.95	12093.55
492.13	11892.26
492.30	12023.33
492.48	12053.76
492.66	12400.16
492.84	12257.39
493.01	12276.11
493.19	12290.15
493.37	12535.91
493.54	12580.38
493.72	12723.15
493.90	12767.62
494.08	12802.73
494.25	12933.80
494.43	12915.08
494.61	13022.74
494.79	13142.11
494.96	13034.44
495.14	13212.32
495.32	13207.64
495.49	13261.48
495.67	13537.66
495.85	13605.53
496.02	13795.12
496.20	13893.42
496.38	13530.64
496.55	13532.98
496.73	13965.98
496.91	13799.80
497.09	14319.40
497.26	14277.27
497.44	13937.89
497.62	14256.20
497.79	14431.74
497.97	14317.06
498.14	14721.97
498.32	14679.84
498.50	14698.56
498.67	14684.52
498.85	14972.41
499.03	14897.51
499.20	14604.94
499.38	14789.85
499.56	14661.12
499.73	14949.00
499.91	15040.28
500.08	15070.71
500.26	15185.40
500.44	15101.14
500.61	15164.33
500.79	15267.31
500.97	15555.20
501.14	15648.82
501.32	15662.86
501.49	15580.95
501.67	15414.77
501.84	15527.11
502.02	15335.19
502.20	15751.81
502.37	15829.04
502.55	16112.25
502.72	16077.14
502.90	15960.11
503.07	15815.00
503.25	16233.96
503.43	16152.04
503.60	16170.76
503.78	16126.29
503.95	16299.49
504.13	16374.39
504.30	16334.60
504.48	16386.09
504.65	16549.93
504.83	16533.54
505.01	16690.36
505.18	16608.44
505.36	17048.46
505.53	16800.37
505.71	16870.58
505.88	16973.56
506.06	16802.71
506.23	17186.55
506.41	17125.70
506.58	16751.21
506.76	16987.61
506.93	17544.66
507.11	17137.40
507.28	17266.13
507.46	17301.24
507.63	17018.04
507.81	17301.24
507.98	17823.18
508.16	17699.13
508.33	17497.84
508.50	17568.06
508.68	17734.24
508.85	17820.84
509.03	17778.71
509.20	17895.74
509.38	18087.66
509.55	17841.90
509.73	18134.47
509.90	18263.20
510.08	18113.41
510.25	18026.81
510.42	18251.50
510.60	18127.45
510.77	18375.55
510.95	18569.81
511.12	18223.41
511.30	18450.44
511.47	18672.79
511.64	18700.88
511.82	18590.88
511.99	18640.03
512.17	18607.26
512.34	18853.02
512.51	18845.99
512.69	19089.41
512.86	18897.49
513.04	19253.25
513.21	19084.73
513.38	19150.26
513.56	19332.82
513.73	19276.65
513.90	19096.43
514.08	19138.56
514.25	19325.80
514.43	19454.53
514.60	19351.55
514.77	19145.58
514.95	19672.20
515.12	19625.39
515.29	19470.92
515.47	19578.58
515.64	20135.63
515.81	19517.73
515.99	20079.46
516.16	20203.50
516.33	20070.09
516.51	20013.92
516.68	19637.09
516.85	19953.07
517.03	20245.63
517.20	20198.82
517.37	20128.61
517.54	20004.56
517.72	20357.98
517.89	20395.43
518.06	20475.01
518.24	20107.54
518.41	20116.90
518.58	20446.92
518.75	20362.66
518.93	20603.74
519.10	20486.71
519.27	20500.75
519.45	20671.61
519.62	20407.13
519.79	20617.78
519.96	20702.04
520.14	20781.62
520.31	20765.23
520.48	20994.61
520.65	21111.63
520.83	20947.79
521.00	21235.68
521.17	20765.23
521.34	21074.18
521.52	21242.70
521.69	21432.29
521.86	21221.64
522.03	21434.63
522.20	21209.93
522.38	21376.11
522.55	21315.26
522.72	21493.14
522.89	21628.89
523.07	21757.62
523.24	21600.80
523.41	22031.46
523.58	21474.42
523.75	21788.05
523.92	21671.02
524.10	21738.90
524.27	21797.41
524.44	22211.68
524.61	22324.03
524.78	22136.79
524.96	22174.24
525.13	22064.23
525.30	22410.63
525.47	22033.80
525.64	22190.62
525.81	22471.48
525.98	22366.16
526.16	22284.24
526.33	22616.60
526.50	22686.81
526.67	22178.92
526.84	22384.88
527.01	22101.68
527.18	22534.68
527.36	22562.76
527.53	22661.07
527.70	22878.74
527.87	22941.93
528.04	22867.03
528.21	22806.18
528.38	22731.28
528.55	22810.86
528.72	22836.61
528.89	22850.65
529.07	22934.91
529.24	22913.84
529.41	23215.77
529.58	23461.53
529.75	23372.59
529.92	23281.31
530.09	23433.44
530.26	23459.19
530.43	23592.60
530.60	23321.10
530.77	23421.74
530.94	23438.12
531.11	23391.31
531.28	23009.81
531.46	23445.15
531.63	23222.80
531.80	23819.63
531.97	23714.31
532.14	23793.89
532.31	23728.35
532.48	23637.07
532.65	23889.85
532.82	23693.24
532.99	23798.57
533.16	23749.42
533.33	23920.28
533.50	23974.11
533.67	24233.91
533.84	23908.57
534.01	23826.65
534.18	23744.73
534.35	23798.57
534.52	24201.14
534.69	23978.79
534.86	24367.32
535.03	24219.86
535.20	24240.93
535.37	24430.51
535.54	24247.95
535.71	24379.02
535.88	24364.98
536.05	24500.73
536.22	24655.20
536.38	24802.66
536.55	24751.17
536.72	24657.54
536.89	24390.72
537.06	24381.36
537.23	24584.99
537.40	24755.85
537.57	24748.82
537.74	25008.62
537.91	24744.14
538.08	24760.53
538.25	24872.87
538.42	24945.43
538.59	24851.81
538.75	25048.41
538.92	24753.51
539.09	24858.83
539.26	25165.44
539.43	25516.52
539.60	24900.96
539.77	25146.72
539.94	25240.34
540.11	25252.04
540.28	25125.65
540.44	25568.01
540.61	25041.39
540.78	24819.04
540.95	25345.66
541.12	25216.93
541.29	25582.06
541.46	25724.83
541.62	25149.06
541.79	25359.70
541.96	24961.81
542.13	25186.50
542.30	25582.06
542.47	25535.24
542.63	25509.50
542.80	25626.53
542.97	26012.71
543.14	26258.47
543.31	25823.13
543.48	25663.97
543.64	26197.62
543.81	25928.45
543.98	26125.06
544.15	25937.82
544.32	25982.29
544.48	26359.11
544.65	25972.92
544.82	26263.15
544.99	25823.13
545.16	26345.07
545.32	25752.91
545.49	26501.89
545.66	26349.75
545.83	26319.32
546.00	26635.30
546.16	26075.91
546.33	26092.29
546.50	26096.97
546.67	26389.54
546.83	26080.59
547.00	26536.99
547.17	26204.64
547.34	26139.10
547.50	26738.28
547.67	26820.20
547.84	26607.21
548.00	26955.95
548.17	26892.76
548.34	26544.02
548.51	26979.36
548.67	26979.36
548.84	27197.02
549.01	26899.78
549.18	26553.38
549.34	26808.50
549.51	26529.97
549.68	26518.27
549.84	26548.70
550.01	27157.24
550.18	26836.58
550.34	26862.33
550.51	27508.32
550.68	26906.80
550.84	26911.48
551.01	26953.61
551.18	26904.46
551.34	27051.91
551.51	27164.26
551.68	27426.40
551.84	27300.01
552.01	27321.07
552.18	27339.80
552.34	26984.04
552.51	27510.66
552.68	27505.98
552.84	27318.73
553.01	27290.65
553.18	27363.20
553.34	27559.81
553.51	27339.80
553.67	27585.55
553.84	27559.81
554.01	27447.46
554.17	27742.37
554.34	27562.15
554.51	27304.69
554.67	27468.53
554.84	27445.12
555.00	27871.10
555.17	27721.30
555.33	27861.74
555.50	27681.52
555.67	27810.25
555.83	27529.38
556.00	27693.22
556.16	27850.03
556.33	27772.80
556.50	27885.14
556.66	27938.97
556.83	27662.79
556.99	28306.44
557.16	28109.83
557.32	28154.30
557.49	27941.32
557.65	27686.20
557.82	28020.89
557.98	27929.61
558.15	27725.99
558.32	28205.80
558.48	28016.21
558.65	28271.33
558.81	28222.18
558.98	28390.70
559.14	27772.80
559.31	28276.01
559.47	28074.73
559.64	28503.04
559.80	28297.08
559.97	28425.81
560.13	28034.94
560.30	28201.11
560.46	28336.87
560.63	28004.51
560.79	28016.21
560.96	28376.66
561.12	28161.33
561.29	28421.13
561.45	28142.60
561.61	28107.49
561.78	28580.28
561.94	28350.91
562.11	28519.43
562.27	28327.50
562.44	28348.57
562.60	28603.69
562.77	28250.27
562.93	28048.98
563.10	28364.95
563.26	28301.76
563.42	28868.17
563.59	28418.78
563.75	28418.78
563.92	28533.47
564.08	28301.76
564.24	28367.29
564.41	28158.99
564.57	28336.87
564.74	28617.73
564.90	28280.69
565.07	28877.53
565.23	28706.67
565.39	28795.61
565.56	28589.64
565.72	28690.29
565.88	28884.55
566.05	28301.76
566.21	28577.94
566.38	28987.53
566.54	28535.81
566.70	29067.11
566.87	29057.75
567.03	28905.62
567.19	29067.11
567.36	28809.65
567.52	28994.56
567.68	28994.56
567.85	28891.57
568.01	28786.25
568.17	28783.91
568.34	28746.46
568.50	28811.99
568.66	28690.29
568.83	28814.34
568.99	28907.96
569.15	28889.23
569.32	28900.94
569.48	28723.05
569.64	28966.47
569.81	29013.28
569.97	28840.08
570.13	29362.02
570.30	28505.38
570.46	28746.46
570.62	29039.03
570.78	28851.78
570.95	28587.30
571.11	28875.19
571.27	28858.81
571.43	28723.05
571.60	28823.70
571.76	28837.74
571.92	28994.56
572.09	29378.40
572.25	29123.29
572.41	29397.13
572.57	29088.18
572.74	29177.12
572.90	29092.86
573.06	28790.93
573.22	28966.47
573.38	29156.05
573.55	28896.25
573.71	29226.27
573.87	29118.60
574.03	29027.32
574.20	29064.77
574.36	29055.41
574.52	29127.97
574.68	28758.16
574.84	29352.66
575.01	29010.94
575.17	29198.18
575.33	29022.64
575.49	29109.24
575.65	29383.09
575.82	29195.84
575.98	29127.97
576.14	29041.37
576.30	29455.64
576.46	29212.23
576.62	29069.45
576.79	29050.73
576.95	29406.49
577.11	29291.80
577.27	29006.26
577.43	29317.55
577.59	29078.82
577.75	29212.23
577.92	28620.07
578.08	29261.38
578.24	28783.91
578.40	29457.98
578.56	29186.48
578.72	28994.56
578.88	29443.94
579.04	29160.73
579.21	29584.37
579.37	29134.99
579.53	29064.77
579.69	28936.04
579.85	29167.76
580.01	29151.37
580.17	29172.44
580.33	28964.13
580.49	29333.93
580.65	29408.83
580.82	29074.13
580.98	29490.75
581.14	28971.15
581.30	29373.72
581.46	29420.53
581.62	29546.92
581.78	29027.32
581.94	28954.77
582.10	29259.04
582.26	29560.97
582.42	29256.70
582.58	29507.13
582.74	29287.12
582.90	29427.56
583.06	29305.85
583.22	29436.92
583.38	29764.59
583.54	28739.44
583.70	29462.66
583.86	29457.98
584.02	29167.76
584.18	29460.32
584.34	29663.95
584.50	29371.38
584.66	29181.80
584.82	29439.26
584.98	29420.53
585.14	29207.55
585.30	29408.83
585.46	29350.32
585.62	28898.59
585.78	29649.91
585.94	29149.03
586.10	29373.72
586.26	29685.01
586.42	29591.39
586.58	29788.00
586.74	29095.20
586.90	29240.31
587.06	29247.33
587.22	29191.16
587.38	29074.13
587.54	29722.46
587.70	29565.65
587.86	29504.79
588.02	29509.47
588.18	29694.38
588.34	29565.65
588.49	29427.56
588.65	29165.42
588.81	29439.26
588.97	29516.50
589.13	29256.70
589.29	29399.47
589.45	29589.05
589.61	29560.97
589.77	29731.83
589.93	29905.02
590.08	29624.16
590.24	29869.92
590.40	29575.01
590.56	29619.48
590.72	29638.20
590.88	29453.30
591.04	29553.94
591.20	29776.30
591.35	29961.20
591.51	30155.46
591.67	29912.05
591.83	29811.40
591.99	29776.30
592.15	29626.50
592.31	29909.71
592.46	29469.69
592.62	29860.55
592.78	29347.98
592.94	30174.19
593.10	29813.74
593.26	29769.27
593.41	29738.85
593.57	29720.12
593.73	29776.30
593.89	30225.68
594.05	29951.84
594.20	29951.84
594.36	29668.63
594.52	29614.80
594.68	29572.67
594.84	29441.60
594.99	29867.58
595.15	29745.87
595.31	29970.56
595.47	29659.27
595.62	30291.21
595.78	30143.76
595.94	29919.07
596.10	30054.82
596.25	29916.73
596.41	29928.43
596.57	29502.45
596.73	30171.85
596.88	29881.62
597.04	29799.70
597.20	30169.51
597.36	30150.78
597.51	30316.96
597.67	30089.93
597.83	29797.36
597.99	30160.14
598.14	29832.47
598.30	30054.82
598.46	29881.62
598.61	30211.64
598.77	30167.16
598.93	30221.00
599.09	29706.08
599.24	30410.58
599.40	29909.71
599.56	30345.05
599.71	29951.84
599.87	29757.57
600.03	29848.85
600.18	29865.24
600.34	30211.64
600.50	29905.02
600.65	29949.50
600.81	30050.14
600.97	29951.84
601.12	30455.05
601.28	30078.22
601.44	29888.64
601.59	30110.99
601.75	30019.71
601.91	30127.38
602.06	29738.85
602.22	29827.79
602.37	29617.14
602.53	29839.49
602.69	30260.79
602.84	29879.28
603.00	30029.07
603.16	30064.18
603.31	29778.64
603.47	29900.34
603.62	29872.26
603.78	30089.93
603.94	29666.29
604.09	30029.07
604.25	29717.78
604.40	29827.79
604.56	30183.55
604.71	30426.96
604.87	30267.81
605.03	30026.73
605.18	29647.57
605.34	30181.21
605.49	29549.26
605.65	29818.42
605.80	29607.78
605.96	29853.53
606.12	29532.88
606.27	30190.57
606.43	29642.88
606.58	29900.34
606.74	30113.33
606.89	29661.61
607.05	29795.02
607.20	30033.75
607.36	29958.86
607.51	29837.15
607.67	29184.14
607.82	29933.11
607.98	29743.53
608.13	29565.65
608.29	29724.80
608.44	29481.39
608.60	29495.43
608.75	29830.13
608.91	30120.35
609.06	29797.36
609.22	29647.57
609.37	29434.58
609.53	30022.05
609.68	29446.28
609.84	29755.23
609.99	30029.07
610.15	29720.12
610.30	29422.87
610.46	29731.83
610.61	29785.66
610.76	29621.82
610.92	29809.06
611.07	29890.98
611.23	29474.37
611.38	29546.92
611.54	29670.97
611.69	29598.41
611.84	29296.49
612.00	29228.61
612.15	29385.43
612.31	29769.27
612.46	29605.44
612.62	29743.53
612.77	29731.83
612.92	29638.20
613.08	29759.91
613.23	29305.85
613.39	29191.16
613.54	29102.22
613.69	29490.75
613.85	29301.17
614.00	28882.21
614.15	29549.26
614.31	29256.70
614.46	29589.05
614.62	29443.94
614.77	29535.22
614.92	29514.16
615.08	29387.77
615.23	29415.85
615.38	29436.92
615.54	29113.92
615.69	29017.96
615.84	28907.96
616.00	29582.03
616.15	29429.90
616.30	29104.56
616.46	29270.74
616.61	28980.51
616.76	29186.48
616.92	29174.78
617.07	29039.03
617.22	29151.37
617.37	28783.91
617.53	28999.24
617.68	29303.51
617.83	28737.10
617.99	28786.25
618.14	28870.51
618.29	28826.04
618.45	28870.51
618.60	29284.78
618.75	28994.56
618.90	28905.62
619.06	29294.14
619.21	29263.72
619.36	28765.18
619.51	28629.43
619.67	28638.80
619.82	28652.84
619.97	28627.09
620.12	28669.22
620.28	28439.85
620.43	28739.44
620.58	28907.96
620.73	28725.39
620.89	28952.43
621.04	28945.41
621.19	28816.68
621.34	28741.78
621.49	28655.18
621.65	28250.27
621.80	28720.71
621.95	28158.99
622.10	28362.61
622.25	28348.57
622.41	28701.99
622.56	28751.14
622.71	28697.31
622.86	28418.78
623.01	28751.14
623.16	28311.12
623.32	28362.61
623.47	28453.89
623.62	28233.88
623.77	28587.30
623.92	28669.22
624.07	28250.27
624.23	28341.55
624.38	28559.22
624.53	28390.70
624.68	28348.57
624.83	28755.82
624.98	28552.20
625.13	28032.60
625.29	28493.68
625.44	27941.32
625.59	28177.71
625.74	27913.23
625.89	28074.73
626.04	28018.55
626.19	27917.91
626.34	28322.82
626.49	27929.61
626.65	28060.68
626.80	28077.07
626.95	28088.77
627.10	28252.61
627.25	28439.85
627.40	27814.93
627.55	27810.25
627.70	27653.43
627.85	27868.76
628.00	27718.96
628.15	27981.10
628.30	27592.58
628.45	28210.48
628.60	27854.72
628.76	27665.13
628.91	27740.03
629.06	27789.18
629.21	27789.18
629.36	27676.83
629.51	27644.07
629.66	27466.19
629.81	27878.12
629.96	27648.75
630.11	27395.97
630.26	27615.98
630.41	27786.84
630.56	27796.20
630.71	27438.10
630.86	27714.28
631.01	27400.65
631.16	27587.89
631.31	27974.08
631.46	27283.62
631.61	27669.81
631.76	27496.61
631.91	27456.82
632.06	27023.83
632.21	27168.94
632.36	27243.84
632.51	27262.56
632.66	27651.09
632.81	27302.35
632.96	27353.84
633.10	27410.01
633.25	27702.58
633.40	27351.50
633.55	27094.04
633.70	27154.90
633.85	26923.18
634.00	27285.97
634.15	27391.29
634.30	26962.97
634.45	26953.61
634.60	27072.98
634.75	27084.68
634.90	27339.80
635.05	27063.61
635.19	27171.28
635.34	27285.97
635.49	27442.78
635.64	26986.38
635.79	26930.20
635.94	27381.93
636.09	26689.13
636.24	26878.71
636.39	27009.78
636.53	26815.52
636.68	26967.65
636.83	27077.66
636.98	26806.16
637.13	26969.99
637.28	26916.16
637.43	27119.79
637.57	26962.97
637.72	26986.38
637.87	26909.14
638.02	26448.05
638.17	26731.26
638.32	27033.19
638.46	26471.46
638.61	26455.08
638.76	26197.62
638.91	26728.92
639.06	26312.30
639.20	26471.46
639.35	26558.06
639.50	26806.16
639.65	27082.34
639.80	26546.36
639.94	26815.52
640.09	26611.89
640.24	26199.96
640.39	26536.99
640.54	26480.82
640.68	26082.93
640.83	26527.63
640.98	26352.09
641.13	26155.49
641.27	26558.06
641.42	26190.59
641.57	26274.85
641.72	26307.62
641.86	25984.63
642.01	26387.20
642.16	25921.43
642.31	25961.22
642.45	26160.17
642.60	25954.20
642.75	25989.31
642.90	26040.80
643.04	25862.92
643.19	26106.34
643.34	26141.44
643.48	26146.12
643.63	26366.13
643.78	26085.27
643.93	26010.37
644.07	26192.94
644.22	26146.12
644.37	26345.07
644.51	25977.61
644.66	26230.38
644.81	25993.99
644.95	25902.71
645.10	25715.47
645.25	26022.08
645.39	25781.00
645.54	26054.84
645.69	25820.79
645.83	25975.27
645.98	26111.02
646.13	25876.96
646.27	25792.70
646.42	25678.02
646.57	25979.95
646.71	25827.81
646.86	25535.24
647.00	25575.03
647.15	25975.27
647.30	25848.88
647.44	25600.78
647.59	25661.63
647.74	25324.60
647.88	25656.95
648.03	25781.00
648.17	26108.68
648.32	25813.77
648.47	25773.98
648.61	25577.37
648.76	25703.76
648.90	25729.51
649.05	25593.76
649.20	25340.98
649.34	25490.77
649.49	25502.48
649.63	25291.83
649.78	25345.66
649.92	25385.45
650.07	25619.50
650.21	25275.45
650.36	25575.03
650.51	25476.73
650.65	25263.74
650.80	25556.31
650.94	25575.03
651.09	24989.90
651.23	25223.95
651.38	25076.50
651.52	25298.85
651.67	25228.63
651.81	25095.22
651.96	25223.95
652.10	25223.95
652.25	25135.01
652.39	25575.03
652.54	25507.16
652.68	24999.26
652.83	25273.10
652.97	25560.99
653.12	25565.67
653.26	25209.91
653.41	25247.36
653.55	24842.45
653.70	24959.47
653.84	24938.41
653.99	24987.56
654.13	24814.36
654.27	24769.89
654.42	24884.58
654.56	24790.95
654.71	25003.94
654.85	24652.86
655.00	25015.65
655.14	24940.75
655.29	24847.13
655.43	25123.31
655.57	24933.73
655.72	24989.90
655.86	24720.74
656.01	25198.21
656.15	24847.13
656.30	24795.64
656.44	24805.00
656.58	24643.50
656.73	24556.90
656.87	24458.60
657.01	24589.67
657.16	24683.29
657.30	24704.35
657.45	24833.08
657.59	24517.11
657.73	24472.64
657.88	24353.27
658.02	24283.06
658.16	24959.47
658.31	24159.01
658.45	24521.79
658.60	24432.85
658.74	24060.71
658.88	24449.24
659.03	24287.74
659.17	24362.64
659.31	24325.19
659.46	24393.06
659.60	24283.06
659.74	24215.18
659.89	24009.22
660.03	24184.76
660.17	24456.26
660.32	23927.30
660.46	24339.23
660.60	23711.97
660.74	24390.72
660.89	23751.76
661.03	23721.33
661.17	23594.94
661.32	23807.93
661.46	24093.47
661.60	23976.45
661.74	23810.27
661.89	23517.70
662.03	23922.62
662.17	23939.00
662.31	23772.82
662.46	23608.98
662.60	23843.04
662.74	23578.56
662.88	23414.72
663.03	23321.10
663.17	23218.11
663.31	23241.52
663.45	23536.43
663.60	23246.20
663.74	23365.57
663.88	23321.10
664.02	23215.77
664.17	23569.19
664.31	23201.73
664.45	23393.65
664.59	23096.41
664.73	23250.88
664.88	23077.68
665.02	22845.97
665.16	22918.53
665.30	23662.82
665.44	22913.84
665.59	22876.40
665.73	22963.00
665.87	22347.44
666.01	23213.43
666.15	23293.01
666.29	22941.93
666.44	23021.51
666.58	22775.75
666.72	22707.88
666.86	22803.84
667.00	22668.09
667.14	22565.10
667.28	22508.93
667.43	22705.54
667.57	22637.66
667.71	22471.48
667.85	22747.67
667.99	22604.89
668.13	22480.85
668.27	22225.73
668.41	22459.78
668.56	22232.75
668.70	22530.00
668.84	22221.05
668.98	22143.81
669.12	22427.01
669.26	21930.82
669.40	22104.02
669.54	22146.15
669.68	21921.46
669.82	21972.95
669.96	21425.26
670.10	21640.59
670.25	21919.12
670.39	21919.12
670.53	22101.68
670.67	21776.34
670.81	21912.10
670.95	21907.41
671.09	22005.72
671.23	21542.29
671.37	21603.14
671.51	21750.60
671.65	21692.08
671.79	21546.97
671.93	21355.05
672.07	21448.67
672.21	21083.55
672.35	21345.69
672.49	21341.00
672.63	21146.74
672.77	21156.10
672.91	21153.76
673.05	21184.19
673.19	21046.10
673.33	21083.55
673.47	21039.08
673.61	21308.24
673.75	20950.14
673.89	21287.17
674.03	20800.34
674.17	20732.47
674.31	20809.70
674.45	20592.03
674.59	20802.68
674.73	20835.45
674.87	20659.91
675.01	20652.89
675.15	20374.36
675.29	20395.43
675.43	20402.45
675.56	20482.03
675.70	20666.93
675.84	20486.71
675.98	19695.61
676.12	20545.22
676.26	20510.11
676.40	20381.38
676.54	20205.84
676.68	20217.55
676.82	19665.18
676.96	19726.04
677.10	20042.01
677.23	19800.93
677.37	19686.25
677.51	19632.41
677.65	19609.01
677.79	19309.42
677.93	19400.70
678.07	19356.23
678.21	19227.50
678.34	19386.66
678.48	19283.67
678.62	19323.46
678.76	19126.86
678.90	19262.61
679.04	19073.03
679.18	19367.93
679.31	18979.40
679.45	18752.37
679.59	18890.46
679.73	18843.65
679.87	18876.42
680.00	18923.23
680.14	18480.87
680.28	18838.97
680.42	18633.00
680.56	18691.52
680.70	18513.64
680.83	18478.53
680.97	18597.90
681.11	18204.69
681.25	18171.92
681.39	18057.23
681.52	18019.78
681.66	18082.98
681.80	17919.14
681.94	17802.11
682.07	18066.60
682.21	17982.34
682.35	17619.55
682.49	17846.58
682.62	17528.27
682.76	17362.09
682.90	17378.48
683.04	17673.39
683.17	17572.74
683.31	17682.75
683.45	17717.86
683.59	17476.78
683.72	17493.16
683.86	17645.30
684.00	17268.47
684.13	17392.52
684.27	17252.09
684.41	16807.39
684.55	16919.73
684.68	16872.92
684.82	16788.66
684.96	16748.87
685.09	16587.38
685.23	16800.37
685.37	16739.51
685.50	16725.47
685.64	16603.76
685.78	16519.50
685.91	16498.44
686.05	16709.08
686.19	16322.90
686.32	16358.00
686.46	16407.16
686.60	16313.53
686.73	16325.24
686.87	15969.48
687.01	16149.70
687.14	16030.33
687.28	15887.56
687.42	15777.55
687.55	15709.68
687.69	15690.95
687.82	15936.71
687.96	15583.29
688.10	15733.08
688.23	15733.08
688.37	15749.46
688.50	15524.77
688.64	15424.13
688.78	15321.15
688.91	15407.75
689.05	15080.07
689.18	15136.24
689.32	15023.90
689.46	14878.79
689.59	15384.34
689.73	15225.18
689.86	14984.11
690.00	15023.90
690.13	14876.44
690.27	14890.49
690.41	14752.40
690.54	14998.15
690.68	14731.33
690.81	14558.13
690.95	14555.79
691.08	14602.60
691.22	14771.12
691.35	14298.33
691.49	14340.46
691.62	14197.69
691.76	14380.25
691.89	14459.83
692.03	14324.08
692.16	14164.92
692.30	14010.45
692.43	13881.72
692.57	13774.05
692.70	14019.81
692.84	13832.57
692.97	13900.44
693.11	13867.67
693.24	13862.99
693.38	13422.97
693.51	13568.09
693.65	13554.04
693.78	13570.43
693.92	13582.13
694.05	13373.82
694.19	13394.89
694.32	13287.22
694.45	13308.29
694.59	13085.94
694.72	13240.41
694.86	13085.94
694.99	12943.16
695.13	13125.72
695.26	12987.63
695.39	12898.69
695.53	13055.51
695.66	12989.97
695.80	12652.94
695.93	12779.32
696.07	12779.32
696.20	12540.59
696.33	12929.12
696.47	12613.15
696.60	12358.03
696.73	12449.31
696.87	12269.09
697.00	12154.40
697.14	12278.45
697.27	11929.71
697.40	12095.89
697.54	12126.32
697.67	12037.38
697.80	11889.92
697.94	11793.96
698.07	12063.12
698.21	12020.99
698.34	11618.42
698.47	11943.75
698.61	11770.55
698.74	11934.39
698.87	11606.72
699.01	11688.64
699.14	11557.57
699.27	11470.97
699.40	11517.78
699.54	11454.58
699.67	11564.59
699.80	11220.53
699.94	11393.73
700.07	11150.31
700.20	11087.12
700.34	11040.31
700.47	10965.41
700.60	11070.73
700.73	10963.07
700.87	10972.43
701.00	10855.40
701.13	10942.00
701.26	10923.28
701.40	11126.91
701.53	10874.13
701.66	10787.53
701.79	10817.96
701.93	10789.87
702.06	10450.49
702.19	10422.41
702.32	10450.49
702.46	10476.24
702.59	10097.07
702.72	10263.25
702.85	10178.99
702.99	10326.44
703.12	10073.67
703.25	9912.17
703.38	9973.02
703.51	10171.97
703.65	10031.54
703.78	9902.81
703.91	10050.26
704.04	9797.48
704.17	10001.11
704.31	9734.29
704.44	9745.99
704.57	9593.86
704.70	9549.39
704.83	9423.00
704.96	9521.30
705.10	9488.53
705.23	9277.88
>>>>>End Processed Spectral Data<<<<<
