SpectraSuite Data File
++++++++++++++++++++++++++++++++++++
Date: Fri Oct 18 13:58:16 GMT-05:00 2013
User: bianchi
Dark Spectrum Present: No
Reference Spectrum Present: No
Number of Sampled Component Spectra: 1
Spectrometers: USB2+H05261
Integration Time (usec): 50000 (USB2+H05261)
Spectra Averaged: 1 (USB2+H05261)
Boxcar Smoothing: 0 (USB2+H05261)
Correct for Electrical Dark: No (USB2+H05261)
Strobe/Lamp Enabled: No (USB2+H05261)
Correct for Detector Non-linearity: No (USB2+H05261)
Correct for Stray Light: No (USB2+H05261)
Number of Pixels in Processed Spectrum: 2048
>>>>>Begin Processed Spectral Data<<<<<
365.73	0.00
365.92	0.00
366.12	0.00
366.32	0.00
366.52	0.00
366.72	0.00
366.91	0.00
367.11	0.00
367.31	0.00
367.51	0.00
367.70	0.00
367.90	0.00
368.10	0.00
368.30	0.00
368.49	0.00
368.69	0.00
368.89	0.00
369.09	0.00
369.28	0.00
369.48	0.00
369.68	0.00
369.87	0.00
370.07	0.00
370.27	0.00
370.47	35.11
370.66	79.58
370.86	102.98
371.06	131.07
371.25	102.98
371.45	156.82
371.65	163.84
371.84	196.60
372.04	173.20
372.24	133.41
372.44	149.79
372.63	304.27
372.83	175.54
373.03	163.84
373.22	217.67
373.42	271.50
373.62	224.69
373.81	198.95
374.01	257.46
374.21	299.59
374.40	212.99
374.60	205.97
374.79	241.08
374.99	187.24
375.19	283.20
375.38	292.57
375.58	215.33
375.78	198.95
375.97	217.67
376.17	311.29
376.37	236.39
376.56	262.14
376.76	234.05
376.95	229.37
377.15	285.55
377.35	224.69
377.54	259.80
377.74	278.52
377.93	266.82
378.13	248.10
378.33	311.29
378.52	290.23
378.72	299.59
378.91	325.33
379.11	276.18
379.31	271.50
379.50	290.23
379.70	315.97
379.89	287.89
380.09	294.91
380.28	311.29
380.48	344.06
380.68	318.31
380.87	294.91
381.07	301.93
381.26	280.86
381.46	283.20
381.65	395.55
381.85	304.27
382.04	224.69
382.24	337.04
382.43	344.06
382.63	346.40
382.83	400.23
383.02	299.59
383.22	374.49
383.41	397.89
383.61	339.38
383.80	367.46
384.00	369.80
384.19	376.83
384.39	365.12
384.58	266.82
384.78	313.63
384.97	334.70
385.17	330.02
385.36	372.15
385.56	374.49
385.75	301.93
385.95	449.38
386.14	362.78
386.34	479.81
386.53	418.96
386.72	423.64
386.92	390.87
387.11	358.10
387.31	430.66
387.50	393.21
387.70	421.30
387.89	409.59
388.09	409.59
388.28	428.32
388.48	416.62
388.67	425.98
388.86	383.85
389.06	482.15
389.25	435.34
389.45	482.15
389.64	500.87
389.84	379.17
390.03	386.19
390.22	454.06
390.42	496.19
390.61	493.85
390.81	493.85
391.00	557.05
391.19	547.69
391.39	514.92
391.58	507.90
391.78	461.09
391.97	479.81
392.16	517.26
392.36	482.15
392.55	498.53
392.75	526.62
392.94	568.75
393.13	531.30
393.33	526.62
393.52	571.09
393.71	500.87
393.91	550.03
394.10	594.50
394.29	594.50
394.49	486.83
394.68	631.94
394.88	589.82
395.07	636.63
395.26	660.03
395.46	657.69
395.65	561.73
395.84	608.54
396.04	713.86
396.23	695.14
396.42	566.41
396.62	699.82
396.81	676.41
397.00	692.80
397.19	699.82
397.39	650.67
397.58	702.16
397.77	636.63
397.97	697.48
398.16	681.10
398.35	704.50
398.55	685.78
398.74	704.50
398.93	730.25
399.12	730.25
399.32	664.71
399.51	702.16
399.70	781.74
399.90	835.57
400.09	720.88
400.28	692.80
400.47	657.69
400.67	791.10
400.86	772.38
401.05	753.65
401.24	816.85
401.44	821.53
401.63	777.06
401.82	819.19
402.01	713.86
402.21	856.64
402.40	812.17
402.59	901.11
402.78	849.61
402.97	821.53
403.17	840.25
403.36	802.80
403.55	866.00
403.74	931.53
403.93	961.96
404.13	847.27
404.32	847.27
404.51	760.67
404.70	884.72
404.89	877.70
405.09	882.38
405.28	922.17
405.47	964.30
405.66	940.90
405.85	954.94
406.05	908.13
406.24	997.07
406.43	1008.77
406.62	919.83
406.81	990.05
407.00	1008.77
407.20	1034.52
407.39	1029.84
407.58	1043.88
407.77	1027.50
407.96	1057.92
408.15	1039.20
408.34	1069.62
408.54	1090.69
408.73	1081.33
408.92	1156.22
409.11	1137.50
409.30	1156.22
409.49	1069.62
409.68	1090.69
409.87	1114.10
410.07	1181.97
410.26	1181.97
410.45	1210.06
410.64	1146.86
410.83	1247.51
411.02	1156.22
411.21	1132.82
411.40	1217.08
411.59	1177.29
411.78	1118.78
411.98	1270.91
412.17	1280.27
412.36	1203.04
412.55	1294.32
412.74	1306.02
412.93	1380.92
413.12	1329.42
413.31	1441.77
413.50	1336.45
413.69	1341.13
413.88	1327.08
414.07	1404.32
414.26	1495.60
414.45	1474.54
414.64	1528.37
414.83	1437.09
415.02	1600.93
415.22	1514.33
415.41	1542.41
415.60	1474.54
415.79	1507.30
415.98	1507.30
416.17	1528.37
416.36	1584.54
416.55	1504.96
416.74	1631.35
416.93	1638.38
417.12	1561.14
417.31	1659.44
417.50	1678.16
417.69	1753.06
417.88	1776.47
418.07	1694.55
418.26	1724.97
418.45	1696.89
418.64	1844.34
418.83	1795.19
419.02	1795.19
419.21	1839.66
419.39	1734.34
419.58	1811.57
419.77	1720.29
419.96	1802.21
420.15	1884.13
420.34	1792.85
420.53	1877.11
420.72	1820.94
420.91	1886.47
421.10	1963.71
421.29	1947.33
421.48	1839.66
421.67	1914.56
421.86	1984.77
422.05	2017.54
422.24	1991.80
422.43	1802.21
422.61	1928.60
422.80	1928.60
422.99	2059.67
423.18	2050.31
423.37	1956.69
423.56	2050.31
423.75	1949.67
423.94	1980.09
424.13	1844.34
424.32	1867.75
424.50	2054.99
424.69	2059.67
424.88	2118.18
425.07	1959.03
425.26	2003.50
425.45	2012.86
425.64	2036.27
425.83	2026.90
426.01	2104.14
426.20	2031.58
426.39	2031.58
426.58	2038.61
426.77	2012.86
426.96	2071.37
427.15	2106.48
427.33	2099.46
427.52	2101.80
427.71	2094.78
427.90	2108.82
428.09	2277.34
428.28	2172.02
428.46	2235.21
428.65	2232.87
428.84	2293.72
429.03	2239.89
429.22	2211.81
429.40	2190.74
429.59	2235.21
429.78	2188.40
429.97	2181.38
430.16	2183.72
430.34	2270.32
430.53	2399.05
430.72	2246.91
430.91	2270.32
431.10	2289.04
431.28	2392.03
431.47	2438.84
431.66	2314.79
431.85	2443.52
432.03	2401.39
432.22	2464.58
432.41	2532.46
432.60	2457.56
432.79	2499.69
432.97	2436.50
433.16	2612.04
433.35	2417.77
433.54	2420.11
433.72	2537.14
433.91	2417.77
434.10	2581.61
434.28	2385.01
434.47	2555.86
434.66	2567.57
434.85	2607.36
435.03	2574.59
435.22	2579.27
435.41	2614.38
435.59	2644.81
435.78	2712.68
435.97	2661.19
436.16	2679.91
436.34	2520.76
436.53	2703.32
436.72	2796.94
436.90	2747.79
437.09	2810.98
437.28	2607.36
437.46	2761.83
437.65	2808.64
437.84	2789.92
438.02	2785.24
438.21	2806.30
438.40	2696.30
438.58	2888.22
438.77	2871.84
438.96	2883.54
439.14	2785.24
439.33	2874.18
439.52	3061.42
439.70	3033.33
439.89	2867.16
440.08	3047.38
440.26	3117.59
440.45	3052.06
440.63	3045.04
440.82	3028.65
441.01	3070.78
441.19	3077.80
441.38	3255.69
441.57	3180.79
441.75	3187.81
441.94	3281.43
442.12	3337.60
442.31	3382.07
442.50	3169.09
442.68	3229.94
442.87	3300.16
443.05	3410.16
443.24	3412.50
443.43	3351.65
443.61	3372.71
443.80	3506.12
443.98	3239.30
444.17	3220.58
444.35	3468.67
444.54	3463.99
444.73	3468.67
444.91	3482.72
445.10	3314.20
445.28	3527.19
445.47	3452.29
445.65	3417.18
445.84	3463.99
446.02	3459.31
446.21	3447.61
446.39	3440.59
446.58	3368.03
446.77	3398.46
446.95	3501.44
447.14	3442.93
447.32	3485.06
447.51	3391.44
447.69	3571.66
447.88	3485.06
448.06	3611.45
448.25	3506.12
448.43	3529.53
448.62	3531.87
448.80	3592.72
448.99	3522.51
449.17	3662.94
449.36	3599.74
449.54	3648.90
449.73	3782.31
449.91	3613.79
450.10	3812.73
450.28	3667.62
450.46	3765.92
450.65	3691.02
450.83	3765.92
451.02	3779.97
451.20	3747.20
451.39	3695.71
451.57	3721.45
451.76	3815.07
451.94	3719.11
452.13	3864.22
452.31	3880.61
452.49	3695.71
452.68	3904.01
452.86	3873.59
453.05	3875.93
453.23	3950.82
453.42	3936.78
453.60	3754.22
453.78	3943.80
453.97	3859.54
454.15	3932.10
454.34	3971.89
454.52	4035.08
454.70	3908.69
454.89	4046.79
455.07	4056.15
455.26	3974.23
455.44	4191.90
455.62	4102.96
455.81	4009.34
455.99	4121.68
456.17	4112.32
456.36	4058.49
456.54	4285.52
456.73	4124.02
456.91	4245.73
457.09	4191.90
457.28	4346.37
457.46	4376.80
457.64	4360.42
457.83	4273.82
458.01	4341.69
458.19	4571.07
458.38	4362.76
458.56	4505.53
458.74	4496.17
458.93	4432.97
459.11	4524.26
459.29	4381.48
459.48	4533.62
459.66	4451.70
459.84	4484.47
460.03	4535.96
460.21	4587.45
460.39	4493.83
460.57	4510.21
460.76	4716.18
460.94	4620.22
461.12	4589.79
461.31	4505.53
461.49	4535.96
461.67	4465.74
461.85	4681.07
462.04	4765.33
462.22	4912.78
462.40	4929.17
462.59	4718.52
462.77	4847.25
462.95	4671.71
463.13	4760.65
463.32	4720.86
463.50	4858.95
463.68	4798.10
463.86	4868.31
464.05	4809.80
464.23	4713.84
464.41	4809.80
464.59	4641.28
464.78	4983.00
464.96	4873.00
465.14	4903.42
465.32	4959.60
465.50	5060.24
465.69	4828.53
465.87	4877.68
466.05	4901.08
466.23	4889.38
466.41	4971.30
466.60	5193.65
466.78	5020.45
466.96	5123.43
467.14	5100.03
467.32	5064.92
467.51	5308.34
467.69	5060.24
467.87	5167.90
468.05	5156.20
468.23	5144.50
468.41	5170.24
468.60	5430.04
468.78	5170.24
468.96	5177.26
469.14	5184.29
469.32	5156.20
469.50	5203.01
469.69	5261.52
469.87	5490.90
470.05	5420.68
470.23	5462.81
470.41	5341.10
470.59	5404.30
470.77	5598.56
470.95	5511.96
471.14	5572.82
471.32	5507.28
471.50	5528.35
471.68	5451.11
471.86	5799.85
472.04	5563.45
472.22	5738.99
472.40	5762.40
472.58	5788.14
472.77	5748.36
472.95	5748.36
473.13	5949.64
473.31	5778.78
473.49	5713.25
473.67	5830.27
473.85	5806.87
474.03	5902.83
474.21	5849.00
474.39	6008.16
474.57	6235.19
474.75	6200.08
474.93	6139.23
475.12	6246.89
475.30	6188.38
475.48	6057.31
475.66	6291.36
475.84	6328.81
476.02	6312.42
476.20	6399.02
476.38	6445.84
476.56	6532.44
476.74	6509.03
476.92	6614.35
477.10	6420.09
477.28	6541.80
477.46	6612.01
477.64	6654.14
477.82	6853.09
478.00	7042.67
478.18	6972.46
478.36	6960.75
478.54	6965.43
478.72	6995.86
478.90	7119.91
479.08	7091.82
479.26	7143.32
479.44	7229.91
479.62	7375.03
479.80	7405.46
479.98	7234.60
480.16	7581.00
480.34	7417.16
480.52	7660.57
480.70	7538.87
480.88	7595.04
481.06	7637.17
481.24	7604.40
481.41	7726.11
481.59	7922.71
481.77	8030.38
481.95	8030.38
482.13	8210.60
482.31	8287.84
482.49	8360.39
482.67	8142.72
482.85	8442.31
483.03	8313.58
483.21	8439.97
483.39	8748.92
483.57	8606.15
483.74	8535.93
483.92	8599.13
484.10	8493.80
484.28	8800.41
484.46	9039.15
484.64	9179.58
484.82	9020.42
485.00	8938.51
485.18	9240.44
485.35	9486.19
485.53	9247.46
485.71	9432.36
485.89	9500.23
486.07	9832.59
486.25	9565.77
486.43	9635.99
486.61	9860.68
486.78	9928.55
486.96	9767.06
487.14	10122.82
487.32	10108.77
487.50	10207.08
487.68	10059.62
487.85	10413.04
488.03	10485.60
488.21	10656.46
488.39	10499.64
488.57	10427.09
488.75	10501.98
488.92	10927.96
489.10	11056.69
489.28	10862.43
489.46	11138.61
489.64	11201.80
489.81	11164.36
489.99	11183.08
490.17	11274.36
490.35	11339.90
490.53	11325.85
490.70	11693.32
490.88	11641.82
491.06	11742.47
491.24	11800.98
491.41	11786.94
491.59	11929.71
491.77	11941.41
491.95	12016.31
492.13	12205.89
492.30	12269.09
492.48	12271.43
492.66	12086.53
492.84	12444.63
493.01	12493.78
493.19	12489.10
493.37	12720.81
493.54	12788.69
493.72	12526.55
493.90	12896.35
494.08	13034.44
494.25	12961.89
494.43	13062.53
494.61	13296.58
494.79	13397.23
494.96	13364.46
495.14	13429.99
495.32	13334.03
495.49	13523.62
495.67	13762.35
495.85	13788.10
496.02	13586.81
496.20	13872.36
496.38	13921.51
496.55	13944.91
496.73	14143.86
496.91	13802.14
497.09	14345.14
497.26	14265.57
497.44	14263.22
497.62	14176.62
497.79	14581.54
497.97	14483.24
498.14	14607.28
498.32	14719.63
498.50	14801.55
498.67	15009.86
498.85	14574.52
499.03	14944.32
499.20	15119.86
499.38	15243.91
499.56	14972.41
499.73	15503.71
499.91	15426.47
500.08	15398.38
500.26	15529.45
500.44	15545.84
500.61	15405.41
500.79	15496.69
500.97	15426.47
501.14	15611.37
501.32	16112.25
501.49	15761.17
501.67	15590.31
501.84	16042.03
502.02	15934.37
502.20	16018.63
502.37	15934.37
502.55	15960.11
502.72	16248.00
502.90	16184.80
503.07	15985.86
503.25	16397.79
503.43	16030.33
503.60	16535.88
503.78	16460.99
503.95	16397.79
504.13	16655.25
504.30	16521.84
504.48	16716.11
504.65	16809.73
504.83	16716.11
505.01	16851.86
505.18	16805.05
505.36	17018.04
505.53	17099.95
505.71	17076.55
505.88	17207.62
506.06	17128.04
506.23	17233.36
506.41	17123.36
506.58	17715.51
506.76	17184.21
506.93	17453.37
507.11	17446.35
507.28	17252.09
507.46	17465.08
507.63	17640.62
507.81	17638.28
507.98	17647.64
508.16	17944.89
508.33	17666.36
508.50	17366.78
508.68	17872.33
508.85	18054.89
509.03	18171.92
509.20	18171.92
509.38	18412.99
509.55	18508.96
509.73	18202.35
509.90	18494.91
510.08	18324.05
510.25	18462.15
510.42	18609.60
510.60	18604.92
510.77	18916.21
510.95	18710.24
511.12	18558.11
511.30	18686.84
511.47	18291.29
511.64	18909.19
511.82	19274.31
511.99	18932.59
512.17	18960.68
512.34	19058.98
512.51	19250.91
512.69	19204.10
512.86	19164.31
513.04	19398.36
513.21	19328.14
513.38	19330.48
513.56	19253.25
513.73	19255.59
513.90	19639.44
514.08	19410.06
514.25	19449.85
514.43	19566.88
514.60	19711.99
514.77	19873.49
514.95	20154.35
515.12	19709.65
515.29	19929.66
515.47	19829.02
515.64	20114.56
515.81	19793.91
515.99	20093.50
516.16	20212.87
516.33	20313.51
516.51	20507.77
516.68	20168.40
516.85	19899.23
517.03	20346.28
517.20	20383.73
517.37	20285.42
517.54	20685.65
517.72	20472.67
517.89	20299.47
518.06	20559.27
518.24	20425.86
518.41	20671.61
518.58	20538.20
518.75	20746.51
518.93	21125.68
519.10	20725.44
519.27	20798.00
519.45	20856.51
519.62	20879.92
519.79	20966.52
519.96	20891.62
520.14	21301.22
520.31	21364.41
520.48	21474.42
520.65	21050.78
520.83	21511.86
521.00	21507.18
521.17	21539.95
521.34	21563.36
521.52	21177.17
521.69	21373.77
521.86	22064.23
522.03	21418.24
522.20	21453.35
522.38	21776.34
522.55	21748.26
522.72	21738.90
522.89	21706.13
523.07	22410.63
523.24	22092.32
523.41	22361.48
523.58	21919.12
523.75	22050.19
523.92	21771.66
524.10	22321.69
524.27	22094.66
524.44	22429.35
524.61	22258.49
524.78	22417.65
524.96	22703.20
525.13	22478.50
525.30	22558.08
525.47	22778.09
525.64	22611.92
525.81	22719.58
525.98	22860.01
526.16	22754.69
526.33	22682.13
526.50	22710.22
526.67	22764.05
526.84	23087.04
527.01	22541.70
527.18	22801.50
527.36	23250.88
527.53	23381.95
527.70	23105.77
527.87	23410.04
528.04	23255.56
528.21	23197.05
528.38	23180.67
528.55	23157.26
528.72	23419.40
528.89	23239.18
529.07	23185.35
529.24	23276.63
529.41	23269.61
529.58	23274.29
529.75	23271.95
529.92	23351.52
530.09	23627.71
530.26	23772.82
530.43	23510.68
530.60	23260.24
530.77	23812.61
530.94	23337.48
531.11	23419.40
531.28	23597.28
531.46	23791.55
531.63	23770.48
531.80	23971.77
531.97	24006.87
532.14	24269.01
532.31	24051.34
532.48	23969.43
532.65	24313.48
532.82	23604.30
532.99	23985.81
533.16	23950.70
533.33	23981.13
533.50	24348.59
533.67	24451.58
533.84	24250.29
534.01	24149.65
534.18	24254.97
534.35	24589.67
534.52	24613.07
534.69	24968.84
534.86	24482.00
535.03	24538.18
535.20	24687.97
535.37	24699.67
535.54	24524.13
535.71	24538.18
535.88	24458.60
536.05	24781.59
536.22	25078.84
536.38	24940.75
536.55	24915.00
536.72	25350.34
536.89	24669.25
537.06	24744.14
537.23	25216.93
537.40	24805.00
537.57	24753.51
537.74	25062.46
537.91	24952.45
538.08	25277.79
538.25	25083.52
538.42	25088.20
538.59	25245.02
538.75	24725.42
538.92	25209.91
539.09	25486.09
539.26	25422.90
539.43	25502.48
539.60	25465.03
539.77	25357.36
539.94	25441.62
540.11	25500.14
540.28	25439.28
540.44	25542.27
540.61	25542.27
540.78	25511.84
540.95	26005.69
541.12	25694.40
541.29	25708.44
541.46	25771.64
541.62	25776.32
541.79	25663.97
541.96	25500.14
542.13	25516.52
542.30	25926.11
542.47	25804.41
542.63	25912.07
542.80	26085.27
542.97	26258.47
543.14	26441.03
543.31	26127.40
543.48	26277.19
543.64	26511.25
543.81	26654.02
543.98	26698.49
544.15	26581.46
544.32	26485.50
544.48	26527.63
544.65	26176.55
544.82	26703.17
544.99	26368.48
545.16	26529.97
545.32	26324.01
545.49	26787.43
545.66	26766.37
545.83	26883.39
546.00	26607.21
546.16	26827.22
546.33	26335.71
546.50	26658.70
546.67	26733.60
546.83	26934.88
547.00	26862.33
547.17	26649.34
547.34	27164.26
547.50	26747.64
547.67	27590.24
547.84	27131.49
548.00	27274.26
548.17	27250.86
548.34	27190.00
548.51	27290.65
548.67	27566.83
548.84	27157.24
549.01	27358.52
549.18	26803.82
549.34	27068.30
549.51	27201.71
549.68	27133.83
549.84	27274.26
550.01	27201.71
550.18	27328.10
550.34	27761.09
550.51	27728.33
550.68	27421.72
550.84	27470.87
551.01	27431.08
551.18	27454.48
551.34	27410.01
551.51	27349.16
551.68	27400.65
551.84	27623.00
552.01	27400.65
552.18	27880.46
552.34	27775.14
552.51	27674.49
552.68	27522.36
552.84	27527.04
553.01	27908.55
553.18	27725.99
553.34	27508.32
553.51	27702.58
553.67	27655.77
553.84	28189.41
554.01	28102.81
554.17	28212.82
554.34	28133.24
554.51	28074.73
554.67	28023.23
554.84	27866.42
555.00	28109.83
555.17	28027.92
555.33	28046.64
555.50	28119.20
555.67	27974.08
555.83	28163.67
556.00	27789.18
556.16	28573.26
556.33	28313.46
556.50	28336.87
556.66	28210.48
556.83	28739.44
556.99	28591.98
557.16	28828.38
557.32	28367.29
557.49	28371.97
557.65	28325.16
557.82	28528.79
557.98	28531.13
558.15	28591.98
558.32	28519.43
558.48	28360.27
558.65	28936.04
558.81	28243.24
558.98	28404.74
559.14	28603.69
559.31	28683.27
559.47	28591.98
559.64	28680.92
559.80	28425.81
559.97	28776.89
560.13	28584.96
560.30	28709.01
560.46	28556.88
560.63	29092.86
560.79	28634.11
560.96	28875.19
561.12	28760.50
561.29	28872.85
561.45	28610.71
561.61	28847.10
561.78	28985.19
561.94	29097.54
562.11	28964.13
562.27	28842.42
562.44	28807.31
562.60	28802.63
562.77	28922.00
562.93	28793.27
563.10	29060.09
563.26	29092.86
563.42	29010.94
563.59	29013.28
563.75	28973.49
563.92	29303.51
564.08	28699.65
564.24	28943.06
564.41	28886.89
564.57	28856.46
564.74	29120.95
564.90	29144.35
565.07	29284.78
565.23	28865.83
565.39	29106.90
565.56	29324.57
565.72	28875.19
565.88	28903.28
566.05	28711.35
566.21	29095.20
566.38	29156.05
566.54	29336.27
566.70	29481.39
566.87	29715.44
567.03	29252.02
567.19	29633.52
567.36	29333.93
567.52	29076.48
567.68	29319.89
567.85	28994.56
568.01	29198.18
568.17	29331.59
568.34	29472.03
568.50	29069.45
568.66	29621.82
568.83	29682.67
568.99	29577.35
569.15	29008.60
569.32	29244.99
569.48	29329.25
569.64	29380.74
569.81	29764.59
569.97	29441.60
570.13	29738.85
570.30	29439.26
570.46	29429.90
570.62	29390.11
570.78	29240.31
570.95	29422.87
571.11	29055.41
571.27	29200.52
571.43	29294.14
571.60	29226.27
571.76	29338.62
571.92	29280.10
572.09	29905.02
572.25	29635.86
572.41	29472.03
572.57	29462.66
572.74	29642.88
572.90	29226.27
573.06	29656.93
573.22	29802.04
573.38	29462.66
573.55	29287.12
573.71	29972.90
573.87	29617.14
574.03	29806.72
574.20	29809.06
574.36	29572.67
574.52	29481.39
574.68	29387.77
574.84	29593.73
575.01	29465.00
575.17	29530.54
575.33	29642.88
575.49	29769.27
575.65	29378.40
575.82	29383.09
575.98	29848.85
576.14	29776.30
576.30	29298.83
576.46	29537.56
576.62	29603.10
576.79	29516.50
576.95	29200.52
577.11	29635.86
577.27	29670.97
577.43	29834.81
577.59	29806.72
577.75	29715.44
577.92	29223.93
578.08	29355.00
578.24	29266.06
578.40	29558.63
578.56	29769.27
578.72	30029.07
578.88	30129.72
579.04	30045.46
579.21	29769.27
579.37	29905.02
579.53	29607.78
579.69	29626.50
579.85	29556.28
580.01	29816.08
580.17	29476.71
580.33	29577.35
580.49	29617.14
580.65	29848.85
580.82	30008.01
580.98	29902.68
581.14	30015.03
581.30	29738.85
581.46	29584.37
581.62	29694.38
581.78	29516.50
581.94	29474.37
582.10	29570.33
582.26	29865.24
582.42	29827.79
582.58	29855.87
582.74	29893.32
582.90	29837.15
583.06	29448.62
583.22	29715.44
583.38	29890.98
583.54	30008.01
583.70	29638.20
583.86	29926.09
584.02	29617.14
584.18	30033.75
584.34	30031.41
584.50	30148.44
584.66	30101.63
584.82	29649.91
584.98	29867.58
585.14	29996.31
585.30	29593.73
585.46	29603.10
585.62	29158.39
585.78	29912.05
585.94	29717.78
586.10	29806.72
586.26	30157.80
586.42	29940.13
586.58	30080.56
586.74	29687.36
586.90	29495.43
587.06	29582.03
587.22	29954.18
587.38	29668.63
587.54	30450.37
587.70	30132.06
587.86	30024.39
588.02	30431.65
588.18	30043.12
588.34	30513.56
588.49	29848.85
588.65	29853.53
588.81	29940.13
588.97	30141.42
589.13	29427.56
589.29	29837.15
589.45	30047.80
589.61	30127.38
589.77	30316.96
589.93	30277.17
590.08	30284.19
590.24	30167.16
590.40	30340.36
590.56	30574.42
590.72	30436.33
590.88	29652.25
591.04	30260.79
591.20	30429.30
591.35	30279.51
591.51	30733.57
591.67	30562.72
591.83	30724.21
591.99	30253.76
592.15	30272.49
592.31	30188.23
592.46	30122.69
592.62	30181.21
592.78	30323.98
592.94	30267.81
593.10	30096.95
593.26	30312.28
593.41	30082.91
593.57	30501.86
593.73	30319.30
593.89	30548.67
594.05	30579.10
594.20	30274.83
594.36	30316.96
594.52	29867.58
594.68	30139.08
594.84	29979.92
594.99	30480.80
595.15	30349.73
595.31	30707.83
595.47	30431.65
595.62	30272.49
595.78	29874.60
595.94	30401.22
596.10	30136.74
596.25	30213.98
596.41	30146.10
596.57	30171.85
596.73	29937.79
596.88	30422.28
597.04	30529.95
597.20	30384.83
597.36	30464.41
597.51	30661.02
597.67	30525.27
597.83	30204.61
597.99	30494.84
598.14	30384.83
598.30	30230.36
598.46	30483.14
598.61	30370.79
598.77	30361.43
598.93	30338.02
599.09	30132.06
599.24	30981.67
599.40	30859.96
599.56	30698.47
599.71	30398.88
599.87	30728.89
600.03	30298.23
600.18	30618.89
600.34	30134.40
600.50	30340.36
600.65	30422.28
600.81	30256.11
600.97	30665.70
601.12	30871.67
601.28	30651.66
601.44	30670.38
601.59	30417.60
601.75	30471.43
601.91	30476.12
602.06	30398.88
602.22	30597.82
602.37	30600.16
602.53	29937.79
602.69	30899.75
602.84	30504.20
603.00	30190.57
603.16	30501.86
603.31	30794.43
603.47	30370.79
603.62	30178.87
603.78	30473.78
603.94	30462.07
604.09	30576.76
604.25	30815.49
604.40	30326.32
604.56	30532.29
604.71	30527.61
604.87	30852.94
605.03	30740.60
605.18	30670.38
605.34	30398.88
605.49	30195.25
605.65	30719.53
605.80	30232.70
605.96	30122.69
606.12	30106.31
606.27	30450.37
606.43	30232.70
606.58	30424.62
606.74	30223.34
606.89	30661.02
607.05	30583.78
607.20	30651.66
607.36	30340.36
607.51	30693.79
607.67	29680.33
607.82	30136.74
607.98	30221.00
608.13	30349.73
608.29	30534.63
608.44	30338.02
608.60	30213.98
608.75	30602.50
608.91	30401.22
609.06	30515.90
609.22	30609.53
609.37	30031.41
609.53	30204.61
609.68	30008.01
609.84	30164.82
609.99	30033.75
610.15	30043.12
610.30	30136.74
610.46	30148.44
610.61	30394.20
610.76	30075.88
610.92	30272.49
611.07	30054.82
611.23	29935.45
611.38	30235.04
611.54	29958.86
611.69	30026.73
611.84	30272.49
612.00	29916.73
612.15	29738.85
612.31	30125.04
612.46	29780.98
612.62	30298.23
612.77	30087.59
612.92	29970.56
613.08	30235.04
613.23	29839.49
613.39	30071.20
613.54	29965.88
613.69	30000.99
613.85	30073.54
614.00	29855.87
614.15	30022.05
614.31	29764.59
614.46	30073.54
614.62	29944.81
614.77	29699.06
614.92	30064.18
615.08	29979.92
615.23	29694.38
615.38	30019.71
615.54	29640.54
615.69	29521.18
615.84	29544.58
616.00	29874.60
616.15	29486.07
616.30	29631.18
616.46	29825.45
616.61	29790.34
616.76	30047.80
616.92	29647.57
617.07	29797.36
617.22	29483.73
617.37	29364.36
617.53	29502.45
617.68	29766.93
617.83	29432.24
617.99	29504.79
618.14	29385.43
618.29	29558.63
618.45	29818.42
618.60	29617.14
618.75	29579.69
618.90	29296.49
619.06	29130.31
619.21	29532.88
619.36	29490.75
619.51	28952.43
619.67	29055.41
619.82	29355.00
619.97	29130.31
620.12	29369.04
620.28	28954.77
620.43	29404.15
620.58	29523.52
620.73	29270.74
620.89	29418.19
621.04	29301.17
621.19	29521.18
621.34	29364.36
621.49	29315.21
621.65	29287.12
621.80	29453.30
621.95	29027.32
622.10	29223.93
622.25	28980.51
622.41	28987.53
622.56	28994.56
622.71	29078.82
622.86	28975.83
623.01	29106.90
623.16	28879.87
623.32	28685.61
623.47	29209.89
623.62	28961.79
623.77	29158.39
623.92	29425.22
624.07	28868.17
624.23	28753.48
624.38	29083.50
624.53	28690.29
624.68	29195.84
624.83	28910.30
624.98	28943.06
625.13	29242.65
625.29	28863.49
625.44	28985.19
625.59	28603.69
625.74	28606.03
625.89	28706.67
626.04	28514.75
626.19	28718.37
626.34	28416.44
626.49	28559.22
626.65	28435.17
626.80	29053.07
626.95	28463.25
627.10	28264.31
627.25	28318.14
627.40	28514.75
627.55	28325.16
627.70	28184.73
627.85	28137.92
628.00	28226.86
628.15	28472.62
628.30	28210.48
628.45	28292.40
628.60	28346.23
628.76	28276.01
628.91	28411.76
629.06	28144.94
629.21	28093.45
629.36	28416.44
629.51	28158.99
629.66	28456.23
629.81	28100.47
629.96	27814.93
630.11	28109.83
630.26	28098.13
630.41	27927.27
630.56	28002.17
630.71	28252.61
630.86	28299.42
631.01	28259.63
631.16	28156.64
631.31	28268.99
631.46	28011.53
631.61	28142.60
631.76	28180.05
631.91	28079.41
632.06	27934.29
632.21	28081.75
632.36	27969.40
632.51	27372.57
632.66	27962.38
632.81	27548.11
632.96	27899.19
633.10	28081.75
633.25	27957.70
633.40	28107.49
633.55	27618.32
633.70	27786.84
633.85	27484.91
634.00	27814.93
634.15	27859.40
634.30	27442.78
634.45	27878.12
634.60	27204.05
634.75	27857.06
634.90	27398.31
635.05	27843.01
635.19	27716.62
635.34	28245.58
635.49	27648.75
635.64	27580.87
635.79	27714.28
635.94	27281.28
636.09	27660.45
636.24	27571.51
636.39	27536.40
636.53	27498.95
636.68	27157.24
636.83	27395.97
636.98	27550.45
637.13	27454.48
637.28	27779.82
637.43	27716.62
637.57	27667.47
637.72	27047.23
637.87	27529.38
638.02	27559.81
638.17	27585.55
638.32	27262.56
638.46	27129.15
638.61	26927.86
638.76	27110.43
638.91	27119.79
639.06	27239.15
639.20	27206.39
639.35	27264.90
639.50	27225.11
639.65	27388.95
639.80	27309.37
639.94	27309.37
640.09	27070.64
640.24	27264.90
640.39	26906.80
640.54	27080.00
640.68	27014.46
640.83	27019.14
640.98	26579.12
641.13	26490.18
641.27	27026.17
641.42	27147.87
641.57	26862.33
641.72	26965.31
641.86	26771.05
642.01	26637.64
642.16	26993.40
642.31	26799.13
642.45	27000.42
642.60	26534.65
642.75	26749.98
642.90	26431.67
643.04	26703.17
643.19	26689.13
643.34	26625.93
643.48	26452.73
643.63	26572.10
643.78	26260.81
643.93	26757.00
644.07	26965.31
644.22	26609.55
644.37	26473.80
644.51	26532.31
644.66	26649.34
644.81	26466.78
644.95	26139.10
645.10	26204.64
645.25	26527.63
645.39	26576.78
645.54	26579.12
645.69	26466.78
645.83	26366.13
645.98	26045.48
646.13	26490.18
646.27	26473.80
646.42	26480.82
646.57	26214.00
646.71	26497.20
646.86	26169.53
647.00	26153.15
647.15	26061.87
647.30	26335.71
647.44	26171.87
647.59	26216.34
647.74	26333.37
647.88	25972.92
648.03	26249.11
648.17	26300.60
648.32	26216.34
648.47	26485.50
648.61	26209.32
648.76	26293.58
648.90	26281.88
649.05	26146.12
649.20	25823.13
649.34	26003.35
649.49	25771.64
649.63	25954.20
649.78	25837.17
649.92	26045.48
650.07	26265.49
650.21	25539.93
650.36	26111.02
650.51	26127.40
650.65	25935.48
650.80	26101.65
650.94	25699.08
651.09	25804.41
651.23	25816.11
651.38	25771.64
651.52	25549.29
651.67	25495.46
651.81	25397.15
651.96	25944.84
652.10	25792.70
652.25	25743.55
652.39	25965.90
652.54	25841.85
652.68	25902.71
652.83	25724.83
652.97	26106.34
653.12	25755.26
653.26	25263.74
653.41	25844.20
653.55	26085.27
653.70	25488.43
653.84	25776.32
653.99	25259.06
654.13	25666.31
654.27	25247.36
654.42	25436.94
654.56	25685.04
654.71	25752.91
654.85	25553.97
655.00	25766.96
655.14	25514.18
655.29	25345.66
655.43	25282.47
655.57	25184.16
655.72	25303.53
655.86	25539.93
656.01	25303.53
656.15	25411.20
656.30	25628.87
656.44	25048.41
656.58	25249.70
656.73	25055.43
656.87	25392.47
657.01	25160.76
657.16	25319.92
657.30	25193.53
657.45	25371.41
657.59	25441.62
657.73	24978.20
657.88	25259.06
658.02	25085.86
658.16	24882.24
658.31	24416.47
658.45	24781.59
658.60	24582.65
658.74	24816.70
658.88	24774.57
659.03	24884.58
659.17	24802.66
659.31	25123.31
659.46	24889.26
659.60	24809.68
659.74	24999.26
659.89	24746.48
660.03	24907.98
660.17	24975.86
660.32	24191.78
660.46	24620.10
660.60	24369.66
660.74	24339.23
660.89	24524.13
661.03	24678.61
661.17	24606.05
661.32	24608.39
661.46	24297.10
661.60	24074.75
661.74	24458.60
661.89	24400.08
662.03	24182.42
662.17	23981.13
662.31	24442.21
662.46	24231.57
662.60	24128.58
662.74	24493.71
662.88	24308.80
663.03	23800.91
663.17	23953.04
663.31	23978.79
663.45	23981.13
663.60	23857.08
663.74	23653.45
663.88	23740.05
664.02	23480.25
664.17	24119.22
664.31	23447.49
664.45	23690.90
664.59	23833.68
664.73	23309.40
664.88	23543.45
665.02	23679.20
665.16	23414.72
665.30	23517.70
665.44	23428.76
665.59	23370.25
665.73	23129.17
665.87	23225.14
666.01	23625.37
666.15	23531.75
666.29	23620.69
666.44	23281.31
666.58	22977.04
666.72	22979.38
666.86	23302.37
667.00	22920.87
667.14	23157.26
667.28	23173.64
667.43	22773.41
667.57	23129.17
667.71	23058.96
667.85	22977.04
667.99	22838.95
668.13	23075.34
668.27	23061.30
668.41	22958.31
668.56	22525.32
668.70	22857.67
668.84	22707.88
668.98	22836.61
669.12	22860.01
669.26	22878.74
669.40	22607.23
669.54	22436.38
669.68	22204.66
669.82	22288.92
669.96	22602.55
670.10	22197.64
670.25	22352.12
670.39	22066.57
670.53	22319.35
670.67	22143.81
670.81	22293.60
670.95	22246.79
671.09	22476.16
671.23	22295.94
671.37	22441.06
671.51	22377.86
671.65	22136.79
671.79	22031.46
671.93	21994.01
672.07	21860.60
672.21	21837.20
672.35	21556.33
672.49	21523.57
672.63	21546.97
672.77	21446.33
672.91	21912.10
673.05	21675.70
673.19	21556.33
673.33	21802.09
673.47	21303.56
673.61	21345.69
673.75	21371.43
673.89	21752.94
674.03	21413.56
674.17	21289.51
674.31	21451.01
674.45	20950.14
674.59	20826.09
674.73	21083.55
674.87	20978.22
675.01	20802.68
675.15	21118.65
675.29	20961.84
675.43	20786.30
675.56	20929.07
675.70	20842.47
675.84	20844.81
675.98	20559.27
676.12	20641.18
676.26	20863.54
676.40	20449.26
676.54	20467.98
676.68	20563.95
676.82	20575.65
676.96	20524.16
677.10	20446.92
677.23	20409.47
677.37	20032.65
677.51	20112.22
677.65	19999.88
677.79	19662.84
677.93	20201.16
678.07	19910.94
678.21	19812.63
678.34	19810.29
678.48	19758.80
678.62	19529.43
678.76	19653.48
678.90	19576.24
679.04	19543.47
679.18	19721.35
679.31	19501.34
679.45	19176.01
679.59	19178.35
679.73	19115.16
679.87	18827.27
680.00	19286.01
680.14	19009.83
680.28	19028.56
680.42	19056.64
680.56	19309.42
680.70	18735.99
680.83	19037.92
680.97	18853.02
681.11	18738.33
681.25	18618.96
681.39	18728.97
681.52	18508.96
681.66	18452.78
681.80	18698.54
681.94	18197.67
682.07	18324.05
682.21	18420.02
682.35	17963.61
682.49	18235.11
682.62	18029.15
682.76	17984.68
682.90	17956.59
683.04	18174.26
683.17	17989.36
683.31	17949.57
683.45	18012.76
683.59	17844.24
683.72	17642.96
683.86	17795.09
684.00	17408.90
684.13	17563.38
684.27	17673.39
684.41	17373.80
684.55	17191.23
684.68	17041.44
684.82	17312.94
684.96	17209.96
685.09	17200.60
685.23	17104.64
685.37	17245.07
685.50	16964.20
685.64	16971.22
685.78	17104.64
685.91	16905.69
686.05	17025.06
686.19	17081.23
686.32	16901.01
686.46	16524.18
686.60	16353.32
686.73	16219.91
686.87	16552.27
687.01	16526.52
687.14	16343.96
687.28	16166.08
687.42	16126.29
687.55	16109.91
687.69	16196.51
687.82	16173.10
687.96	16299.49
688.10	16053.73
688.23	15999.90
688.37	15742.44
688.50	15833.72
688.64	15932.03
688.78	15690.95
688.91	15618.39
689.05	15815.00
689.18	15379.66
689.32	15290.72
689.46	15323.49
689.59	15255.61
689.73	15379.66
689.86	15033.26
690.00	15410.09
690.13	15161.99
690.27	15061.35
690.41	15372.64
690.54	14984.11
690.68	15129.22
690.81	15021.56
690.95	15047.30
691.08	14878.79
691.22	14906.87
691.35	14471.53
691.49	14721.97
691.62	14621.33
691.76	14679.84
691.89	14728.99
692.03	14429.40
692.16	14307.69
692.30	14335.78
692.43	14534.73
692.57	14314.72
692.70	14022.15
692.84	14010.45
692.97	13802.14
693.11	13900.44
693.24	14061.94
693.38	14066.62
693.51	13968.32
693.65	14139.18
693.78	13720.22
693.92	13914.48
694.05	13870.01
694.19	13568.09
694.32	13610.22
694.45	13184.24
694.59	13327.01
694.72	13327.01
694.86	13132.75
694.99	13191.26
695.13	13158.49
695.26	13177.22
695.39	13090.62
695.53	12926.78
695.66	13261.48
695.80	13188.92
695.93	12950.18
696.07	13025.08
696.20	13081.25
696.33	12849.54
696.47	12933.80
696.60	12868.27
696.73	12571.02
696.87	12718.47
697.00	12678.68
697.14	12248.02
697.27	12306.54
697.40	12353.35
697.54	12294.83
697.67	12217.60
697.80	12444.63
697.94	12262.07
698.07	11875.88
698.21	12140.36
698.34	11941.41
698.47	12149.72
698.61	12135.68
698.74	11981.20
698.87	12004.61
699.01	11779.92
699.14	12074.82
699.27	11726.08
699.40	11784.60
699.54	11463.94
699.67	11646.51
699.80	11470.97
699.94	11255.64
700.07	11370.32
700.20	11288.40
700.34	11194.78
700.47	11166.70
700.60	11398.41
700.73	11183.08
700.87	11110.52
701.00	11243.93
701.13	11213.51
701.26	11077.76
701.40	11035.63
701.53	11087.12
701.66	11035.63
701.79	10946.69
701.93	11009.88
702.06	10743.06
702.19	10574.54
702.32	10656.46
702.46	10558.16
702.59	10366.23
702.72	10303.04
702.85	10424.75
702.99	10438.79
703.12	10413.04
703.25	10242.18
703.38	10235.16
703.51	10214.10
703.65	10188.35
703.78	10188.35
703.91	10314.74
704.04	10085.37
704.17	10073.67
704.31	10099.41
704.44	10026.86
704.57	9774.08
704.70	9870.04
704.83	9722.59
704.96	9563.43
705.10	9575.13
705.23	9675.77
>>>>>End Processed Spectral Data<<<<<
