SpectraSuite Data File
++++++++++++++++++++++++++++++++++++
Date: Fri Oct 18 13:58:32 GMT-05:00 2013
User: bianchi
Dark Spectrum Present: No
Reference Spectrum Present: No
Number of Sampled Component Spectra: 1
Spectrometers: USB2+H05261
Integration Time (usec): 50000 (USB2+H05261)
Spectra Averaged: 1 (USB2+H05261)
Boxcar Smoothing: 0 (USB2+H05261)
Correct for Electrical Dark: No (USB2+H05261)
Strobe/Lamp Enabled: No (USB2+H05261)
Correct for Detector Non-linearity: No (USB2+H05261)
Correct for Stray Light: No (USB2+H05261)
Number of Pixels in Processed Spectrum: 2048
>>>>>Begin Processed Spectral Data<<<<<
365.73	0.00
365.92	0.00
366.12	0.00
366.32	0.00
366.52	0.00
366.72	0.00
366.91	0.00
367.11	0.00
367.31	0.00
367.51	0.00
367.70	0.00
367.90	0.00
368.10	0.00
368.30	0.00
368.49	0.00
368.69	0.00
368.89	0.00
369.09	0.00
369.28	0.00
369.48	0.00
369.68	0.00
369.87	0.00
370.07	0.00
370.27	0.00
370.47	4.68
370.66	72.56
370.86	63.19
371.06	65.54
371.25	210.65
371.45	152.13
371.65	124.05
371.84	102.98
372.04	205.97
372.24	177.88
372.44	168.52
372.63	189.58
372.83	238.73
373.03	163.84
373.22	203.63
373.42	245.76
373.62	215.33
373.81	180.22
374.01	177.88
374.21	177.88
374.40	241.08
374.60	241.08
374.79	210.65
374.99	212.99
375.19	229.37
375.38	217.67
375.58	217.67
375.78	234.05
375.97	297.25
376.17	327.68
376.37	292.57
376.56	283.20
376.76	297.25
376.95	292.57
377.15	231.71
377.35	245.76
377.54	259.80
377.74	290.23
377.93	241.08
378.13	280.86
378.33	299.59
378.52	327.68
378.72	257.46
378.91	212.99
379.11	208.31
379.31	212.99
379.50	184.90
379.70	369.80
379.89	297.25
380.09	306.61
380.28	362.78
380.48	241.08
380.68	341.72
380.87	334.70
381.07	292.57
381.26	351.08
381.46	355.76
381.65	250.44
381.85	297.25
382.04	311.29
382.24	266.82
382.43	297.25
382.63	346.40
382.83	322.99
383.02	383.85
383.22	334.70
383.41	353.42
383.61	383.85
383.80	365.12
384.00	358.10
384.19	259.80
384.39	351.08
384.58	325.33
384.78	468.11
384.97	437.68
385.17	355.76
385.36	379.17
385.56	393.21
385.75	379.17
385.95	308.95
386.14	442.36
386.34	372.15
386.53	449.38
386.72	444.70
386.92	372.15
387.11	367.46
387.31	454.06
387.50	372.15
387.70	444.70
387.89	411.93
388.09	465.77
388.28	358.10
388.48	386.19
388.67	397.89
388.86	358.10
389.06	454.06
389.25	451.72
389.45	491.51
389.64	395.55
389.84	496.19
390.03	416.62
390.22	521.94
390.42	456.40
390.61	454.06
390.81	510.24
391.00	463.43
391.19	521.94
391.39	493.85
391.58	479.81
391.78	505.56
391.97	496.19
392.16	416.62
392.36	547.69
392.55	547.69
392.75	545.34
392.94	547.69
393.13	566.41
393.33	543.00
393.52	617.90
393.71	557.05
393.91	566.41
394.10	580.45
394.29	571.09
394.49	535.98
394.68	629.60
394.88	580.45
395.07	594.50
395.26	634.29
395.46	554.71
395.65	648.33
395.84	608.54
396.04	650.67
396.23	655.35
396.42	667.05
396.62	690.46
396.81	676.41
397.00	683.44
397.19	674.07
397.39	643.65
397.58	709.18
397.77	664.71
397.97	727.91
398.16	753.65
398.35	648.33
398.55	603.86
398.74	678.76
398.93	744.29
399.12	741.95
399.32	713.86
399.51	699.82
399.70	730.25
399.90	755.99
400.09	784.08
400.28	819.19
400.47	725.57
400.67	821.53
400.86	737.27
401.05	786.42
401.24	770.04
401.44	816.85
401.63	774.72
401.82	760.67
402.01	732.59
402.21	840.25
402.40	889.40
402.59	866.00
402.78	807.48
402.97	821.53
403.17	821.53
403.36	737.27
403.55	805.14
403.74	870.68
403.93	844.93
404.13	912.81
404.32	891.74
404.51	844.93
404.70	936.21
404.89	950.26
405.09	938.55
405.28	896.43
405.47	926.85
405.66	997.07
405.85	978.34
406.05	976.00
406.24	959.62
406.43	954.94
406.62	1004.09
406.81	1015.79
407.00	961.96
407.20	985.37
407.39	1046.22
407.58	1020.47
407.77	990.05
407.96	1151.54
408.15	1102.39
408.34	1081.33
408.54	1069.62
408.73	1121.12
408.92	1107.07
409.11	1111.75
409.30	1128.14
409.49	1053.24
409.68	1160.91
409.87	1123.46
410.07	1116.44
410.26	1196.01
410.45	1102.39
410.64	1198.35
410.83	1109.41
411.02	1146.86
411.21	1261.55
411.40	1205.38
411.59	1299.00
411.78	1186.65
411.98	1247.51
412.17	1240.48
412.36	1338.79
412.55	1306.02
412.74	1397.30
412.93	1310.70
413.12	1287.29
413.31	1446.45
413.50	1327.08
413.69	1331.76
413.88	1502.62
414.07	1399.64
414.26	1418.36
414.45	1446.45
414.64	1420.71
414.83	1577.52
415.02	1488.58
415.22	1540.07
415.41	1453.47
415.60	1511.99
415.79	1561.14
415.98	1533.05
416.17	1577.52
416.36	1516.67
416.55	1493.26
416.74	1547.09
416.93	1678.16
417.12	1600.93
417.31	1591.56
417.50	1544.75
417.69	1743.70
417.88	1640.72
418.07	1689.87
418.26	1710.93
418.45	1720.29
418.64	1823.28
418.83	1703.91
419.02	1905.20
419.21	1839.66
419.39	1795.19
419.58	1849.02
419.77	1771.79
419.96	1790.51
420.15	1893.49
420.34	1865.41
420.53	1919.24
420.72	1973.07
420.91	1935.62
421.10	1963.71
421.29	1947.33
421.48	1818.60
421.67	1947.33
421.86	1989.46
422.05	1991.80
422.24	1930.94
422.43	1987.11
422.61	1942.64
422.80	1954.35
422.99	2083.08
423.18	2003.50
423.37	2073.71
423.56	1900.52
423.75	1977.75
423.94	1926.26
424.13	1739.02
424.32	1844.34
424.50	1998.82
424.69	2090.10
424.88	2087.76
425.07	2003.50
425.26	1966.05
425.45	2015.20
425.64	1989.46
425.83	2026.90
426.01	2125.21
426.20	2062.01
426.39	1966.05
426.58	2076.06
426.77	2097.12
426.96	2059.67
427.15	2001.16
427.33	2181.38
427.52	2113.50
427.71	2111.16
427.90	2174.36
428.09	2134.57
428.28	2097.12
428.46	2010.52
428.65	2127.55
428.84	2291.38
429.03	2214.15
429.22	2157.97
429.40	2162.66
429.59	2244.57
429.78	2157.97
429.97	2104.14
430.16	2113.50
430.34	2204.78
430.53	2319.47
430.72	2321.81
430.91	2349.90
431.10	2242.23
431.28	2270.32
431.47	2417.77
431.66	2403.73
431.85	2253.94
432.03	2392.03
432.22	2417.77
432.41	2429.48
432.60	2450.54
432.79	2380.32
432.97	2422.45
433.16	2417.77
433.35	2399.05
433.54	2436.50
433.72	2448.20
433.91	2422.45
434.10	2516.08
434.28	2537.14
434.47	2509.05
434.66	2497.35
434.85	2600.34
435.03	2576.93
435.22	2593.31
435.41	2708.00
435.59	2689.28
435.78	2586.29
435.97	2691.62
436.16	2654.17
436.34	2733.75
436.53	2588.63
436.72	2836.73
436.90	2649.49
437.09	2684.59
437.28	2614.38
437.46	2621.40
437.65	2710.34
437.84	2658.85
438.02	2710.34
438.21	2635.44
438.40	2724.38
438.58	2836.73
438.77	2810.98
438.96	2778.22
439.14	2897.58
439.33	2897.58
439.52	2930.35
439.70	2895.24
439.89	2895.24
440.08	2906.95
440.26	2984.18
440.45	3002.91
440.63	2939.71
440.82	3005.25
441.01	3091.85
441.19	3162.06
441.38	3087.17
441.57	3265.05
441.75	3143.34
441.94	3143.34
442.12	3241.64
442.31	3337.60
442.50	3183.13
442.68	3262.71
442.87	3353.99
443.05	3316.54
443.24	3396.12
443.43	3372.71
443.61	3487.40
443.80	3314.20
443.98	3204.19
444.17	3119.93
444.35	3339.94
444.54	3557.61
444.73	3433.57
444.91	3449.95
445.10	3276.75
445.28	3361.01
445.47	3332.92
445.65	3316.54
445.84	3449.95
446.02	3487.40
446.21	3393.78
446.39	3421.86
446.58	3489.74
446.77	3548.25
446.95	3251.00
447.14	3410.16
447.32	3424.20
447.51	3389.10
447.69	3496.76
447.88	3424.20
448.06	3393.78
448.25	3529.53
448.43	3496.76
448.62	3344.63
448.80	3632.51
448.99	3548.25
449.17	3613.79
449.36	3508.46
449.54	3463.99
449.73	3599.74
449.91	3665.28
450.10	3597.40
450.28	3686.34
450.46	3742.52
450.65	3730.81
450.83	3627.83
451.02	3667.62
451.20	3887.63
451.39	3833.80
451.57	3714.43
451.76	3571.66
451.94	3686.34
452.13	3794.01
452.31	3829.12
452.49	3798.69
452.68	3740.18
452.86	3747.20
453.05	3810.39
453.23	3866.56
453.42	3709.75
453.60	3761.24
453.78	4021.04
453.97	3878.27
454.15	3810.39
454.34	3880.61
454.52	4042.11
454.70	3992.95
454.89	3962.53
455.07	3971.89
455.26	3873.59
455.44	4018.70
455.62	4011.68
455.81	3974.23
455.99	4107.64
456.17	4133.39
456.36	4037.42
456.54	4241.05
456.73	4145.09
456.91	4290.20
457.09	4117.00
457.28	4355.74
457.46	4147.43
457.64	4379.14
457.83	4196.58
458.01	4311.27
458.19	4313.61
458.38	4196.58
458.56	4344.03
458.74	4248.07
458.93	4341.69
459.11	4341.69
459.29	4362.76
459.48	4432.97
459.66	4390.84
459.84	4404.89
460.03	4606.17
460.21	4772.35
460.39	4430.63
460.57	4521.92
460.76	4531.28
460.94	4531.28
461.12	4528.94
461.31	4505.53
461.49	4685.75
461.67	4620.22
461.85	4458.72
462.04	4603.83
462.22	4704.48
462.40	4748.95
462.59	4753.63
462.77	4681.07
462.95	4737.24
463.13	4727.88
463.32	4795.76
463.50	4788.74
463.68	4767.67
463.86	4741.93
464.05	4713.84
464.23	4610.86
464.41	4802.78
464.59	4709.16
464.78	4823.84
464.96	4856.61
465.14	4774.69
465.32	4830.87
465.50	5034.49
465.69	5050.88
465.87	4994.70
466.05	4894.06
466.23	5041.51
466.41	4905.76
466.60	4929.17
466.78	5048.54
466.96	5015.77
467.14	4842.57
467.32	4971.30
467.51	5039.17
467.69	4903.42
467.87	5238.12
468.05	5029.81
468.23	5123.43
468.41	5071.94
468.60	5006.41
468.78	5146.84
468.96	5254.50
469.14	5268.55
469.32	5294.29
469.50	5247.48
469.69	5249.82
469.87	5383.23
470.05	5493.24
470.23	5369.19
470.41	5341.10
470.59	5254.50
470.77	5430.04
470.95	5418.34
471.14	5376.21
471.32	5533.03
471.50	5565.79
471.68	5355.15
471.86	5547.07
472.04	5603.24
472.22	5671.12
472.40	5643.03
472.58	5661.76
472.77	5790.49
472.95	5596.22
473.13	5963.68
473.31	5703.89
473.49	5626.65
473.67	5750.70
473.85	5806.87
474.03	5877.09
474.21	5949.64
474.39	6012.84
474.57	6085.39
474.75	6033.90
474.93	6155.61
475.12	6132.20
475.30	6104.12
475.48	6125.18
475.66	6143.91
475.84	6207.10
476.02	6370.94
476.20	6143.91
476.38	6293.70
476.56	6387.32
476.74	6356.90
476.92	6459.88
477.10	6478.60
477.28	6644.78
477.46	6562.86
477.64	6686.91
477.82	6841.39
478.00	6843.73
478.18	6960.75
478.36	6836.70
478.54	6923.30
478.72	6946.71
478.90	7066.08
479.08	7066.08
479.26	7143.32
479.44	7157.36
479.62	7187.79
479.80	7265.02
479.98	7283.75
480.16	7265.02
480.34	7480.35
480.52	7478.01
480.70	7761.22
480.88	7510.78
481.06	7487.37
481.24	7428.86
481.41	7730.79
481.59	7861.86
481.77	7903.99
481.95	7920.37
482.13	8074.85
482.31	7906.33
482.49	8234.00
482.67	7990.59
482.85	8145.06
483.03	8393.16
483.21	8505.51
483.39	8430.61
483.57	8465.72
483.74	8606.15
483.92	8517.21
484.10	8601.47
484.28	8748.92
484.46	8931.48
484.64	9046.17
484.82	8760.63
485.00	9128.09
485.18	9069.58
485.35	9224.05
485.53	9277.88
485.71	9287.25
485.89	9458.10
486.07	9401.93
486.25	9500.23
486.43	9558.75
486.61	9650.03
486.78	9516.62
486.96	9888.76
487.14	9853.66
487.32	9764.72
487.50	9973.02
487.68	10029.20
487.85	10209.42
488.03	10078.35
488.21	10462.19
488.39	10548.79
488.57	10551.14
488.75	10487.94
488.92	10560.50
489.10	10888.17
489.28	10773.49
489.46	10953.71
489.64	10789.87
489.81	11152.65
489.99	11066.05
490.17	11052.01
490.35	11250.96
490.53	11339.90
490.70	11311.81
490.88	11522.46
491.06	11686.29
491.24	11637.14
491.41	11641.82
491.59	11885.24
491.77	11595.01
491.95	11913.33
492.13	12294.83
492.30	12194.19
492.48	12123.98
492.66	12138.02
492.84	12107.59
493.01	12365.05
493.19	12318.24
493.37	12571.02
493.54	12641.23
493.72	12641.23
493.90	12617.83
494.08	12435.27
494.25	12936.14
494.43	12716.13
494.61	13273.18
494.79	13078.91
494.96	12989.97
495.14	13394.89
495.32	13315.31
495.49	13406.59
495.67	13273.18
495.85	13245.09
496.02	13635.96
496.20	13928.53
496.38	13650.00
496.55	13790.44
496.73	13893.42
496.91	14040.87
497.09	14040.87
497.26	14293.65
497.44	14291.31
497.62	14101.73
497.79	14293.65
497.97	14396.64
498.14	14480.89
498.32	14607.28
498.50	14590.90
498.67	14977.09
498.85	14661.12
499.03	14682.18
499.20	14808.57
499.38	14977.09
499.56	15098.80
499.73	15115.18
499.91	15131.56
500.08	15183.06
500.26	15119.86
500.44	15456.90
500.61	15307.10
500.79	15126.88
500.97	15103.48
501.14	15707.34
501.32	15756.49
501.49	15674.57
501.67	15522.43
501.84	15719.04
502.02	15740.10
502.20	15672.23
502.37	15878.19
502.55	15880.53
502.72	15742.44
502.90	16027.99
503.07	16086.50
503.25	15969.48
503.43	16224.59
503.60	16264.38
503.78	16257.36
503.95	16257.36
504.13	16297.15
504.30	16437.58
504.48	16233.96
504.65	16533.54
504.83	16568.65
505.01	16819.09
505.18	16699.72
505.36	17027.40
505.53	16636.53
505.71	16723.13
505.88	16896.33
506.06	16652.91
506.23	17050.80
506.41	16788.66
506.58	17539.97
506.76	16788.66
506.93	17242.73
507.11	16922.07
507.28	17254.43
507.46	17240.39
507.63	17444.01
507.81	17359.75
507.98	17582.10
508.16	17249.75
508.33	17600.83
508.50	17579.76
508.68	17626.57
508.85	18015.10
509.03	18092.34
509.20	18043.19
509.38	17865.31
509.55	18157.88
509.73	18153.20
509.90	18148.51
510.08	17853.61
510.25	18080.64
510.42	18340.44
510.60	18361.50
510.77	18553.43
510.95	18532.36
511.12	18370.86
511.30	18141.49
511.47	18356.82
511.64	18583.85
511.82	18808.54
511.99	18658.75
512.17	18941.96
512.34	18817.91
512.51	19094.09
512.69	18738.33
512.86	19094.09
513.04	19431.13
513.21	18960.68
513.38	19257.93
513.56	19332.82
513.73	19173.67
513.90	19286.01
514.08	19033.24
514.25	19606.67
514.43	19660.50
514.60	19381.98
514.77	19351.55
514.95	19513.05
515.12	19768.16
515.29	19454.53
515.47	19468.58
515.64	19637.09
515.81	19573.90
515.99	19555.18
516.16	19875.83
516.33	20240.95
516.51	20390.75
516.68	20018.60
516.85	19686.25
517.03	20575.65
517.20	20219.89
517.37	20482.03
517.54	20229.25
517.72	20198.82
517.89	20201.16
518.06	20301.81
518.24	20475.01
518.41	20081.80
518.58	20453.94
518.75	20463.30
518.93	20603.74
519.10	20650.55
519.27	20830.77
519.45	20397.77
519.62	20489.05
519.79	20812.04
519.96	20912.69
520.14	20863.54
520.31	20493.73
520.48	21172.49
520.65	20884.60
520.83	21123.33
521.00	20790.98
521.17	20891.62
521.34	20943.11
521.52	21067.16
521.69	21191.21
521.86	21228.66
522.03	21542.29
522.20	21521.23
522.38	21261.43
522.55	21511.86
522.72	21696.77
522.89	21736.56
523.07	22258.49
523.24	21806.77
523.41	22057.21
523.58	21799.75
523.75	21848.90
523.92	21734.21
524.10	21905.07
524.27	22094.66
524.44	22104.02
524.61	22352.12
524.78	22160.19
524.96	21914.44
525.13	22101.68
525.30	22412.97
525.47	21972.95
525.64	22082.95
525.81	22204.66
525.98	22572.13
526.16	22658.73
526.33	22644.68
526.50	22506.59
526.67	22637.66
526.84	22494.89
527.01	22724.26
527.18	22988.74
527.36	22911.50
527.53	23119.81
527.70	23040.23
527.87	22974.70
528.04	22625.96
528.21	22874.06
528.38	23129.17
528.55	23019.17
528.72	22766.39
528.89	22829.59
529.07	23330.46
529.24	23168.96
529.41	23154.92
529.58	23140.88
529.75	23124.49
529.92	23159.60
530.09	23082.36
530.26	23171.30
530.43	23592.60
530.60	23241.52
530.77	23477.91
530.94	23587.92
531.11	23295.35
531.28	23377.27
531.46	23597.28
531.63	23571.54
531.80	23559.83
531.97	23403.02
532.14	23756.44
532.31	23674.52
532.48	23974.11
532.65	23784.52
532.82	23810.27
532.99	23768.14
533.16	23707.29
533.33	24123.90
533.50	24313.48
533.67	24423.49
533.84	23894.53
534.01	24372.00
534.18	23857.08
534.35	24070.07
534.52	24449.24
534.69	24224.54
534.86	24531.15
535.03	24233.91
535.20	24514.77
535.37	24540.52
535.54	24442.21
535.71	24091.13
535.88	24327.53
536.05	24538.18
536.22	24327.53
536.38	24458.60
536.55	24739.46
536.72	24992.24
536.89	24191.78
537.06	24474.98
537.23	25048.41
537.40	24711.38
537.57	24449.24
537.74	25008.62
537.91	24767.55
538.08	24870.53
538.25	24877.55
538.42	24538.18
538.59	24697.33
538.75	24718.40
538.92	24922.02
539.09	25310.55
539.26	25003.94
539.43	25116.29
539.60	24971.18
539.77	24781.59
539.94	25282.47
540.11	25167.78
540.28	25111.61
540.44	25228.63
540.61	25448.64
540.78	25303.53
540.95	25127.99
541.12	25551.63
541.29	25394.81
541.46	25315.23
541.62	25366.73
541.79	25551.63
541.96	24954.79
542.13	24952.45
542.30	25486.09
542.47	25958.88
542.63	25535.24
542.80	25750.57
542.97	25762.28
543.14	25696.74
543.31	26335.71
543.48	25816.11
543.64	25963.56
543.81	26314.64
543.98	26211.66
544.15	26429.33
544.32	26082.93
544.48	26265.49
544.65	26003.35
544.82	26059.52
544.99	25954.20
545.16	26178.89
545.32	25972.92
545.49	26593.17
545.66	26719.56
545.83	26452.73
546.00	26672.74
546.16	26375.50
546.33	26331.03
546.50	26066.55
546.67	26398.90
546.83	26146.12
547.00	26569.76
547.17	26651.68
547.34	26628.27
547.50	26625.93
547.67	26852.97
547.84	26841.26
548.00	26721.90
548.17	26789.77
548.34	26719.56
548.51	27061.27
548.67	27091.70
548.84	27206.39
549.01	27199.37
549.18	26876.37
549.34	26483.16
549.51	26855.31
549.68	26820.20
549.84	26614.23
550.01	26977.01
550.18	26878.71
550.34	26801.47
550.51	26874.03
550.68	26838.92
550.84	26955.95
551.01	27150.21
551.18	27049.57
551.34	27082.34
551.51	27119.79
551.68	26717.22
551.84	27302.35
552.01	27133.83
552.18	27201.71
552.34	27178.30
552.51	27211.07
552.68	27482.57
552.84	27257.88
553.01	27714.28
553.18	27346.82
553.34	27388.95
553.51	27527.04
553.67	27613.64
553.84	27751.73
554.01	27489.59
554.17	27536.40
554.34	27505.98
554.51	27637.05
554.67	27697.90
554.84	27777.48
555.00	27704.92
555.17	28013.87
555.33	27786.84
555.50	27428.74
555.67	27693.22
555.83	27793.86
556.00	27672.15
556.16	27978.76
556.33	27716.62
556.50	28151.96
556.66	28088.77
556.83	27695.56
556.99	28191.75
557.16	28332.18
557.32	28273.67
557.49	28278.35
557.65	27880.46
557.82	28107.49
557.98	27824.29
558.15	28004.51
558.32	28362.61
558.48	28130.90
558.65	28173.03
558.81	28428.15
558.98	28009.19
559.14	28236.22
559.31	27988.13
559.47	27936.63
559.64	28081.75
559.80	28332.18
559.97	28587.30
560.13	28697.31
560.30	28428.15
560.46	28631.77
560.63	28435.17
560.79	28371.97
560.96	28458.57
561.12	28414.10
561.29	28610.71
561.45	28367.29
561.61	28486.66
561.78	28510.07
561.94	28374.31
562.11	28369.63
562.27	28428.15
562.44	28435.17
562.60	28561.56
562.77	28659.86
562.93	28208.14
563.10	28114.52
563.26	28617.73
563.42	28781.57
563.59	28589.64
563.75	28720.71
563.92	28968.81
564.08	28091.11
564.24	28692.63
564.41	28800.29
564.57	28367.29
564.74	28620.07
564.90	29266.06
565.07	28819.02
565.23	28936.04
565.39	28727.74
565.56	28617.73
565.72	28828.38
565.88	28950.09
566.05	28603.69
566.21	28716.03
566.38	28669.22
566.54	28673.90
566.70	29078.82
566.87	28849.44
567.03	29008.60
567.19	29235.63
567.36	29127.97
567.52	28779.23
567.68	28802.63
567.85	28807.31
568.01	28709.01
568.17	29020.30
568.34	28863.49
568.50	28922.00
568.66	28870.51
568.83	29125.63
568.99	28842.42
569.15	29289.46
569.32	28114.52
569.48	28584.96
569.64	28797.95
569.81	28807.31
569.97	29095.20
570.13	29017.96
570.30	29219.25
570.46	28886.89
570.62	29127.97
570.78	28650.50
570.95	29181.80
571.11	29029.66
571.27	28811.99
571.43	29067.11
571.60	28718.37
571.76	28716.03
571.92	28989.88
572.09	29039.03
572.25	29303.51
572.41	29357.34
572.57	29179.46
572.74	29039.03
572.90	28884.55
573.06	29046.05
573.22	28868.17
573.38	29015.62
573.55	28891.57
573.71	29465.00
573.87	29237.97
574.03	29055.41
574.20	29095.20
574.36	28938.38
574.52	29362.02
574.68	28870.51
574.84	29413.51
575.01	29263.72
575.17	29139.67
575.33	29256.70
575.49	28898.59
575.65	29284.78
575.82	29013.28
575.98	29240.31
576.14	29434.58
576.30	29046.05
576.46	29369.04
576.62	29301.17
576.79	29116.26
576.95	29355.00
577.11	28884.55
577.27	29317.55
577.43	29357.34
577.59	29106.90
577.75	29575.01
577.92	29282.44
578.08	29013.28
578.24	28975.83
578.40	29050.73
578.56	29071.79
578.72	29041.37
578.88	29441.60
579.04	29156.05
579.21	29329.25
579.37	29769.27
579.53	29572.67
579.69	28982.85
579.85	29092.86
580.01	29282.44
580.17	29118.60
580.33	29586.71
580.49	29392.45
580.65	29076.48
580.82	29703.74
580.98	29514.16
581.14	29392.45
581.30	29067.11
581.46	29563.31
581.62	29275.42
581.78	29565.65
581.94	29640.54
582.10	29060.09
582.26	29158.39
582.42	29322.23
582.58	29289.46
582.74	29397.13
582.90	29855.87
583.06	29537.56
583.22	29549.26
583.38	29532.88
583.54	29436.92
583.70	29244.99
583.86	29373.72
584.02	29099.88
584.18	29886.30
584.34	29724.80
584.50	29392.45
584.66	29809.06
584.82	29266.06
584.98	29483.73
585.14	29544.58
585.30	29408.83
585.46	29324.57
585.62	28931.36
585.78	29495.43
585.94	29549.26
586.10	29523.52
586.26	29579.69
586.42	29954.18
586.58	29565.65
586.74	29413.51
586.90	29549.26
587.06	29212.23
587.22	29551.60
587.38	29460.32
587.54	29467.34
587.70	29741.19
587.86	29682.67
588.02	29369.04
588.18	29827.79
588.34	29834.81
588.49	29497.77
588.65	29333.93
588.81	29359.68
588.97	29977.58
589.13	29542.24
589.29	29530.54
589.45	29921.41
589.61	29624.16
589.77	29675.65
589.93	29813.74
590.08	29560.97
590.24	29614.80
590.40	29853.53
590.56	29488.41
590.72	29738.85
590.88	29675.65
591.04	29542.24
591.20	30057.16
591.35	29825.45
591.51	29993.97
591.67	30036.09
591.83	29795.02
591.99	29752.89
592.15	29942.47
592.31	29771.61
592.46	30108.65
592.62	29797.36
592.78	29745.87
592.94	29809.06
593.10	29502.45
593.26	29497.77
593.41	29748.21
593.57	29717.78
593.73	29979.92
593.89	29881.62
594.05	29802.04
594.20	30057.16
594.36	29928.43
594.52	29546.92
594.68	29706.08
594.84	30270.15
594.99	30066.52
595.15	30019.71
595.31	30251.42
595.47	30394.20
595.62	30029.07
595.78	30148.44
595.94	30096.95
596.10	30221.00
596.25	29675.65
596.41	29514.16
596.57	29832.47
596.73	29612.46
596.88	29883.96
597.04	29977.58
597.20	29972.90
597.36	30206.95
597.51	30155.46
597.67	30178.87
597.83	29647.57
597.99	30232.70
598.14	29827.79
598.30	30286.53
598.46	29970.56
598.61	29895.66
598.77	29596.07
598.93	29893.32
599.09	30026.73
599.24	30118.01
599.40	30146.10
599.56	29996.31
599.71	30029.07
599.87	30204.61
600.03	29771.61
600.18	29788.00
600.34	30022.05
600.50	30213.98
600.65	29846.51
600.81	30162.48
600.97	30043.12
601.12	30078.22
601.28	30197.59
601.44	30251.42
601.59	30469.09
601.75	30192.91
601.91	29942.47
602.06	30080.56
602.22	30029.07
602.37	29830.13
602.53	29764.59
602.69	30003.33
602.84	29743.53
603.00	30066.52
603.16	30244.40
603.31	30256.11
603.47	30000.99
603.62	30059.50
603.78	30230.36
603.94	29869.92
604.09	29977.58
604.25	30235.04
604.40	29804.38
604.56	29975.24
604.71	30197.59
604.87	29937.79
605.03	30396.54
605.18	30040.78
605.34	30366.11
605.49	30038.44
605.65	30115.67
605.80	29846.51
605.96	29743.53
606.12	29951.84
606.27	29975.24
606.43	29970.56
606.58	30045.46
606.74	30230.36
606.89	29907.37
607.05	30274.83
607.20	30019.71
607.36	29605.44
607.51	30459.73
607.67	29490.75
607.82	29818.42
607.98	29734.17
608.13	29633.52
608.29	30089.93
608.44	29963.54
608.60	29923.75
608.75	30143.76
608.91	29968.22
609.06	29642.88
609.22	30134.40
609.37	29724.80
609.53	29453.30
609.68	29661.61
609.84	29366.70
609.99	29670.97
610.15	29677.99
610.30	29514.16
610.46	29680.33
610.61	29900.34
610.76	29528.20
610.92	29935.45
611.07	29544.58
611.23	29570.33
611.38	29535.22
611.54	29273.08
611.69	29336.27
611.84	29296.49
612.00	29139.67
612.15	29441.60
612.31	29855.87
612.46	29362.02
612.62	29645.23
612.77	29469.69
612.92	29851.19
613.08	29469.69
613.23	29797.36
613.39	29291.80
613.54	29436.92
613.69	29378.40
613.85	29406.49
614.00	29359.68
614.15	29567.99
614.31	29413.51
614.46	29755.23
614.62	29453.30
614.77	29523.52
614.92	29467.34
615.08	29434.58
615.23	29427.56
615.38	29418.19
615.54	29125.63
615.69	29212.23
615.84	29167.76
616.00	29069.45
616.15	28959.45
616.30	29553.94
616.46	29193.50
616.61	29209.89
616.76	29294.14
616.92	28912.64
617.07	29369.04
617.22	29230.95
617.37	28954.77
617.53	29268.40
617.68	29067.11
617.83	28936.04
617.99	28741.78
618.14	28835.40
618.29	29565.65
618.45	28945.41
618.60	28978.17
618.75	29050.73
618.90	29029.66
619.06	29020.30
619.21	28900.94
619.36	28912.64
619.51	28760.50
619.67	28545.17
619.82	28776.89
619.97	28837.74
620.12	28746.46
620.28	28383.68
620.43	28751.14
620.58	28877.53
620.73	29104.56
620.89	29041.37
621.04	28919.66
621.19	29132.65
621.34	28753.48
621.49	28479.64
621.65	28657.52
621.80	28898.59
621.95	28919.66
622.10	28959.45
622.25	28498.36
622.41	28577.94
622.56	29034.35
622.71	28933.70
622.86	28531.13
623.01	28814.34
623.16	28376.66
623.32	28491.34
623.47	28676.24
623.62	28465.60
623.77	28388.36
623.92	28566.24
624.07	28357.93
624.23	28449.21
624.38	28638.80
624.53	28376.66
624.68	28760.50
624.83	28774.55
624.98	28680.92
625.13	28280.69
625.29	28442.19
625.44	28460.91
625.59	28219.84
625.74	28367.29
625.89	28135.58
626.04	28187.07
626.19	28142.60
626.34	28109.83
626.49	28018.55
626.65	28119.20
626.80	28140.26
626.95	28245.58
627.10	28596.67
627.25	27901.53
627.40	27831.31
627.55	28077.07
627.70	27880.46
627.85	27770.46
628.00	27920.25
628.15	28339.21
628.30	27735.35
628.45	27871.10
628.60	27768.12
628.76	28032.60
628.91	27793.86
629.06	27693.22
629.21	28196.43
629.36	27868.76
629.51	27777.48
629.66	27850.03
629.81	27517.68
629.96	27742.37
630.11	27981.10
630.26	27840.67
630.41	27381.93
630.56	27536.40
630.71	27835.99
630.86	27693.22
631.01	27974.08
631.16	27946.00
631.31	27761.09
631.46	27697.90
631.61	27887.48
631.76	27894.50
631.91	27431.08
632.06	27234.47
632.21	27211.07
632.36	27606.62
632.51	26977.01
632.66	27487.25
632.81	27262.56
632.96	27501.29
633.10	27199.37
633.25	27873.44
633.40	27473.21
633.55	27402.99
633.70	27267.24
633.85	27405.33
634.00	27339.80
634.15	27178.30
634.30	27239.15
634.45	27030.85
634.60	27314.05
634.75	27206.39
634.90	27351.50
635.05	27410.01
635.19	26930.20
635.34	27604.28
635.49	27096.38
635.64	27283.62
635.79	27264.90
635.94	26967.65
636.09	27349.16
636.24	27105.74
636.39	26529.97
636.53	26904.46
636.68	27040.21
636.83	27084.68
636.98	27447.46
637.13	27232.13
637.28	27220.43
637.43	27072.98
637.57	26920.84
637.72	26986.38
637.87	26735.94
638.02	26867.01
638.17	26836.58
638.32	26815.52
638.46	26827.22
638.61	26979.36
638.76	26735.94
638.91	26803.82
639.06	26899.78
639.20	26735.94
639.35	26445.71
639.50	27178.30
639.65	26930.20
639.80	26909.14
639.94	26838.92
640.09	26782.75
640.24	26586.15
640.39	26410.60
640.54	26284.22
640.68	26319.32
640.83	26284.22
640.98	26497.20
641.13	26305.28
641.27	26696.15
641.42	26686.79
641.57	26431.67
641.72	26389.54
641.86	26136.76
642.01	26494.86
642.16	26649.34
642.31	26307.62
642.45	26270.17
642.60	26258.47
642.75	25933.14
642.90	26230.38
643.04	25993.99
643.19	25909.73
643.34	26199.96
643.48	26668.06
643.63	26450.39
643.78	26419.97
643.93	26520.61
644.07	26347.41
644.22	26094.63
644.37	26324.01
644.51	26228.04
644.66	26003.35
644.81	26010.37
644.95	25759.94
645.10	26029.10
645.25	25909.73
645.39	26185.91
645.54	26204.64
645.69	26066.55
645.83	26162.51
645.98	26171.87
646.13	26073.57
646.27	26040.80
646.42	25795.04
646.57	26256.13
646.71	25795.04
646.86	25846.54
647.00	26008.03
647.15	25568.01
647.30	25610.14
647.44	25813.77
647.59	25647.59
647.74	25568.01
647.88	25788.02
648.03	25799.73
648.17	25893.35
648.32	25781.00
648.47	26094.63
648.61	25703.76
648.76	25738.87
648.90	25553.97
649.05	25649.93
649.20	25663.97
649.34	25809.09
649.49	25277.79
649.63	25603.12
649.78	25577.37
649.92	25467.37
650.07	25404.17
650.21	25455.67
650.36	25469.71
650.51	25474.39
650.65	25834.83
650.80	25427.58
650.94	25282.47
651.09	25284.81
651.23	25067.14
651.38	25254.38
651.52	25078.84
651.67	25242.68
651.81	25137.35
651.96	25172.46
652.10	25357.36
652.25	25366.73
652.39	25315.23
652.54	25376.09
652.68	25397.15
652.83	25216.93
652.97	25603.12
653.12	25212.25
653.26	25123.31
653.41	25184.16
653.55	24505.41
653.70	25074.16
653.84	25029.69
653.99	25074.16
654.13	25207.57
654.27	25118.63
654.42	25380.77
654.56	24940.75
654.71	25156.08
654.85	25022.67
655.00	25296.51
655.14	24826.06
655.29	25039.05
655.43	24922.02
655.57	25156.08
655.72	24505.41
655.86	24943.09
656.01	24610.73
656.15	24566.26
656.30	25001.60
656.44	24657.54
656.58	24659.88
656.73	24683.29
656.87	24704.35
657.01	24676.27
657.16	24627.12
657.30	24795.64
657.45	24776.91
657.59	24709.04
657.73	24617.75
657.88	24952.45
658.02	24936.07
658.16	24575.62
658.31	24472.64
658.45	24671.59
658.60	24210.50
658.74	24465.62
658.88	24280.72
659.03	24772.23
659.17	24322.85
659.31	24367.32
659.46	24334.55
659.60	24425.83
659.74	24383.70
659.89	23999.85
660.03	24184.76
660.17	24339.23
660.32	24437.53
660.46	24287.74
660.60	23756.44
660.74	24102.84
660.89	24144.97
661.03	23555.15
661.17	23641.75
661.32	23700.26
661.46	24180.07
661.60	23798.57
661.74	23915.59
661.89	24095.82
662.03	23957.72
662.17	23789.20
662.31	23515.36
662.46	23913.25
662.60	23922.62
662.74	23529.41
662.88	23573.88
663.03	23494.30
663.17	23491.96
663.31	23316.42
663.45	23435.78
663.60	23293.01
663.74	23414.72
663.88	23293.01
664.02	23508.34
664.17	23630.05
664.31	23105.77
664.45	23000.44
664.59	23594.94
664.73	23386.63
664.88	23225.14
665.02	23197.05
665.16	23150.24
665.30	23096.41
665.44	23012.15
665.59	22579.15
665.73	22829.59
665.87	22740.64
666.01	23096.41
666.15	22824.90
666.29	23433.44
666.44	23070.66
666.58	22684.47
666.72	22874.06
666.86	22778.09
667.00	22867.03
667.14	23019.17
667.28	22473.82
667.43	22628.30
667.57	22710.22
667.71	22581.49
667.85	22740.64
667.99	22469.14
668.13	22600.21
668.27	22253.81
668.41	22970.02
668.56	22183.60
668.70	22476.16
668.84	22480.85
668.98	22422.33
669.12	22431.69
669.26	22658.73
669.40	22302.96
669.54	22326.37
669.68	22024.44
669.82	22132.11
669.96	21954.22
670.10	21706.13
670.25	21865.28
670.39	22127.42
670.53	21806.77
670.67	21940.18
670.81	22101.68
670.95	21785.71
671.09	21970.61
671.23	21858.26
671.37	21783.37
671.51	21940.18
671.65	21839.54
671.79	21692.08
671.93	21645.27
672.07	21979.97
672.21	21312.92
672.35	21535.27
672.49	21455.69
672.63	21205.25
672.77	21223.98
672.91	21287.17
673.05	21207.59
673.19	21273.13
673.33	21128.02
673.47	20884.60
673.61	20968.86
673.75	21202.91
673.89	21106.95
674.03	20926.73
674.17	21111.63
674.31	20952.48
674.45	20844.81
674.59	20819.07
674.73	20978.22
674.87	20889.28
675.01	20512.46
675.15	20393.09
675.29	20589.69
675.43	20528.84
675.56	20538.20
675.70	20561.61
675.84	20334.57
675.98	20119.24
676.12	20554.58
676.26	20648.21
676.40	20573.31
676.54	20397.77
676.68	20184.78
676.82	19784.55
676.96	19915.62
677.10	20025.62
677.23	19683.91
677.37	19520.07
677.51	19882.85
677.65	19672.20
677.79	19524.75
677.93	19599.65
678.07	19356.23
678.21	19288.35
678.34	19676.88
678.48	19515.39
678.62	19236.86
678.76	19243.88
678.90	19159.63
679.04	19295.38
679.18	19307.08
679.31	18944.30
679.45	18642.37
679.59	19084.73
679.73	18850.67
679.87	18698.54
680.00	18850.67
680.14	18733.65
680.28	18483.21
680.42	18342.78
680.56	18916.21
680.70	18464.49
680.83	18817.91
680.97	18642.37
681.11	18363.84
681.25	18420.02
681.39	18300.65
681.52	18305.33
681.66	18094.68
681.80	18125.11
681.94	17926.16
682.07	18197.67
682.21	17963.61
682.35	17734.24
682.49	17584.44
682.62	17537.63
682.76	17750.62
682.90	17717.86
683.04	17701.47
683.17	17640.62
683.31	17479.12
683.45	18082.98
683.59	17479.12
683.72	17451.03
683.86	17422.95
684.00	17231.02
684.13	17149.11
684.27	17116.34
684.41	17212.30
684.55	16798.02
684.68	16903.35
684.82	16947.82
684.96	16844.84
685.09	16945.48
685.23	16814.41
685.37	16765.26
685.50	16779.30
685.64	16945.48
685.78	17137.40
685.91	16711.42
686.05	16521.84
686.19	16704.40
686.32	16381.41
686.46	16418.86
686.60	16042.03
686.73	16290.13
686.87	16109.91
687.01	15910.96
687.14	15955.43
687.28	15854.79
687.42	15894.58
687.55	15983.52
687.69	16018.63
687.82	15719.04
687.96	15854.79
688.10	15630.10
688.23	15747.12
688.37	15590.31
688.50	15676.91
688.64	15639.46
688.78	15480.30
688.91	15374.98
689.05	15257.95
689.18	15276.68
689.32	14841.34
689.46	14991.13
689.59	14827.29
689.73	15075.39
689.86	15042.62
690.00	15122.20
690.13	14911.55
690.27	14775.80
690.41	14967.73
690.54	14841.34
690.68	14939.64
690.81	14668.14
690.95	14752.40
691.08	14960.70
691.22	14710.27
691.35	14466.85
691.49	14429.40
691.62	14717.29
691.76	14387.27
691.89	14403.66
692.03	14085.34
692.16	14134.50
692.30	13923.85
692.43	14270.25
692.57	13944.91
692.70	13764.69
692.84	13823.20
692.97	13678.09
693.11	13743.63
693.24	13851.29
693.38	13722.56
693.51	13540.00
693.65	13661.71
693.78	13650.00
693.92	13502.55
694.05	13406.59
694.19	13474.46
694.32	13322.33
694.45	13256.79
694.59	13128.06
694.72	13032.10
694.86	13170.19
694.99	13078.91
695.13	12982.95
695.26	12882.31
695.39	12713.79
695.53	12870.61
695.66	12844.86
695.80	12894.01
695.93	13015.72
696.07	12681.02
696.20	12662.30
696.33	12512.50
696.47	12638.89
696.60	12449.31
696.73	12575.70
696.87	12449.31
697.00	12475.06
697.14	12631.87
697.27	12182.49
697.40	12105.25
697.54	12264.41
697.67	12032.69
697.80	11974.18
697.94	12156.74
698.07	11953.12
698.21	11754.17
698.34	11850.13
698.47	12035.03
698.61	11775.24
698.74	11831.41
698.87	12006.95
699.01	11726.08
699.14	11384.37
699.27	11562.25
699.40	11487.35
699.54	11527.14
699.67	11386.71
699.80	11346.92
699.94	11159.67
700.07	11208.83
700.20	10860.09
700.34	11012.22
700.47	11119.89
700.60	10913.92
700.73	11030.94
700.87	10951.37
701.00	11061.37
701.13	11035.63
701.26	10817.96
701.40	10822.64
701.53	10738.38
701.66	10836.68
701.79	10806.25
701.93	10721.99
702.06	10621.35
702.19	10651.78
702.32	10609.65
702.46	10415.38
702.59	10352.19
702.72	10263.25
702.85	10373.25
702.99	10274.95
703.12	10136.86
703.25	10209.42
703.38	9991.75
703.51	10361.55
703.65	9975.36
703.78	9956.64
703.91	10178.99
704.04	10132.18
704.17	10024.51
704.31	9984.73
704.44	9951.96
704.57	9729.61
704.70	9743.65
704.83	9708.54
704.96	9387.89
705.10	9373.85
705.23	9476.83
>>>>>End Processed Spectral Data<<<<<
