SpectraSuite Data File
++++++++++++++++++++++++++++++++++++
Date: Fri Oct 18 13:58:01 GMT-05:00 2013
User: bianchi
Dark Spectrum Present: No
Reference Spectrum Present: No
Number of Sampled Component Spectra: 1
Spectrometers: USB2+H05261
Integration Time (usec): 50000 (USB2+H05261)
Spectra Averaged: 1 (USB2+H05261)
Boxcar Smoothing: 0 (USB2+H05261)
Correct for Electrical Dark: No (USB2+H05261)
Strobe/Lamp Enabled: No (USB2+H05261)
Correct for Detector Non-linearity: No (USB2+H05261)
Correct for Stray Light: No (USB2+H05261)
Number of Pixels in Processed Spectrum: 2048
>>>>>Begin Processed Spectral Data<<<<<
365.73	0.00
365.92	0.00
366.12	0.00
366.32	0.00
366.52	0.00
366.72	0.00
366.91	0.00
367.11	0.00
367.31	0.00
367.51	0.00
367.70	0.00
367.90	0.00
368.10	0.00
368.30	0.00
368.49	0.00
368.69	0.00
368.89	0.00
369.09	0.00
369.28	0.00
369.48	0.00
369.68	0.00
369.87	0.00
370.07	0.00
370.27	0.00
370.47	0.00
370.66	0.00
370.86	70.22
371.06	114.69
371.25	138.09
371.45	117.03
371.65	163.84
371.84	173.20
372.04	128.73
372.24	182.56
372.44	131.07
372.63	173.20
372.83	220.01
373.03	191.92
373.22	201.29
373.42	212.99
373.62	210.65
373.81	257.46
374.01	227.03
374.21	222.35
374.40	262.14
374.60	191.92
374.79	205.97
374.99	245.76
375.19	259.80
375.38	273.84
375.58	156.82
375.78	255.12
375.97	163.84
376.17	243.42
376.37	278.52
376.56	271.50
376.76	276.18
376.95	227.03
377.15	224.69
377.35	248.10
377.54	280.86
377.74	283.20
377.93	227.03
378.13	222.35
378.33	313.63
378.52	285.55
378.72	292.57
378.91	374.49
379.11	322.99
379.31	276.18
379.50	278.52
379.70	278.52
379.89	297.25
380.09	339.38
380.28	325.33
380.48	301.93
380.68	313.63
380.87	262.14
381.07	332.36
381.26	337.04
381.46	330.02
381.65	358.10
381.85	369.80
382.04	367.46
382.24	390.87
382.43	353.42
382.63	355.76
382.83	306.61
383.02	365.12
383.22	339.38
383.41	322.99
383.61	280.86
383.80	374.49
384.00	313.63
384.19	322.99
384.39	414.27
384.58	402.57
384.78	337.04
384.97	390.87
385.17	358.10
385.36	428.32
385.56	393.21
385.75	458.74
385.95	360.44
386.14	278.52
386.34	435.34
386.53	346.40
386.72	407.25
386.92	351.08
387.11	463.43
387.31	400.23
387.50	407.25
387.70	372.15
387.89	393.21
388.09	461.09
388.28	414.27
388.48	458.74
388.67	451.72
388.86	421.30
389.06	351.08
389.25	533.64
389.45	386.19
389.64	461.09
389.84	468.11
390.03	554.71
390.22	479.81
390.42	475.13
390.61	475.13
390.81	528.96
391.00	533.64
391.19	578.11
391.39	528.96
391.58	486.83
391.78	500.87
391.97	559.39
392.16	526.62
392.36	568.75
392.55	521.94
392.75	519.60
392.94	622.58
393.13	592.16
393.33	526.62
393.52	606.20
393.71	524.28
393.91	547.69
394.10	566.41
394.29	531.30
394.49	477.47
394.68	545.34
394.88	554.71
395.07	585.13
395.26	627.26
395.46	580.45
395.65	603.86
395.84	545.34
396.04	655.35
396.23	638.97
396.42	620.24
396.62	685.78
396.81	685.78
397.00	685.78
397.19	660.03
397.39	784.08
397.58	758.33
397.77	606.20
397.97	638.97
398.16	678.76
398.35	671.73
398.55	624.92
398.74	748.97
398.93	758.33
399.12	660.03
399.32	678.76
399.51	713.86
399.70	744.29
399.90	699.82
400.09	709.18
400.28	765.36
400.47	727.91
400.67	758.33
400.86	849.61
401.05	826.21
401.24	765.36
401.44	774.72
401.63	875.36
401.82	784.08
402.01	849.61
402.21	793.44
402.40	858.98
402.59	889.40
402.78	788.76
402.97	856.64
403.17	840.25
403.36	847.27
403.55	919.83
403.74	905.79
403.93	922.17
404.13	887.06
404.32	823.87
404.51	929.19
404.70	959.62
404.89	959.62
405.09	877.70
405.28	947.92
405.47	964.30
405.66	990.05
405.85	1048.56
406.05	851.96
406.24	978.34
406.43	992.39
406.62	1039.20
406.81	992.39
407.00	994.73
407.20	968.98
407.39	1076.65
407.58	978.34
407.77	1064.94
407.96	1097.71
408.15	964.30
408.34	1093.03
408.54	1107.07
408.73	1165.59
408.92	1102.39
409.11	1088.35
409.30	1069.62
409.49	1114.10
409.68	1121.12
409.87	1083.67
410.07	1210.06
410.26	1217.08
410.45	1093.03
410.64	1210.06
410.83	1160.91
411.02	1188.99
411.21	1196.01
411.40	1245.16
411.59	1306.02
411.78	1284.95
411.98	1322.40
412.17	1308.36
412.36	1270.91
412.55	1275.59
412.74	1308.36
412.93	1299.00
413.12	1373.89
413.31	1465.18
413.50	1409.00
413.69	1242.82
413.88	1441.77
414.07	1432.41
414.26	1465.18
414.45	1392.62
414.64	1423.05
414.83	1495.60
415.02	1441.77
415.22	1577.52
415.41	1540.07
415.60	1441.77
415.79	1535.39
415.98	1507.30
416.17	1575.18
416.36	1579.86
416.55	1549.43
416.74	1682.85
416.93	1661.78
417.12	1687.53
417.31	1638.38
417.50	1732.00
417.69	1858.39
417.88	1811.57
418.07	1720.29
418.26	1720.29
418.45	1781.15
418.64	1816.26
418.83	1713.27
419.02	1760.08
419.21	1811.57
419.39	1825.62
419.58	1783.49
419.77	1727.32
419.96	1928.60
420.15	1970.73
420.34	1893.49
420.53	1870.09
420.72	1776.47
420.91	1902.86
421.10	1919.24
421.29	1909.88
421.48	1923.92
421.67	1994.14
421.86	1881.79
422.05	1994.14
422.24	2010.52
422.43	1963.71
422.61	1980.09
422.80	1942.64
422.99	1984.77
423.18	1989.46
423.37	2064.35
423.56	2008.18
423.75	1944.99
423.94	1959.03
424.13	1884.13
424.32	1973.07
424.50	2101.80
424.69	2001.16
424.88	2106.48
425.07	1973.07
425.26	2003.50
425.45	2047.97
425.64	1996.48
425.83	1987.11
426.01	2183.72
426.20	2022.22
426.39	2071.37
426.58	1980.09
426.77	2097.12
426.96	2101.80
427.15	2022.22
427.33	2167.34
427.52	2282.02
427.71	2099.46
427.90	2118.18
428.09	2235.21
428.28	2277.34
428.46	2293.72
428.65	2223.51
428.84	2214.15
429.03	2211.81
429.22	2270.32
429.40	2370.96
429.59	2207.13
429.78	2153.29
429.97	2204.78
430.16	2176.70
430.34	2258.62
430.53	2385.01
430.72	2286.70
430.91	2305.43
431.10	2197.76
431.28	2354.58
431.47	2354.58
431.66	2427.14
431.85	2373.30
432.03	2455.22
432.22	2422.45
432.41	2450.54
432.60	2340.54
432.79	2562.89
432.97	2420.11
433.16	2394.37
433.35	2431.82
433.54	2544.16
433.72	2546.50
433.91	2450.54
434.10	2588.63
434.28	2469.27
434.47	2572.25
434.66	2537.14
434.85	2628.42
435.03	2637.78
435.22	2586.29
435.41	2670.55
435.59	2586.29
435.78	2574.59
435.97	2635.44
436.16	2656.51
436.34	2637.78
436.53	2672.89
436.72	2780.56
436.90	2663.53
437.09	2719.70
437.28	2724.38
437.46	2602.68
437.65	2846.09
437.84	2691.62
438.02	2700.98
438.21	2836.73
438.40	2740.77
438.58	2764.17
438.77	2888.22
438.96	2986.52
439.14	2958.44
439.33	3068.44
439.52	3014.61
439.70	2977.16
439.89	3012.27
440.08	3117.59
440.26	2972.48
440.45	2998.23
440.63	3052.06
440.82	3049.72
441.01	3094.19
441.19	3073.12
441.38	3098.87
441.57	3166.74
441.75	3262.71
441.94	3183.13
442.12	3248.66
442.31	3382.07
442.50	3255.69
442.68	3325.90
442.87	3260.37
443.05	3349.31
443.24	3452.29
443.43	3468.67
443.61	3419.52
443.80	3365.69
443.98	3281.43
444.17	3248.66
444.35	3386.76
444.54	3485.06
444.73	3456.97
444.91	3482.72
445.10	3527.19
445.28	3459.31
445.47	3473.36
445.65	3478.04
445.84	3510.80
446.02	3442.93
446.21	3358.67
446.39	3410.16
446.58	3478.04
446.77	3426.54
446.95	3534.21
447.14	3555.27
447.32	3466.33
447.51	3449.95
447.69	3515.48
447.88	3489.74
448.06	3543.57
448.25	3517.83
448.43	3534.21
448.62	3590.38
448.80	3602.08
448.99	3471.01
449.17	3672.30
449.36	3555.27
449.54	3604.42
449.73	3522.51
449.91	3543.57
450.10	3812.73
450.28	3824.44
450.46	3775.28
450.65	3882.95
450.83	3817.41
451.02	3873.59
451.20	3810.39
451.39	3829.12
451.57	3740.18
451.76	3735.50
451.94	3796.35
452.13	4028.06
452.31	3845.50
452.49	3676.98
452.68	3770.60
452.86	3812.73
453.05	3943.80
453.23	3971.89
453.42	3960.19
453.60	3742.52
453.78	4014.02
453.97	3915.72
454.15	3878.27
454.34	3894.65
454.52	3957.85
454.70	4030.40
454.89	3894.65
455.07	4035.08
455.26	3932.10
455.44	4212.96
455.62	4117.00
455.81	4049.13
455.99	4140.41
456.17	4084.23
456.36	4114.66
456.54	4229.35
456.73	4313.61
456.91	4227.01
457.09	4329.99
457.28	4428.29
457.46	4203.60
457.64	4355.74
457.83	4283.18
458.01	4283.18
458.19	4337.01
458.38	4379.14
458.56	4547.66
458.74	4409.57
458.93	4374.46
459.11	4376.80
459.29	4468.08
459.48	4360.42
459.66	4472.76
459.84	4596.81
460.03	4676.39
460.21	4608.51
460.39	4610.86
460.57	4388.50
460.76	4535.96
460.94	4622.56
461.12	4711.50
461.31	4664.69
461.49	4650.64
461.67	4643.62
461.85	4758.31
462.04	4559.36
462.22	5027.47
462.40	4753.63
462.59	4542.98
462.77	4802.78
462.95	4741.93
463.13	4741.93
463.32	4772.35
463.50	4791.08
463.68	4926.83
463.86	4964.28
464.05	4755.97
464.23	4973.64
464.41	4858.95
464.59	4744.27
464.78	4961.94
464.96	4870.65
465.14	4798.10
465.32	5036.83
465.50	5069.60
465.69	4975.98
465.87	5069.60
466.05	4952.57
466.23	5053.22
466.41	5090.67
466.60	5100.03
466.78	5146.84
466.96	5273.23
467.14	5043.85
467.32	5081.30
467.51	5210.03
467.69	5071.94
467.87	5256.84
468.05	5160.88
468.23	5149.18
468.41	5156.20
468.60	5221.74
468.78	5334.08
468.96	5130.45
469.14	5280.25
469.32	5418.34
469.50	5242.80
469.69	5430.04
469.87	5413.66
470.05	5411.32
470.23	5399.62
470.41	5406.64
470.59	5420.68
470.77	5401.96
470.95	5345.78
471.14	5448.77
471.32	5554.09
471.50	5673.46
471.68	5617.29
471.86	5535.37
472.04	5563.45
472.22	5792.83
472.40	5809.21
472.58	5692.18
472.77	5738.99
472.95	5933.26
473.13	5963.68
473.31	5760.06
473.49	5970.71
473.67	5865.38
473.85	5966.03
474.03	6097.10
474.21	6019.86
474.39	6101.78
474.57	6214.12
474.75	6069.01
474.93	6169.65
475.12	6139.23
475.30	6207.10
475.48	6108.80
475.66	6338.17
475.84	6377.96
476.02	6380.30
476.20	6209.44
476.38	6562.86
476.56	6658.82
476.74	6817.98
476.92	6609.67
477.10	6487.96
477.28	6647.12
477.46	6619.04
477.64	6586.27
477.82	6750.10
478.00	6885.86
478.18	6935.01
478.36	6869.47
478.54	7000.54
478.72	7286.09
478.90	7236.94
479.08	7045.01
479.26	7339.92
479.44	7297.79
479.62	7356.30
479.80	7346.94
479.98	7391.41
480.16	7578.65
480.34	7470.99
480.52	7667.60
480.70	7634.83
480.88	7461.63
481.06	7847.82
481.24	7609.08
481.41	7953.14
481.59	8035.06
481.77	7960.16
481.95	8081.87
482.13	8126.34
482.31	8184.85
482.49	8234.00
482.67	8271.45
482.85	8514.87
483.03	8587.43
483.21	8477.42
483.39	8596.79
483.57	8620.19
483.74	8631.90
483.92	8517.21
484.10	8692.75
484.28	9036.81
484.46	9088.30
484.64	9277.88
484.82	8915.10
485.00	8997.02
485.18	9392.57
485.35	9310.65
485.53	9268.52
485.71	9327.03
485.89	9542.36
486.07	9525.98
486.25	9495.55
486.43	9708.54
486.61	9678.12
486.78	9853.66
486.96	9963.66
487.14	9848.97
487.32	10052.60
487.50	10207.08
487.68	10244.52
487.85	10705.61
488.03	10450.49
488.21	10679.86
488.39	10480.92
488.57	10729.02
488.75	10745.40
488.92	11023.92
489.10	10855.40
489.28	10942.00
489.46	10974.77
489.64	11035.63
489.81	11344.58
489.99	11353.94
490.17	11463.94
490.35	11431.18
490.53	11398.41
490.70	11595.01
490.88	11489.69
491.06	11580.97
491.24	11733.11
491.41	11688.64
491.59	12133.34
491.77	11955.46
491.95	12189.51
492.13	12292.49
492.30	12140.36
492.48	12329.94
492.66	12388.46
492.84	12351.01
493.01	12657.62
493.19	12592.08
493.37	12903.37
493.54	12760.60
493.72	12896.35
493.90	12709.11
494.08	12784.01
494.25	13167.85
494.43	13233.39
494.61	13315.31
494.79	13151.47
494.96	13184.24
495.14	13270.84
495.32	13579.79
495.49	13514.25
495.67	13542.34
495.85	13621.92
496.02	13811.50
496.20	13767.03
496.38	14001.08
496.55	13895.76
496.73	14214.07
496.91	14225.78
497.09	14202.37
497.26	14190.67
497.44	14394.29
497.62	14508.98
497.79	14700.90
497.97	14593.24
498.14	14700.90
498.32	14841.34
498.50	14750.06
498.67	15059.01
498.85	15159.65
499.03	14979.43
499.20	14918.57
499.38	15459.24
499.56	15433.49
499.73	15548.18
499.91	15360.94
500.08	15489.67
500.26	15218.16
500.44	15463.92
500.61	15197.10
500.79	15641.80
500.97	15864.15
501.14	16042.03
501.32	15822.02
501.49	15969.48
501.67	16004.58
501.84	15763.51
502.02	16168.42
502.20	16032.67
502.37	16308.85
502.55	16142.67
502.72	16109.91
502.90	16121.61
503.07	15962.45
503.25	16257.36
503.43	16414.18
503.60	16486.73
503.78	16793.34
503.95	16655.25
504.13	16561.63
504.30	16430.56
504.48	16650.57
504.65	16664.61
504.83	17003.99
505.01	17078.89
505.18	17106.98
505.36	17179.53
505.53	16737.17
505.71	17123.36
505.88	17158.47
506.06	16875.26
506.23	17329.33
506.41	17214.64
506.58	17525.93
506.76	17247.41
506.93	16933.78
507.11	17486.14
507.28	17628.92
507.46	17528.27
507.63	17603.17
507.81	17853.61
507.98	17935.53
508.16	17830.20
508.33	18043.19
508.50	17806.80
508.68	18050.21
508.85	18162.56
509.03	18090.00
509.20	18143.83
509.38	18249.16
509.55	18593.22
509.73	18415.34
509.90	18459.81
510.08	18537.04
510.25	18574.49
510.42	18398.95
510.60	18600.24
510.77	18782.80
510.95	18813.23
511.12	18541.72
511.30	18530.02
511.47	18775.78
511.64	18860.04
511.82	19161.97
511.99	18773.44
512.17	19075.37
512.34	19126.86
512.51	19407.72
512.69	19143.24
512.86	19136.22
513.04	19293.04
513.21	19620.71
513.38	19583.26
513.56	19314.10
513.73	19571.56
513.90	19566.88
514.08	19330.48
514.25	19679.22
514.43	19704.97
514.60	19763.48
514.77	19702.63
514.95	19885.19
515.12	19442.83
515.29	20039.67
515.47	20018.60
515.64	20121.59
515.81	20245.63
515.99	20271.38
516.16	20243.29
516.33	20554.58
516.51	20613.10
516.68	20276.06
516.85	20500.75
517.03	20290.10
517.20	20538.20
517.37	20435.22
517.54	20767.57
517.72	20676.29
517.89	20243.29
518.06	20798.00
518.24	20758.21
518.41	20922.05
518.58	20900.98
518.75	20805.02
518.93	20947.79
519.10	20900.98
519.27	21118.65
519.45	20973.54
519.62	21060.14
519.79	21001.63
519.96	21275.47
520.14	21106.95
520.31	21142.06
520.48	21495.48
520.65	21488.46
520.83	21626.55
521.00	21537.61
521.17	21167.80
521.34	21834.86
521.52	21743.58
521.69	21556.33
521.86	21795.07
522.03	21741.24
522.20	21958.91
522.38	21802.09
522.55	21764.64
522.72	21837.20
522.89	22274.88
523.07	21944.86
523.24	22188.28
523.41	22267.86
523.58	22139.13
523.75	22459.78
523.92	22026.78
524.10	21942.52
524.27	22305.31
524.44	22251.47
524.61	22803.84
524.78	22623.62
524.96	22403.61
525.13	22328.71
525.30	22375.52
525.47	22483.19
525.64	22679.79
525.81	22735.96
525.98	22974.70
526.16	23047.26
526.33	22876.40
526.50	22789.80
526.67	22815.54
526.84	22883.42
527.01	23122.15
527.18	23012.15
527.36	22920.87
527.53	22537.02
527.70	23391.31
527.87	23330.46
528.04	23147.90
528.21	22991.08
528.38	23302.37
528.55	23377.27
528.72	23569.19
528.89	23550.47
529.07	23433.44
529.24	23363.23
529.41	23690.90
529.58	23524.72
529.75	23372.59
529.92	23672.18
530.09	23768.14
530.26	23728.35
530.43	23939.00
530.60	23637.07
530.77	23587.92
530.94	23805.59
531.11	23391.31
531.28	23672.18
531.46	23857.08
531.63	23793.89
531.80	24163.69
531.97	24105.18
532.14	24259.65
532.31	24023.26
532.48	23988.15
532.65	24535.84
532.82	24140.29
532.99	24266.67
533.16	24257.31
533.33	24521.79
533.50	24730.10
533.67	24540.52
533.84	24362.64
534.01	24367.32
534.18	24664.57
534.35	24613.07
534.52	24554.56
534.69	24629.46
534.86	24919.68
535.03	24474.98
535.20	24793.29
535.37	24816.70
535.54	24531.15
535.71	24786.27
535.88	24996.92
536.05	24912.66
536.22	25116.29
536.38	25378.43
536.55	25050.75
536.72	24821.38
536.89	25010.96
537.06	24926.71
537.23	24779.25
537.40	25345.66
537.57	25200.55
537.74	25366.73
537.91	25591.42
538.08	25235.66
538.25	25310.55
538.42	24961.81
538.59	25465.03
538.75	25450.99
538.92	25497.80
539.09	25521.20
539.26	25729.51
539.43	25795.04
539.60	25446.30
539.77	25390.13
539.94	25776.32
540.11	25722.49
540.28	25640.57
540.44	25734.19
540.61	25738.87
540.78	25481.41
540.95	25525.88
541.12	25947.18
541.29	26005.69
541.46	25809.09
541.62	25923.77
541.79	25893.35
541.96	25647.59
542.13	25986.97
542.30	25951.86
542.47	26256.13
542.63	26359.11
542.80	26415.29
542.97	26738.28
543.14	26279.54
543.31	26118.04
543.48	26253.79
543.64	26731.26
543.81	26939.57
543.98	26822.54
544.15	26593.17
544.32	26785.09
544.48	26595.51
544.65	26806.16
544.82	26920.84
544.99	26340.39
545.16	26546.36
545.32	26803.82
545.49	27154.90
545.66	26955.95
545.83	26946.59
546.00	26932.54
546.16	26555.72
546.33	26611.89
546.50	26284.22
546.67	27159.58
546.83	26642.32
547.00	26986.38
547.17	27110.43
547.34	26972.33
547.50	26857.65
547.67	27248.52
547.84	27370.22
548.00	27232.13
548.17	27285.97
548.34	27285.97
548.51	27400.65
548.67	27220.43
548.84	27201.71
549.01	27442.78
549.18	27580.87
549.34	27201.71
549.51	27316.39
549.68	27304.69
549.84	26927.86
550.01	27318.73
550.18	27211.07
550.34	27803.22
550.51	27674.49
550.68	27775.14
550.84	27573.85
551.01	27555.13
551.18	27697.90
551.34	27665.13
551.51	27417.04
551.68	27831.31
551.84	27892.16
552.01	27674.49
552.18	27927.27
552.34	27924.93
552.51	28048.98
552.68	27903.87
552.84	27716.62
553.01	27564.49
553.18	27639.39
553.34	28063.02
553.51	27927.27
553.67	28161.33
553.84	28154.30
554.01	28116.86
554.17	28067.70
554.34	27955.36
554.51	27948.34
554.67	28210.48
554.84	28086.43
555.00	28217.50
555.17	28175.37
555.33	28027.92
555.50	27859.40
555.67	28233.88
555.83	28566.24
556.00	28430.49
556.16	28458.57
556.33	28027.92
556.50	28271.33
556.66	28652.84
556.83	28645.82
556.99	28360.27
557.16	28774.55
557.32	28573.26
557.49	28451.55
557.65	28535.81
557.82	28226.86
557.98	28098.13
558.15	28367.29
558.32	28606.03
558.48	28334.53
558.65	28723.05
558.81	28727.74
558.98	28741.78
559.14	28989.88
559.31	28620.07
559.47	28893.91
559.64	28634.11
559.80	29188.82
559.97	28858.81
560.13	28767.52
560.30	28582.62
560.46	28432.83
560.63	29495.43
560.79	29003.92
560.96	29177.12
561.12	28978.17
561.29	28797.95
561.45	28975.83
561.61	28772.21
561.78	28933.70
561.94	29198.18
562.11	29165.42
562.27	28900.94
562.44	28854.12
562.60	29027.32
562.77	29017.96
562.93	28964.13
563.10	29572.67
563.26	29123.29
563.42	29392.45
563.59	29120.95
563.75	28987.53
563.92	29104.56
564.08	28863.49
564.24	29191.16
564.41	29191.16
564.57	28797.95
564.74	29156.05
564.90	29387.77
565.07	29261.38
565.23	29074.13
565.39	29015.62
565.56	29270.74
565.72	29605.44
565.88	29120.95
566.05	29118.60
566.21	29516.50
566.38	29273.08
566.54	29181.80
566.70	29446.28
566.87	29661.61
567.03	29818.42
567.19	29635.86
567.36	29305.85
567.52	28994.56
567.68	29469.69
567.85	29336.27
568.01	29778.64
568.17	29413.51
568.34	29586.71
568.50	29095.20
568.66	29483.73
568.83	29418.19
568.99	29455.64
569.15	29549.26
569.32	29516.50
569.48	28926.68
569.64	29525.86
569.81	29659.27
569.97	29750.55
570.13	29607.78
570.30	29502.45
570.46	29837.15
570.62	29626.50
570.78	29626.50
570.95	29699.06
571.11	29720.12
571.27	29357.34
571.43	29418.19
571.60	29603.10
571.76	29736.51
571.92	29881.62
572.09	29898.00
572.25	29565.65
572.41	29439.26
572.57	29624.16
572.74	29912.05
572.90	29532.88
573.06	29659.27
573.22	29820.77
573.38	30022.05
573.55	29809.06
573.71	29769.27
573.87	30043.12
574.03	29689.70
574.20	29614.80
574.36	29472.03
574.52	29914.39
574.68	29352.66
574.84	29762.25
575.01	29851.19
575.17	29668.63
575.33	29715.44
575.49	29563.31
575.65	29713.10
575.82	30136.74
575.98	29539.90
576.14	29638.20
576.30	29951.84
576.46	29706.08
576.62	29736.51
576.79	29556.28
576.95	29544.58
577.11	30085.25
577.27	30288.87
577.43	30345.05
577.59	29738.85
577.75	29390.11
577.92	29598.41
578.08	29687.36
578.24	29535.22
578.40	29701.40
578.56	30099.29
578.72	29937.79
578.88	30120.35
579.04	30228.02
579.21	29935.45
579.37	29982.26
579.53	29724.80
579.69	29724.80
579.85	29940.13
580.01	30129.72
580.17	29408.83
580.33	30024.39
580.49	29745.87
580.65	30078.22
580.82	29853.53
580.98	30110.99
581.14	29797.36
581.30	29956.52
581.46	30036.09
581.62	29748.21
581.78	29350.32
581.94	29708.42
582.10	29462.66
582.26	29846.51
582.42	30176.53
582.58	30363.77
582.74	30169.51
582.90	30005.67
583.06	30003.33
583.22	29940.13
583.38	30139.08
583.54	29989.28
583.70	30127.38
583.86	29958.86
584.02	29823.11
584.18	30202.27
584.34	30206.95
584.50	30129.72
584.66	30143.76
584.82	29902.68
584.98	30087.59
585.14	29905.02
585.30	30094.61
585.46	29818.42
585.62	29661.61
585.78	29874.60
585.94	29806.72
586.10	30316.96
586.26	30265.47
586.42	30115.67
586.58	30298.23
586.74	30094.61
586.90	29745.87
587.06	29565.65
587.22	29909.71
587.38	29867.58
587.54	29488.41
587.70	30321.64
587.86	29862.90
588.02	30120.35
588.18	30270.15
588.34	30515.90
588.49	30181.21
588.65	29986.94
588.81	29862.90
588.97	30637.61
589.13	30293.55
589.29	30036.09
589.45	30396.54
589.61	30410.58
589.77	30153.12
589.93	30321.64
590.08	30335.68
590.24	30120.35
590.40	30644.63
590.56	30169.51
590.72	30108.65
590.88	29902.68
591.04	30249.08
591.20	30735.92
591.35	30707.83
591.51	30469.09
591.67	30712.51
591.83	30401.22
591.99	30445.69
592.15	30618.89
592.31	30588.46
592.46	30576.76
592.62	30431.65
592.78	30169.51
592.94	30092.27
593.10	30176.53
593.26	30342.70
593.41	30661.02
593.57	30443.35
593.73	30548.67
593.89	30698.47
594.05	30787.41
594.20	30513.56
594.36	30649.32
594.52	30167.16
594.68	30492.50
594.84	30029.07
594.99	30754.64
595.15	30438.67
595.31	30621.23
595.47	30405.90
595.62	31204.02
595.78	30249.08
595.94	30726.55
596.10	30321.64
596.25	30398.88
596.41	30733.57
596.57	30555.69
596.73	30611.87
596.88	30799.11
597.04	30871.67
597.20	30639.95
597.36	30609.53
597.51	30728.89
597.67	30579.10
597.83	30623.57
597.99	30682.08
598.14	30759.32
598.30	30560.37
598.46	30682.08
598.61	30256.11
598.77	30291.21
598.93	30728.89
599.09	30944.22
599.24	30904.43
599.40	30923.16
599.56	30642.29
599.71	30576.76
599.87	30759.32
600.03	30714.85
600.18	30632.93
600.34	30487.82
600.50	30415.26
600.65	30831.88
600.81	30953.58
600.97	30965.29
601.12	30934.86
601.28	30796.77
601.44	30766.34
601.59	30951.24
601.75	30745.28
601.91	30960.61
602.06	30410.58
602.22	30417.60
602.37	30511.22
602.53	30331.00
602.69	30864.64
602.84	30480.80
603.00	30806.13
603.16	31026.14
603.31	30927.84
603.47	30642.29
603.62	30600.16
603.78	30384.83
603.94	30588.46
604.09	30632.93
604.25	30295.89
604.40	30806.13
604.56	30810.81
604.71	30827.20
604.87	30747.62
605.03	30792.09
605.18	30981.67
605.34	30934.86
605.49	30494.84
605.65	30696.13
605.80	30426.96
605.96	30314.62
606.12	30326.32
606.27	30679.74
606.43	30438.67
606.58	30431.65
606.74	30490.16
606.89	30141.42
607.05	31065.93
607.20	30700.81
607.36	30426.96
607.51	30686.76
607.67	30541.65
607.82	30103.97
607.98	30689.10
608.13	30426.96
608.29	30637.61
608.44	30651.66
608.60	30422.28
608.75	30607.19
608.91	30890.39
609.06	30323.98
609.22	30642.29
609.37	30286.53
609.53	30293.55
609.68	30342.70
609.84	30143.76
609.99	30167.16
610.15	30377.81
610.30	30216.32
610.46	30265.47
610.61	30623.57
610.76	30462.07
610.92	30354.41
611.07	30195.25
611.23	30445.69
611.38	30370.79
611.54	30139.08
611.69	30103.97
611.84	30054.82
612.00	30368.45
612.15	30197.59
612.31	30443.35
612.46	30284.19
612.62	30288.87
612.77	30132.06
612.92	30700.81
613.08	30096.95
613.23	30153.12
613.39	29937.79
613.54	29893.32
613.69	30125.04
613.85	29940.13
614.00	29869.92
614.15	30323.98
614.31	30015.03
614.46	30293.55
614.62	30183.55
614.77	30314.62
614.92	30176.53
615.08	29905.02
615.23	30031.41
615.38	30309.94
615.54	30101.63
615.69	29947.15
615.84	29734.17
616.00	30258.45
616.15	30129.72
616.30	29717.78
616.46	29879.28
616.61	29954.18
616.76	30057.16
616.92	29855.87
617.07	30244.40
617.22	29876.94
617.37	29535.22
617.53	29947.15
617.68	29369.04
617.83	29750.55
617.99	29596.07
618.14	29977.58
618.29	29666.29
618.45	29720.12
618.60	29546.92
618.75	29797.36
618.90	29563.31
619.06	29668.63
619.21	29514.16
619.36	29816.08
619.51	29322.23
619.67	29102.22
619.82	29549.26
619.97	29249.67
620.12	29340.96
620.28	29184.14
620.43	29944.81
620.58	29521.18
620.73	29642.88
620.89	29633.52
621.04	29820.77
621.19	29532.88
621.34	29457.98
621.49	29411.17
621.65	29207.55
621.80	29347.98
621.95	29284.78
622.10	29378.40
622.25	29317.55
622.41	29242.65
622.56	29076.48
622.71	29202.86
622.86	29413.51
623.01	29146.69
623.16	29139.67
623.32	29160.73
623.47	29345.64
623.62	28840.08
623.77	28980.51
623.92	29277.76
624.07	29083.50
624.23	29020.30
624.38	29212.23
624.53	29254.36
624.68	29420.53
624.83	28711.35
624.98	29053.07
625.13	28870.51
625.29	29097.54
625.44	29006.26
625.59	29010.94
625.74	28727.74
625.89	28694.97
626.04	28804.97
626.19	28746.46
626.34	28676.24
626.49	28783.91
626.65	28835.40
626.80	28842.42
626.95	28608.37
627.10	28739.44
627.25	28748.80
627.40	28746.46
627.55	28746.46
627.70	28528.79
627.85	28606.03
628.00	28386.02
628.15	28189.41
628.30	28442.19
628.45	28184.73
628.60	28285.37
628.76	28556.88
628.91	28156.64
629.06	28535.81
629.21	28706.67
629.36	28425.81
629.51	28561.56
629.66	28819.02
629.81	28491.34
629.96	28130.90
630.11	28133.24
630.26	28095.79
630.41	28168.35
630.56	28027.92
630.71	28584.96
630.86	28388.36
631.01	28437.51
631.16	28128.56
631.31	28041.96
631.46	28582.62
631.61	28236.22
631.76	28170.69
631.91	28348.57
632.06	27658.11
632.21	28168.35
632.36	28116.86
632.51	28023.23
632.66	27857.06
632.81	27850.03
632.96	27983.44
633.10	27756.41
633.25	28208.14
633.40	28105.15
633.55	28369.63
633.70	27871.10
633.85	27545.76
634.00	28077.07
634.15	27798.54
634.30	27604.28
634.45	27707.26
634.60	27908.55
634.75	27683.86
634.90	27814.93
635.05	28107.49
635.19	27646.41
635.34	28098.13
635.49	27754.07
635.64	27957.70
635.79	27910.89
635.94	27821.95
636.09	27971.74
636.24	27576.19
636.39	27356.18
636.53	27646.41
636.68	27520.02
636.83	27583.21
636.98	27733.01
637.13	27681.52
637.28	27641.73
637.43	27552.79
637.57	27587.89
637.72	27517.68
637.87	27725.99
638.02	27129.15
638.17	27681.52
638.32	27459.16
638.46	27150.21
638.61	27115.11
638.76	27328.10
638.91	27281.28
639.06	27255.54
639.20	27578.53
639.35	27370.22
639.50	27487.25
639.65	27391.29
639.80	27754.07
639.94	27393.63
640.09	27424.06
640.24	27105.74
640.39	27353.84
640.54	27302.35
640.68	27016.80
640.83	26852.97
640.98	26899.78
641.13	26981.70
641.27	27152.55
641.42	26864.67
641.57	27110.43
641.72	27377.25
641.86	26747.64
642.01	26705.51
642.16	27028.51
642.31	26759.34
642.45	27007.44
642.60	26848.29
642.75	26899.78
642.90	26740.62
643.04	26649.34
643.19	26710.19
643.34	26892.76
643.48	27030.85
643.63	26946.59
643.78	26658.70
643.93	26855.31
644.07	26864.67
644.22	26878.71
644.37	26754.66
644.51	26855.31
644.66	26490.18
644.81	26693.81
644.95	26944.25
645.10	26448.05
645.25	26703.17
645.39	26871.69
645.54	26602.53
645.69	26518.27
645.83	26700.83
645.98	26555.72
646.13	26520.61
646.27	26506.57
646.42	26588.49
646.57	26717.22
646.71	26349.75
646.86	26632.96
647.00	26654.02
647.15	26354.43
647.30	26476.14
647.44	26230.38
647.59	26242.09
647.74	26565.08
647.88	26258.47
648.03	26293.58
648.17	26356.77
648.32	26370.82
648.47	26403.58
648.61	26204.64
648.76	26185.91
648.90	26347.41
649.05	26387.20
649.20	26211.66
649.34	26242.09
649.49	26164.85
649.63	26228.04
649.78	26258.47
649.92	25663.97
650.07	26052.50
650.21	25755.26
650.36	26125.06
650.51	25961.22
650.65	25933.14
650.80	26387.20
650.94	26089.95
651.09	26129.74
651.23	25830.15
651.38	26008.03
651.52	25771.64
651.67	26171.87
651.81	26272.51
651.96	25532.90
652.10	26118.04
652.25	26122.72
652.39	26036.12
652.54	25844.20
652.68	26022.08
652.83	25710.78
652.97	26279.54
653.12	25781.00
653.26	25902.71
653.41	25876.96
653.55	25596.10
653.70	25535.24
653.84	25649.93
653.99	25689.72
654.13	25333.96
654.27	26089.95
654.42	25888.67
654.56	25319.92
654.71	25893.35
654.85	25518.86
655.00	25968.24
655.14	25420.56
655.29	25876.96
655.43	25577.37
655.57	25673.34
655.72	25490.77
655.86	25645.25
656.01	25455.67
656.15	25249.70
656.30	25759.94
656.44	25263.74
656.58	25095.22
656.73	25355.02
656.87	25022.67
657.01	25249.70
657.16	25481.41
657.30	25146.72
657.45	25139.69
657.59	25170.12
657.73	25015.65
657.88	25266.08
658.02	25329.28
658.16	24999.26
658.31	25151.40
658.45	25015.65
658.60	24662.22
658.74	25174.80
658.88	25085.86
659.03	25099.90
659.17	24996.92
659.31	25153.74
659.46	24971.18
659.60	25345.66
659.74	24875.21
659.89	25097.56
660.03	24723.08
660.17	24507.75
660.32	24706.70
660.46	24788.61
660.60	24538.18
660.74	24673.93
660.89	24191.78
661.03	24414.13
661.17	24308.80
661.32	24844.79
661.46	24503.07
661.60	24634.14
661.74	24613.07
661.89	24367.32
662.03	24559.24
662.17	24638.82
662.31	24063.05
662.46	24517.11
662.60	24137.94
662.74	24245.61
662.88	24159.01
663.03	23791.55
663.17	24016.24
663.31	23861.76
663.45	24379.02
663.60	23814.95
663.74	23805.59
663.88	24144.97
664.02	23695.58
664.17	23985.81
664.31	24123.90
664.45	24154.33
664.59	23892.19
664.73	24039.64
664.88	23723.67
665.02	23627.71
665.16	23585.58
665.30	23964.75
665.44	23604.30
665.59	23220.45
665.73	23847.72
665.87	23557.49
666.01	23819.63
666.15	23414.72
666.29	23569.19
666.44	23211.09
666.58	23396.00
666.72	23124.49
666.86	23550.47
667.00	23484.94
667.14	23171.30
667.28	23424.08
667.43	23042.57
667.57	23283.65
667.71	23374.93
667.85	23119.81
667.99	22991.08
668.13	23051.94
668.27	23159.60
668.41	22878.74
668.56	22824.90
668.70	22923.21
668.84	22712.56
668.98	23168.96
669.12	22670.43
669.26	22941.93
669.40	22677.45
669.54	22892.78
669.68	22719.58
669.82	22808.52
669.96	22544.04
670.10	22553.40
670.25	22712.56
670.39	22328.71
670.53	22272.54
670.67	22427.01
670.81	22632.98
670.95	22382.54
671.09	22347.44
671.23	22148.49
671.37	22581.49
671.51	22174.24
671.65	22342.75
671.79	22164.87
671.93	21977.63
672.07	21956.57
672.21	21912.10
672.35	21729.53
672.49	21638.25
672.63	21647.61
672.77	22082.95
672.91	21837.20
673.05	21605.49
673.19	21914.44
673.33	21895.71
673.47	21532.93
673.61	21963.59
673.75	21603.14
673.89	21626.55
674.03	21486.12
674.17	21486.12
674.31	21132.70
674.45	21240.36
674.59	21345.69
674.73	21284.83
674.87	21504.84
675.01	21205.25
675.15	20994.61
675.29	21088.23
675.43	20882.26
675.56	20809.70
675.70	20746.51
675.84	21041.42
675.98	20568.63
676.12	20985.24
676.26	21116.31
676.40	21008.65
676.54	21067.16
676.68	20704.38
676.82	20350.96
676.96	20444.58
677.10	20257.34
677.23	20189.46
677.37	19913.28
677.51	20388.41
677.65	20297.13
677.79	20348.62
677.93	19857.10
678.07	20086.48
678.21	19995.20
678.34	19880.51
678.48	19747.10
678.62	19697.95
678.76	19800.93
678.90	19625.39
679.04	19592.62
679.18	19747.10
679.31	19307.08
679.45	19470.92
679.59	19522.41
679.73	19260.27
679.87	19211.12
680.00	19365.59
680.14	18941.96
680.28	19197.07
680.42	19325.80
680.56	19176.01
680.70	18991.11
680.83	18932.59
680.97	18974.72
681.11	19035.58
681.25	18960.68
681.39	18885.78
681.52	18764.07
681.66	18565.13
681.80	18677.48
681.94	18717.26
682.07	18539.38
682.21	18284.26
682.35	18293.63
682.49	18153.20
682.62	18239.79
682.76	18148.51
682.90	18197.67
683.04	18251.50
683.17	18139.15
683.31	18326.39
683.45	18115.75
683.59	18139.15
683.72	17743.60
683.86	17823.18
684.00	17703.81
684.13	17406.56
684.27	17514.23
684.41	17642.96
684.55	17467.42
684.68	17467.42
684.82	17235.70
684.96	17252.09
685.09	17085.91
685.23	17074.21
685.37	17193.58
685.50	17106.98
685.64	17018.04
685.78	17139.74
685.91	17078.89
686.05	16947.82
686.19	17039.10
686.32	16938.46
686.46	16879.94
686.60	16332.26
686.73	16617.80
686.87	16449.28
687.01	16414.18
687.14	16379.07
687.28	16170.76
687.42	16322.90
687.55	16243.32
687.69	16339.28
687.82	16102.89
687.96	16065.44
688.10	16219.91
688.23	16350.98
688.37	16107.57
688.50	16039.69
688.64	15971.82
688.78	15740.10
688.91	15487.32
689.05	15793.94
689.18	15669.89
689.32	15351.57
689.46	15253.27
689.59	15552.86
689.73	15033.26
689.86	15367.96
690.00	15325.83
690.13	15386.68
690.27	15517.75
690.41	15112.84
690.54	15330.51
690.68	14970.07
690.81	15094.11
690.95	15103.48
691.08	15000.49
691.22	15204.12
691.35	14930.28
691.49	14869.42
691.62	14967.73
691.76	14450.47
691.89	14637.71
692.03	14508.98
692.16	14494.94
692.30	14441.11
692.43	14448.13
692.57	14558.13
692.70	14534.73
692.84	14160.24
692.97	14153.22
693.11	14375.57
693.24	14097.05
693.38	14115.77
693.51	13989.38
693.65	13980.02
693.78	14031.51
693.92	13708.52
694.05	13844.27
694.19	13914.48
694.32	13680.43
694.45	13607.87
694.59	13390.20
694.72	13523.62
694.86	13390.20
694.99	13029.76
695.13	13228.71
695.26	13338.71
695.39	13277.86
695.53	13186.58
695.66	13226.37
695.80	13247.43
695.93	13099.98
696.07	13109.34
696.20	13207.64
696.33	12828.48
696.47	12854.22
696.60	12826.14
696.73	12994.65
696.87	12865.92
697.00	12671.66
697.14	12477.40
697.27	12208.23
697.40	12428.24
697.54	12484.42
697.67	12355.69
697.80	12156.74
697.94	12166.10
698.07	12133.34
698.21	11892.26
698.34	11992.90
698.47	12009.29
698.61	12301.86
698.74	12315.90
698.87	12114.61
699.01	11882.90
699.14	11779.92
699.27	11983.54
699.40	11838.43
699.54	11775.24
699.67	11749.49
699.80	11637.14
699.94	11590.33
700.07	11655.87
700.20	11384.37
700.34	11400.75
700.47	11377.34
700.60	11328.19
700.73	11360.96
700.87	11300.11
701.00	11026.26
701.13	11211.17
701.26	11239.25
701.40	11360.96
701.53	11360.96
701.66	11033.29
701.79	11190.10
701.93	10771.15
702.06	10710.29
702.19	10771.15
702.32	10710.29
702.46	10834.34
702.59	10417.72
702.72	10434.11
702.85	10485.60
702.99	10537.09
703.12	10628.37
703.25	10326.44
703.38	10305.38
703.51	10326.44
703.65	10471.56
703.78	10340.49
703.91	10387.30
704.04	10382.62
704.17	10066.64
704.31	10036.22
704.44	10026.86
704.57	9820.89
704.70	9731.95
704.83	9872.38
704.96	9853.66
705.10	9525.98
705.23	9666.41
>>>>>End Processed Spectral Data<<<<<
