SpectraSuite Data File
++++++++++++++++++++++++++++++++++++
Date: Fri Oct 18 13:58:28 GMT-05:00 2013
User: bianchi
Dark Spectrum Present: No
Reference Spectrum Present: No
Number of Sampled Component Spectra: 1
Spectrometers: USB2+H05261
Integration Time (usec): 50000 (USB2+H05261)
Spectra Averaged: 1 (USB2+H05261)
Boxcar Smoothing: 0 (USB2+H05261)
Correct for Electrical Dark: No (USB2+H05261)
Strobe/Lamp Enabled: No (USB2+H05261)
Correct for Detector Non-linearity: No (USB2+H05261)
Correct for Stray Light: No (USB2+H05261)
Number of Pixels in Processed Spectrum: 2048
>>>>>Begin Processed Spectral Data<<<<<
365.73	0.00
365.92	0.00
366.12	0.00
366.32	0.00
366.52	0.00
366.72	0.00
366.91	0.00
367.11	0.00
367.31	0.00
367.51	0.00
367.70	0.00
367.90	0.00
368.10	0.00
368.30	0.00
368.49	0.00
368.69	0.00
368.89	0.00
369.09	0.00
369.28	0.00
369.48	0.00
369.68	0.00
369.87	0.00
370.07	0.00
370.27	0.00
370.47	0.00
370.66	84.26
370.86	95.96
371.06	177.88
371.25	170.86
371.45	138.09
371.65	128.73
371.84	154.48
372.04	93.62
372.24	124.05
372.44	119.37
372.63	180.22
372.83	140.43
373.03	283.20
373.22	250.44
373.42	243.42
373.62	198.95
373.81	166.18
374.01	311.29
374.21	234.05
374.40	194.26
374.60	166.18
374.79	205.97
374.99	208.31
375.19	210.65
375.38	238.73
375.58	224.69
375.78	243.42
375.97	294.91
376.17	311.29
376.37	203.63
376.56	236.39
376.76	243.42
376.95	290.23
377.15	304.27
377.35	294.91
377.54	292.57
377.74	227.03
377.93	301.93
378.13	278.52
378.33	285.55
378.52	250.44
378.72	287.89
378.91	308.95
379.11	257.46
379.31	245.76
379.50	278.52
379.70	325.33
379.89	271.50
380.09	241.08
380.28	346.40
380.48	262.14
380.68	285.55
380.87	276.18
381.07	339.38
381.26	379.17
381.46	257.46
381.65	358.10
381.85	306.61
382.04	322.99
382.24	318.31
382.43	381.51
382.63	285.55
382.83	360.44
383.02	330.02
383.22	374.49
383.41	311.29
383.61	346.40
383.80	428.32
384.00	395.55
384.19	404.91
384.39	374.49
384.58	386.19
384.78	353.42
384.97	411.93
385.17	346.40
385.36	404.91
385.56	365.12
385.75	390.87
385.95	339.38
386.14	379.17
386.34	390.87
386.53	397.89
386.72	383.85
386.92	351.08
387.11	404.91
387.31	365.12
387.50	442.36
387.70	435.34
387.89	395.55
388.09	430.66
388.28	449.38
388.48	376.83
388.67	498.53
388.86	395.55
389.06	367.46
389.25	465.77
389.45	496.19
389.64	430.66
389.84	543.00
390.03	510.24
390.22	517.26
390.42	512.58
390.61	416.62
390.81	564.07
391.00	547.69
391.19	496.19
391.39	430.66
391.58	477.47
391.78	449.38
391.97	514.92
392.16	540.66
392.36	517.26
392.55	458.74
392.75	514.92
392.94	552.37
393.13	573.43
393.33	528.96
393.52	526.62
393.71	550.03
393.91	543.00
394.10	615.56
394.29	592.16
394.49	571.09
394.68	507.90
394.88	599.18
395.07	660.03
395.26	594.50
395.46	585.13
395.65	566.41
395.84	596.84
396.04	716.20
396.23	547.69
396.42	650.67
396.62	624.92
396.81	699.82
397.00	671.73
397.19	629.60
397.39	770.04
397.58	592.16
397.77	627.26
397.97	580.45
398.16	620.24
398.35	657.69
398.55	702.16
398.74	650.67
398.93	760.67
399.12	671.73
399.32	660.03
399.51	716.20
399.70	763.01
399.90	671.73
400.09	765.36
400.28	727.91
400.47	737.27
400.67	739.61
400.86	704.50
401.05	704.50
401.24	793.44
401.44	765.36
401.63	800.46
401.82	849.61
402.01	767.70
402.21	828.55
402.40	800.46
402.59	894.08
402.78	870.68
402.97	828.55
403.17	873.02
403.36	800.46
403.55	922.17
403.74	875.36
403.93	889.40
404.13	973.66
404.32	823.87
404.51	912.81
404.70	896.43
404.89	837.91
405.09	915.15
405.28	938.55
405.47	926.85
405.66	924.51
405.85	959.62
406.05	990.05
406.24	987.71
406.43	966.64
406.62	1053.24
406.81	968.98
407.00	938.55
407.20	952.60
407.39	933.87
407.58	1013.45
407.77	968.98
407.96	1135.16
408.15	992.39
408.34	1015.79
408.54	1097.71
408.73	1008.77
408.92	1100.05
409.11	1151.54
409.30	1074.31
409.49	1078.99
409.68	1114.10
409.87	1095.37
410.07	1095.37
410.26	1198.35
410.45	1163.25
410.64	1114.10
410.83	1219.42
411.02	1224.10
411.21	1210.06
411.40	1238.14
411.59	1303.68
411.78	1245.16
411.98	1270.91
412.17	1270.91
412.36	1242.82
412.55	1334.11
412.74	1348.15
412.93	1432.41
413.12	1275.59
413.31	1387.94
413.50	1352.83
413.69	1373.89
413.88	1455.81
414.07	1366.87
414.26	1364.53
414.45	1345.81
414.64	1472.20
414.83	1521.35
415.02	1467.52
415.22	1572.84
415.41	1439.43
415.60	1453.47
415.79	1551.78
415.98	1577.52
416.17	1572.84
416.36	1469.86
416.55	1561.14
416.74	1657.10
416.93	1593.90
417.12	1654.76
417.31	1621.99
417.50	1561.14
417.69	1769.44
417.88	1717.95
418.07	1727.32
418.26	1631.35
418.45	1732.00
418.64	1856.04
418.83	1809.23
419.02	1849.02
419.21	1797.53
419.39	1797.53
419.58	1792.85
419.77	1867.75
419.96	1806.89
420.15	1818.60
420.34	1886.47
420.53	1867.75
420.72	1834.98
420.91	1891.15
421.10	1893.49
421.29	1933.28
421.48	1886.47
421.67	1860.73
421.86	1933.28
422.05	1895.83
422.24	1963.71
422.43	1928.60
422.61	1930.94
422.80	1989.46
422.99	2015.20
423.18	2033.93
423.37	1921.58
423.56	2099.46
423.75	1987.11
423.94	1926.26
424.13	1942.64
424.32	1844.34
424.50	2122.87
424.69	2015.20
424.88	2054.99
425.07	1830.30
425.26	1973.07
425.45	2017.54
425.64	1987.11
425.83	1844.34
426.01	1973.07
426.20	1991.80
426.39	2038.61
426.58	2017.54
426.77	1977.75
426.96	2073.71
427.15	2104.14
427.33	2099.46
427.52	2125.21
427.71	2092.44
427.90	2106.48
428.09	2183.72
428.28	2129.89
428.46	2155.63
428.65	2122.87
428.84	2251.60
429.03	2263.30
429.22	2127.55
429.40	2235.21
429.59	2129.89
429.78	2148.61
429.97	2179.04
430.16	2230.53
430.34	2267.98
430.53	2361.60
430.72	2223.51
430.91	2282.02
431.10	2097.12
431.28	2249.25
431.47	2211.81
431.66	2361.60
431.85	2396.71
432.03	2394.37
432.22	2560.55
432.41	2375.64
432.60	2387.35
432.79	2476.29
432.97	2394.37
433.16	2415.43
433.35	2265.64
433.54	2511.39
433.72	2408.41
433.91	2485.65
434.10	2558.21
434.28	2497.35
434.47	2434.16
434.66	2548.84
434.85	2534.80
435.03	2597.99
435.22	2595.65
435.41	2731.41
435.59	2579.27
435.78	2637.78
435.97	2700.98
436.16	2473.95
436.34	2492.67
436.53	2497.35
436.72	2644.81
436.90	2649.49
437.09	2747.79
437.28	2691.62
437.46	2745.45
437.65	2672.89
437.84	2829.71
438.02	2628.42
438.21	2729.06
438.40	2703.32
438.58	2801.62
438.77	2815.66
438.96	2902.26
439.14	2846.09
439.33	2846.09
439.52	2993.55
439.70	2972.48
439.89	2937.37
440.08	2949.08
440.26	2970.14
440.45	3066.10
440.63	2848.43
440.82	3103.55
441.01	3021.63
441.19	3105.89
441.38	3040.36
441.57	3094.19
441.75	3201.85
441.94	3232.28
442.12	3227.60
442.31	3323.56
442.50	3229.94
442.68	3295.47
442.87	3337.60
443.05	3293.13
443.24	3330.58
443.43	3290.79
443.61	3386.76
443.80	3400.80
443.98	3262.71
444.17	3148.02
444.35	3262.71
444.54	3461.65
444.73	3389.10
444.91	3424.20
445.10	3307.18
445.28	3349.31
445.47	3456.97
445.65	3410.16
445.84	3290.79
446.02	3370.37
446.21	3307.18
446.39	3398.46
446.58	3447.61
446.77	3375.05
446.95	3414.84
447.14	3506.12
447.32	3379.73
447.51	3417.18
447.69	3403.14
447.88	3494.42
448.06	3524.85
448.25	3550.59
448.43	3529.53
448.62	3459.31
448.80	3508.46
448.99	3627.83
449.17	3609.11
449.36	3536.55
449.54	3618.47
449.73	3620.81
449.91	3611.45
450.10	3574.00
450.28	3604.42
450.46	3566.98
450.65	3721.45
450.83	3665.28
451.02	3538.89
451.20	3719.11
451.39	3723.79
451.57	3803.37
451.76	3740.18
451.94	3749.54
452.13	3815.07
452.31	3749.54
452.49	3740.18
452.68	3688.68
452.86	3805.71
453.05	3838.48
453.23	3918.06
453.42	3794.01
453.60	3892.31
453.78	3920.40
453.97	3852.52
454.15	3786.99
454.34	3908.69
454.52	4095.94
454.70	3929.76
454.89	4032.74
455.07	3920.40
455.26	3843.16
455.44	3960.19
455.62	3990.61
455.81	4035.08
455.99	4072.53
456.17	4072.53
456.36	4138.07
456.54	4119.34
456.73	4159.13
456.91	4229.35
457.09	4196.58
457.28	4491.49
457.46	4236.37
457.64	4269.14
457.83	4381.48
458.01	4262.12
458.19	4397.87
458.38	4262.12
458.56	4325.31
458.74	4447.02
458.93	4285.52
459.11	4334.67
459.29	4393.19
459.48	4528.94
459.66	4430.63
459.84	4346.37
460.03	4526.60
460.21	4334.67
460.39	4550.00
460.57	4498.51
460.76	4409.57
460.94	4468.08
461.12	4610.86
461.31	4393.19
461.49	4545.32
461.67	4428.29
461.85	4528.94
462.04	4414.25
462.22	4608.51
462.40	4657.67
462.59	4557.02
462.77	4760.65
462.95	4784.06
463.13	4744.27
463.32	4711.50
463.50	4772.35
463.68	4856.61
463.86	4770.01
464.05	4760.65
464.23	4711.50
464.41	4931.51
464.59	4685.75
464.78	4943.21
464.96	4748.95
465.14	4779.37
465.32	4774.69
465.50	4802.78
465.69	4880.02
465.87	4891.72
466.05	4903.42
466.23	4978.32
466.41	4791.08
466.60	4997.04
466.78	5036.83
466.96	5008.75
467.14	5198.33
467.32	5163.22
467.51	5111.73
467.69	4865.97
467.87	5144.50
468.05	5088.32
468.23	4940.87
468.41	5004.07
468.60	4901.08
468.78	5238.12
468.96	5020.45
469.14	5212.37
469.32	5397.28
469.50	5193.65
469.69	5273.23
469.87	5486.22
470.05	5305.99
470.23	5238.12
470.41	5191.31
470.59	5373.87
470.77	5317.70
470.95	5259.18
471.14	5338.76
471.32	5455.79
471.50	5666.44
471.68	5509.62
471.86	5577.50
472.04	5640.69
472.22	5710.91
472.40	5591.54
472.58	5666.44
472.77	5526.00
472.95	5713.25
473.13	5900.49
473.31	5692.18
473.49	5816.23
473.67	5846.66
473.85	5795.17
474.03	6019.86
474.21	5839.64
474.39	5888.79
474.57	6076.03
474.75	6160.29
474.93	6188.38
475.12	6101.78
475.30	5951.98
475.48	5879.43
475.66	6157.95
475.84	6230.51
476.02	6045.60
476.20	6207.10
476.38	6246.89
476.56	6476.26
476.74	6389.66
476.92	6443.49
477.10	6396.68
477.28	6560.52
477.46	6511.37
477.64	6562.86
477.82	6794.58
478.00	6927.99
478.18	6904.58
478.36	6829.68
478.54	6925.65
478.72	6942.03
478.90	7049.69
479.08	7019.27
479.26	7019.27
479.44	7246.30
479.62	7335.24
479.80	7243.96
479.98	7375.03
480.16	7473.33
480.34	7353.96
480.52	7405.46
480.70	7681.64
480.88	7452.27
481.06	7489.71
481.24	7517.80
481.41	7686.32
481.59	7758.88
481.77	7964.84
481.95	7868.88
482.13	8037.40
482.31	7967.18
482.49	8011.65
482.67	8273.79
482.85	8133.36
483.03	8432.95
483.21	8231.66
483.39	8388.48
483.57	8428.27
483.74	8575.72
483.92	8500.83
484.10	8470.40
484.28	8910.42
484.46	8772.33
484.64	9160.86
484.82	8887.01
485.00	8985.32
485.18	9095.32
485.35	9291.93
485.53	9170.22
485.71	9025.11
485.89	9432.36
486.07	9277.88
486.25	9193.62
486.43	9692.16
486.61	9584.49
486.78	9818.55
486.96	10001.11
487.14	10319.42
487.32	10017.49
487.50	9816.21
487.68	10104.09
487.85	10221.12
488.03	10459.85
488.21	10317.08
488.39	10363.89
488.57	10441.13
488.75	10450.49
488.92	10853.06
489.10	10651.78
489.28	10640.08
489.46	10810.93
489.64	10888.17
489.81	11351.60
489.99	11075.42
490.17	11094.14
490.35	11286.06
490.53	11133.93
490.70	11344.58
490.88	11424.15
491.06	11723.74
491.24	11606.72
491.41	11620.76
491.59	11800.98
491.77	11709.70
491.95	12046.74
492.13	12042.06
492.30	12112.27
492.48	12198.87
492.66	12381.43
492.84	12198.87
493.01	12205.89
493.19	12470.37
493.37	12638.89
493.54	12800.39
493.72	12718.47
493.90	12847.20
494.08	12608.47
494.25	12781.67
494.43	12807.41
494.61	13205.30
494.79	13301.26
494.96	12891.67
495.14	13111.68
495.32	13153.81
495.49	13577.45
495.67	13268.50
495.85	13460.42
496.02	13879.38
496.20	13687.45
496.38	13862.99
496.55	13736.60
496.73	13811.50
496.91	13799.80
497.09	13785.76
497.26	14260.88
497.44	14071.30
497.62	14232.80
497.79	13858.31
497.97	14298.33
498.14	14579.20
498.32	14747.72
498.50	14501.96
498.67	14640.05
498.85	14518.34
499.03	14654.09
499.20	14899.85
499.38	14836.66
499.56	14829.63
499.73	14986.45
499.91	15157.31
500.08	15084.75
500.26	14911.55
500.44	15276.68
500.61	15246.25
500.79	15211.14
500.97	15562.22
501.14	15655.84
501.32	15587.97
501.49	15637.12
501.67	15501.37
501.84	15716.70
502.02	15529.45
502.20	16149.70
502.37	15950.75
502.55	15854.79
502.72	16051.39
502.90	15815.00
503.07	15840.75
503.25	16140.33
503.43	15868.83
503.60	16219.91
503.78	16133.31
503.95	16128.63
504.13	16273.74
504.30	16575.67
504.48	16339.28
504.65	16304.17
504.83	16664.61
505.01	16830.79
505.18	16690.36
505.36	17029.74
505.53	16662.27
505.71	16875.26
505.88	16931.44
506.06	16837.81
506.23	17216.98
506.41	16908.03
506.58	17289.54
506.76	16917.39
506.93	17092.93
507.11	17406.56
507.28	17425.29
507.46	17240.39
507.63	17469.76
507.81	17392.52
507.98	17294.22
508.16	17268.47
508.33	17633.60
508.50	17706.15
508.68	17654.66
508.85	17886.37
509.03	17708.49
509.20	17647.64
509.38	18139.15
509.55	18321.71
509.73	18057.23
509.90	17930.84
510.08	17788.07
510.25	18031.49
510.42	18415.34
510.60	18272.56
510.77	18384.91
510.95	18700.88
511.12	18235.11
511.30	18293.63
511.47	18361.50
511.64	18750.03
511.82	18745.35
511.99	18331.08
512.17	18913.87
512.34	18864.72
512.51	18850.67
512.69	19040.26
512.86	18714.92
513.04	19201.76
513.21	19278.99
513.38	19176.01
513.56	19243.88
513.73	19140.90
513.90	19225.16
514.08	19164.31
514.25	19351.55
514.43	19283.67
514.60	19218.14
514.77	19438.15
514.95	19587.94
515.12	19494.32
515.29	19426.45
515.47	19805.61
515.64	19789.23
515.81	19637.09
515.99	19871.15
516.16	20147.33
516.33	20137.97
516.51	20051.37
516.68	20152.01
516.85	20159.03
517.03	20084.14
517.20	19957.75
517.37	20025.62
517.54	20088.82
517.72	20341.60
517.89	19962.43
518.06	20201.16
518.24	20201.16
518.41	20105.20
518.58	20439.90
518.75	20439.90
518.93	20217.55
519.10	20624.80
519.27	20671.61
519.45	20919.71
519.62	20606.08
519.79	20826.09
519.96	20589.69
520.14	20957.16
520.31	20751.19
520.48	20783.96
520.65	21013.33
520.83	20954.82
521.00	21020.35
521.17	20938.43
521.34	21106.95
521.52	21006.31
521.69	21369.09
521.86	21212.28
522.03	21385.47
522.20	21195.89
522.38	20931.41
522.55	21481.44
522.72	20999.29
522.89	21598.46
523.07	21738.90
523.24	21462.71
523.41	21631.23
523.58	21521.23
523.75	21816.13
523.92	21865.28
524.10	21869.97
524.27	22003.38
524.44	22094.66
524.61	22045.51
524.78	22340.41
524.96	21942.52
525.13	22356.80
525.30	22251.47
525.47	22452.76
525.64	22118.06
525.81	22349.78
525.98	22548.72
526.16	22443.40
526.33	22705.54
526.50	22768.73
526.67	22368.50
526.84	22686.81
527.01	22515.95
527.18	22492.55
527.36	22717.24
527.53	22628.30
527.70	23194.71
527.87	22799.16
528.04	22857.67
528.21	22869.37
528.38	22520.63
528.55	22888.10
528.72	22656.39
528.89	23159.60
529.07	23063.64
529.24	23091.73
529.41	23335.14
529.58	23157.26
529.75	22904.48
529.92	23002.78
530.09	22902.14
530.26	23215.77
530.43	23234.50
530.60	23311.74
530.77	23108.11
530.94	23388.97
531.11	23293.01
531.28	23342.16
531.46	23669.84
531.63	23482.59
531.80	23541.11
531.97	23857.08
532.14	23763.46
532.31	23662.82
532.48	23644.09
532.65	23875.80
532.82	23623.03
532.99	23611.32
533.16	23569.19
533.33	23674.52
533.50	23878.15
533.67	24060.71
533.84	23845.38
534.01	23953.04
534.18	23744.73
534.35	24098.16
534.52	24147.31
534.69	24081.77
534.86	24636.48
535.03	23913.25
535.20	24313.48
535.37	24437.53
535.54	24219.86
535.71	24187.10
535.88	24484.34
536.05	24257.31
536.22	24599.03
536.38	24353.27
536.55	24802.66
536.72	24486.68
536.89	24386.04
537.06	24638.82
537.23	24477.32
537.40	24559.24
537.57	25025.01
537.74	24776.91
537.91	25083.52
538.08	25050.75
538.25	24416.47
538.42	24915.00
538.59	25034.37
538.75	24643.50
538.92	24669.25
539.09	24872.87
539.26	25041.39
539.43	24915.00
539.60	25223.95
539.77	24907.98
539.94	24912.66
540.11	25113.95
540.28	25191.19
540.44	25046.07
540.61	25317.57
540.78	25174.80
540.95	25383.11
541.12	25385.45
541.29	25202.89
541.46	25221.61
541.62	25333.96
541.79	25097.56
541.96	25259.06
542.13	25256.72
542.30	25551.63
542.47	25551.63
542.63	25598.44
542.80	25837.17
542.97	25612.48
543.14	25872.28
543.31	25963.56
543.48	25579.71
543.64	26017.40
543.81	26094.63
543.98	26157.83
544.15	26253.79
544.32	26136.76
544.48	26265.49
544.65	25958.88
544.82	25954.20
544.99	25977.61
545.16	26235.06
545.32	25916.75
545.49	26361.45
545.66	26441.03
545.83	26150.81
546.00	26466.78
546.16	26352.09
546.33	26408.26
546.50	25916.75
546.67	26494.86
546.83	26015.05
547.00	26321.66
547.17	26677.43
547.34	26398.90
547.50	26410.60
547.67	26831.90
547.84	26696.15
548.00	26834.24
548.17	26930.20
548.34	26731.26
548.51	26778.07
548.67	26857.65
548.84	26644.66
549.01	26590.83
549.18	26499.55
549.34	26649.34
549.51	26654.02
549.68	26965.31
549.84	27213.41
550.01	27075.32
550.18	26693.81
550.34	26972.33
550.51	27276.60
550.68	27056.59
550.84	26710.19
551.01	27122.13
551.18	26834.24
551.34	26998.08
551.51	27002.76
551.68	27187.66
551.84	27035.53
552.01	27112.77
552.18	27508.32
552.34	27000.42
552.51	27346.82
552.68	27157.24
552.84	27445.12
553.01	27447.46
553.18	27538.74
553.34	27690.88
553.51	27564.49
553.67	27494.27
553.84	27658.11
554.01	27847.69
554.17	27180.64
554.34	27431.08
554.51	27344.48
554.67	27407.67
554.84	27140.85
555.00	27520.02
555.17	27283.62
555.33	27538.74
555.50	27456.82
555.67	27520.02
555.83	27768.12
556.00	27864.08
556.16	27864.08
556.33	27496.61
556.50	27871.10
556.66	27793.86
556.83	27777.48
556.99	27667.47
557.16	28004.51
557.32	27931.95
557.49	27976.42
557.65	27789.18
557.82	27576.19
557.98	27590.24
558.15	27859.40
558.32	28081.75
558.48	27943.66
558.65	28168.35
558.81	28416.44
558.98	28051.32
559.14	28126.22
559.31	27950.68
559.47	28135.58
559.64	27634.71
559.80	28266.65
559.97	28304.10
560.13	27943.66
560.30	28320.48
560.46	27990.47
560.63	28056.00
560.79	28423.47
560.96	28205.80
561.12	28048.98
561.29	28067.70
561.45	28168.35
561.61	28208.14
561.78	28182.39
561.94	28662.20
562.11	28374.31
562.27	28240.90
562.44	28079.41
562.60	28460.91
562.77	28458.57
562.93	28285.37
563.10	28547.51
563.26	28306.44
563.42	28896.25
563.59	28716.03
563.75	28449.21
563.92	28308.78
564.08	28533.47
564.24	28594.32
564.41	28423.47
564.57	28374.31
564.74	28636.45
564.90	28458.57
565.07	28678.58
565.23	28437.51
565.39	28636.45
565.56	28666.88
565.72	28683.27
565.88	28332.18
566.05	28673.90
566.21	28573.26
566.38	28961.79
566.54	28594.32
566.70	28575.60
566.87	28959.45
567.03	28627.09
567.19	28706.67
567.36	28994.56
567.52	28711.35
567.68	28931.36
567.85	28364.95
568.01	29319.89
568.17	28966.47
568.34	29282.44
568.50	29383.09
568.66	29228.61
568.83	29013.28
568.99	28741.78
569.15	28807.31
569.32	28893.91
569.48	28643.48
569.64	29240.31
569.81	28840.08
569.97	29277.76
570.13	28912.64
570.30	28879.87
570.46	28776.89
570.62	29081.16
570.78	28596.67
570.95	28877.53
571.11	28872.85
571.27	29010.94
571.43	28673.90
571.60	29118.60
571.76	28760.50
571.92	28673.90
572.09	29120.95
572.25	29207.55
572.41	29228.61
572.57	29006.26
572.74	29408.83
572.90	29088.18
573.06	28844.76
573.22	29209.89
573.38	29429.90
573.55	28964.13
573.71	29223.93
573.87	28980.51
574.03	29249.67
574.20	29022.64
574.36	29043.71
574.52	29156.05
574.68	28844.76
574.84	29233.29
575.01	29034.35
575.17	28945.41
575.33	29184.14
575.49	29165.42
575.65	29221.59
575.82	29064.77
575.98	29193.50
576.14	29422.87
576.30	28849.44
576.46	29095.20
576.62	29006.26
576.79	29369.04
576.95	29034.35
577.11	28912.64
577.27	29486.07
577.43	29015.62
577.59	29235.63
577.75	29015.62
577.92	29085.84
578.08	29160.73
578.24	28945.41
578.40	29024.98
578.56	29425.22
578.72	29415.85
578.88	29188.82
579.04	29699.06
579.21	29060.09
579.37	29294.14
579.53	29652.25
579.69	29017.96
579.85	29120.95
580.01	29017.96
580.17	29116.26
580.33	29200.52
580.49	29352.66
580.65	29694.38
580.82	29453.30
580.98	29598.41
581.14	29385.43
581.30	29188.82
581.46	29773.95
581.62	29502.45
581.78	29397.13
581.94	29631.18
582.10	29015.62
582.26	29474.37
582.42	29497.77
582.58	29443.94
582.74	29666.29
582.90	29165.42
583.06	29315.21
583.22	29544.58
583.38	29055.41
583.54	29432.24
583.70	29331.59
583.86	29092.86
584.02	29062.43
584.18	29315.21
584.34	29621.82
584.50	29507.13
584.66	29069.45
584.82	28849.44
584.98	29472.03
585.14	29422.87
585.30	29013.28
585.46	29270.74
585.62	29259.04
585.78	29652.25
585.94	29036.69
586.10	29558.63
586.26	29427.56
586.42	29322.23
586.58	29495.43
586.74	29387.77
586.90	29064.77
587.06	29003.92
587.22	29397.13
587.38	29226.27
587.54	29439.26
587.70	29663.95
587.86	29457.98
588.02	29516.50
588.18	29881.62
588.34	29493.09
588.49	29516.50
588.65	29528.20
588.81	29689.70
588.97	29324.57
589.13	29572.67
589.29	29383.09
589.45	29500.11
589.61	29446.28
589.77	29628.84
589.93	30125.04
590.08	29605.44
590.24	30073.54
590.40	29563.31
590.56	29797.36
590.72	29310.53
590.88	29371.38
591.04	29579.69
591.20	29720.12
591.35	29692.04
591.51	30085.25
591.67	29855.87
591.83	29750.55
591.99	29685.01
592.15	29776.30
592.31	29635.86
592.46	29764.59
592.62	29228.61
592.78	29790.34
592.94	29752.89
593.10	29467.34
593.26	29916.73
593.41	29652.25
593.57	29359.68
593.73	29975.24
593.89	29947.15
594.05	30089.93
594.20	29593.73
594.36	29750.55
594.52	29809.06
594.68	29792.68
594.84	29724.80
594.99	29652.25
595.15	29757.57
595.31	30078.22
595.47	30005.67
595.62	30202.27
595.78	30089.93
595.94	29818.42
596.10	29717.78
596.25	29975.24
596.41	29780.98
596.57	29713.10
596.73	29883.96
596.88	29900.34
597.04	30005.67
597.20	30164.82
597.36	29986.94
597.51	29942.47
597.67	29937.79
597.83	29661.61
597.99	29865.24
598.14	29907.37
598.30	29717.78
598.46	29596.07
598.61	30026.73
598.77	29823.11
598.93	30008.01
599.09	30019.71
599.24	30216.32
599.40	29982.26
599.56	30338.02
599.71	30155.46
599.87	30096.95
600.03	30017.37
600.18	30000.99
600.34	29919.07
600.50	30157.80
600.65	29986.94
600.81	30122.69
600.97	30403.56
601.12	30061.84
601.28	30010.35
601.44	29668.63
601.59	29823.11
601.75	29954.18
601.91	29844.17
602.06	29415.85
602.22	29916.73
602.37	29802.04
602.53	30307.60
602.69	30281.85
602.84	29853.53
603.00	30057.16
603.16	30209.29
603.31	30045.46
603.47	29921.41
603.62	30202.27
603.78	30087.59
603.94	30005.67
604.09	29708.42
604.25	29823.11
604.40	29914.39
604.56	29668.63
604.71	30150.78
604.87	30122.69
605.03	29928.43
605.18	30279.51
605.34	30024.39
605.49	29277.76
605.65	30218.66
605.80	29481.39
605.96	29399.47
606.12	29949.50
606.27	29631.18
606.43	29970.56
606.58	29968.22
606.74	29919.07
606.89	29883.96
607.05	30054.82
607.20	30178.87
607.36	30054.82
607.51	29979.92
607.67	30026.73
607.82	29759.91
607.98	29958.86
608.13	29706.08
608.29	29862.90
608.44	30197.59
608.60	29780.98
608.75	29731.83
608.91	29832.47
609.06	29752.89
609.22	30167.16
609.37	29516.50
609.53	29757.57
609.68	29535.22
609.84	29556.28
609.99	29539.90
610.15	29652.25
610.30	29453.30
610.46	29586.71
610.61	29572.67
610.76	29874.60
610.92	29984.60
611.07	29315.21
611.23	29495.43
611.38	29825.45
611.54	29156.05
611.69	29184.14
611.84	29579.69
612.00	29521.18
612.15	29305.85
612.31	29530.54
612.46	29670.97
612.62	29771.61
612.77	29474.37
612.92	29677.99
613.08	29542.24
613.23	29315.21
613.39	29392.45
613.54	29076.48
613.69	29078.82
613.85	29567.99
614.00	29046.05
614.15	29228.61
614.31	29186.48
614.46	29371.38
614.62	29259.04
614.77	29563.31
614.92	29748.21
615.08	29294.14
615.23	29558.63
615.38	29448.62
615.54	29497.77
615.69	29106.90
615.84	29158.39
616.00	29287.12
616.15	29233.29
616.30	29659.27
616.46	29020.30
616.61	29497.77
616.76	29397.13
616.92	29413.51
617.07	29085.84
617.22	28842.42
617.37	29165.42
617.53	28950.09
617.68	28844.76
617.83	28620.07
617.99	28882.21
618.14	28971.15
618.29	28868.17
618.45	28765.18
618.60	29233.29
618.75	29046.05
618.90	29090.52
619.06	28872.85
619.21	28725.39
619.36	28950.09
619.51	28926.68
619.67	28662.20
619.82	28891.57
619.97	29015.62
620.12	28409.42
620.28	28554.54
620.43	28889.23
620.58	29043.71
620.73	28608.37
620.89	28826.04
621.04	28694.97
621.19	28554.54
621.34	28563.90
621.49	28603.69
621.65	28634.11
621.80	28479.64
621.95	28437.51
622.10	28896.25
622.25	28402.40
622.41	28718.37
622.56	28325.16
622.71	28601.35
622.86	28561.56
623.01	28657.52
623.16	28353.25
623.32	28802.63
623.47	28500.70
623.62	28184.73
623.77	28360.27
623.92	28582.62
624.07	27974.08
624.23	28247.93
624.38	28840.08
624.53	28840.08
624.68	28503.04
624.83	28828.38
624.98	28914.98
625.13	28158.99
625.29	28680.92
625.44	28477.30
625.59	27981.10
625.74	28018.55
625.89	28217.50
626.04	28177.71
626.19	28376.66
626.34	28217.50
626.49	28067.70
626.65	28002.17
626.80	28268.99
626.95	27725.99
627.10	28006.85
627.25	28367.29
627.40	27887.48
627.55	27889.82
627.70	27644.07
627.85	27632.36
628.00	27655.77
628.15	27896.85
628.30	27941.32
628.45	27763.43
628.60	27644.07
628.76	28254.95
628.91	27765.78
629.06	27557.47
629.21	27910.89
629.36	27580.87
629.51	27620.66
629.66	27545.76
629.81	27681.52
629.96	27590.24
630.11	27761.09
630.26	27101.06
630.41	27543.42
630.56	27515.34
630.71	27445.12
630.86	27442.78
631.01	27534.06
631.16	28151.96
631.31	27763.43
631.46	27491.93
631.61	27314.05
631.76	27292.99
631.91	27276.60
632.06	27407.67
632.21	27513.00
632.36	27454.48
632.51	27501.29
632.66	27505.98
632.81	26932.54
632.96	27555.13
633.10	27248.52
633.25	27295.33
633.40	27381.93
633.55	27321.07
633.70	26897.44
633.85	27332.78
634.00	27351.50
634.15	26785.09
634.30	27112.77
634.45	26888.07
634.60	27129.15
634.75	27410.01
634.90	27040.21
635.05	27016.80
635.19	27239.15
635.34	27051.91
635.49	27435.76
635.64	27311.71
635.79	27166.60
635.94	27131.49
636.09	26925.52
636.24	26857.65
636.39	27033.19
636.53	26972.33
636.68	26951.27
636.83	26930.20
636.98	27096.38
637.13	27283.62
637.28	26934.88
637.43	26859.99
637.57	27108.08
637.72	26934.88
637.87	26600.19
638.02	26686.79
638.17	26813.18
638.32	26960.63
638.46	26356.77
638.61	27091.70
638.76	26595.51
638.91	26614.23
639.06	26639.98
639.20	26677.43
639.35	27019.14
639.50	26462.10
639.65	26953.61
639.80	27026.17
639.94	26773.39
640.09	26452.73
640.24	26691.47
640.39	26642.32
640.54	26532.31
640.68	26302.94
640.83	26593.17
640.98	26169.53
641.13	26195.28
641.27	26363.79
641.42	26536.99
641.57	26319.32
641.72	26354.43
641.86	26293.58
642.01	26281.88
642.16	26532.31
642.31	26101.65
642.45	26139.10
642.60	25823.13
642.75	25713.13
642.90	26143.78
643.04	26391.88
643.19	25867.60
643.34	26096.97
643.48	25930.80
643.63	26047.82
643.78	26087.61
643.93	26225.70
644.07	26256.13
644.22	26052.50
644.37	26103.99
644.51	26197.62
644.66	26061.87
644.81	25797.38
644.95	25909.73
645.10	25860.58
645.25	26003.35
645.39	26089.95
645.54	25998.67
645.69	25996.33
645.83	25628.87
645.98	25692.06
646.13	26057.18
646.27	25972.92
646.42	25933.14
646.57	25968.24
646.71	26047.82
646.86	25560.99
647.00	25809.09
647.15	25867.60
647.30	25490.77
647.44	25378.43
647.59	25820.79
647.74	25879.30
647.88	25568.01
648.03	25827.81
648.17	25671.00
648.32	25783.34
648.47	26125.06
648.61	25500.14
648.76	25710.78
648.90	25476.73
649.05	25825.47
649.20	25617.16
649.34	25500.14
649.49	25308.21
649.63	25149.06
649.78	25525.88
649.92	25544.61
650.07	25390.13
650.21	25350.34
650.36	25383.11
650.51	25413.54
650.65	25198.21
650.80	25535.24
650.94	25493.12
651.09	25441.62
651.23	25099.90
651.38	25181.82
651.52	25179.48
651.67	25184.16
651.81	25340.98
651.96	25256.72
652.10	25446.30
652.25	25184.16
652.39	25476.73
652.54	25544.61
652.68	25436.94
652.83	25315.23
652.97	25296.51
653.12	25575.03
653.26	24959.47
653.41	25364.39
653.55	24926.71
653.70	24704.35
653.84	25378.43
653.99	25589.08
654.13	24973.52
654.27	25127.99
654.42	25050.75
654.56	24819.04
654.71	25160.76
654.85	25025.01
655.00	25020.33
655.14	25453.33
655.29	24620.10
655.43	24950.11
655.57	25146.72
655.72	24680.95
655.86	24819.04
656.01	24982.88
656.15	24851.81
656.30	24580.31
656.44	24524.13
656.58	24655.20
656.73	24945.43
656.87	24753.51
657.01	24947.77
657.16	24830.74
657.30	24900.96
657.45	24840.11
657.59	24549.88
657.73	24505.41
657.88	24727.76
658.02	24535.84
658.16	24561.58
658.31	24393.06
658.45	24540.52
658.60	24376.68
658.74	24383.70
658.88	24783.93
659.03	24121.56
659.17	24556.90
659.31	24531.15
659.46	24027.94
659.60	24404.77
659.74	24446.90
659.89	24095.82
660.03	24084.11
660.17	24343.91
660.32	24180.07
660.46	23608.98
660.60	23702.61
660.74	23887.51
660.89	23946.02
661.03	23992.83
661.17	23861.76
661.32	23845.38
661.46	24032.62
661.60	23723.67
661.74	23782.18
661.89	23936.66
662.03	24149.65
662.17	23854.74
662.31	23756.44
662.46	23793.89
662.60	23520.04
662.74	23459.19
662.88	23601.96
663.03	23250.88
663.17	23793.89
663.31	23597.28
663.45	23524.72
663.60	23470.89
663.74	23529.41
663.88	23108.11
664.02	23241.52
664.17	23604.30
664.31	22904.48
664.45	23367.91
664.59	23309.40
664.73	23115.13
664.88	23393.65
665.02	22611.92
665.16	22941.93
665.30	23283.65
665.44	23143.22
665.59	22820.22
665.73	23070.66
665.87	22965.34
666.01	23028.53
666.15	23094.07
666.29	22724.26
666.44	23065.98
666.58	23173.64
666.72	22857.67
666.86	22792.14
667.00	22860.01
667.14	22878.74
667.28	22822.56
667.43	22485.53
667.57	22754.69
667.71	22525.32
667.85	22597.87
667.99	22202.32
668.13	22438.72
668.27	22492.55
668.41	22609.58
668.56	22366.16
668.70	22565.10
668.84	22291.26
668.98	22302.96
669.12	22139.13
669.26	22300.62
669.40	22422.33
669.54	22270.20
669.68	22038.48
669.82	21762.30
669.96	22029.12
670.10	21729.53
670.25	22024.44
670.39	21820.81
670.53	21605.49
670.67	21659.32
670.81	21666.34
670.95	21837.20
671.09	21668.68
671.23	21851.24
671.37	21790.39
671.51	21818.47
671.65	21612.51
671.79	21638.25
671.93	21783.37
672.07	21703.79
672.21	21467.39
672.35	21549.31
672.49	21195.89
672.63	21275.47
672.77	21216.96
672.91	21071.84
673.05	21120.99
673.19	21193.55
673.33	21294.19
673.47	21022.69
673.61	21018.01
673.75	21216.96
673.89	21144.40
674.03	21158.44
674.17	20980.56
674.31	20798.00
674.45	21125.68
674.59	20798.00
674.73	20856.51
674.87	20699.70
675.01	20521.82
675.15	20664.59
675.29	20507.77
675.43	20720.76
675.56	20262.02
675.70	20582.67
675.84	20460.96
675.98	19936.68
676.12	20236.27
676.26	20273.72
676.40	20449.26
676.54	20437.56
676.68	19955.41
676.82	19793.91
676.96	20114.56
677.10	20229.25
677.23	19939.02
677.37	19978.81
677.51	19559.86
677.65	19955.41
677.79	19433.47
677.93	19484.96
678.07	19470.92
678.21	19309.42
678.34	19168.99
678.48	19463.90
678.62	19424.11
678.76	19047.28
678.90	19098.77
679.04	19227.50
679.18	19323.46
679.31	19026.21
679.45	18916.21
679.59	19136.22
679.73	18841.31
679.87	18766.42
680.00	18663.43
680.14	18445.76
680.28	18787.48
680.42	18654.07
680.56	18817.91
680.70	18382.57
680.83	18689.18
680.97	18515.98
681.11	18480.87
681.25	18324.05
681.39	18223.41
681.52	18384.91
681.66	18043.19
681.80	18019.78
681.94	17994.04
682.07	18178.94
682.21	17968.29
682.35	17617.21
682.49	17631.26
682.62	17678.07
682.76	17680.41
682.90	17563.38
683.04	17940.21
683.17	17673.39
683.31	17603.17
683.45	17708.49
683.59	17584.44
683.72	17259.11
683.86	17497.84
684.00	17193.58
684.13	17397.20
684.27	17472.10
684.41	17088.25
684.55	16999.31
684.68	16772.28
684.82	16760.58
684.96	16985.27
685.09	16854.20
685.23	16702.06
685.37	16772.28
685.50	16865.90
685.64	16627.17
685.78	16411.84
685.91	16847.18
686.05	16964.20
686.19	16510.14
686.32	16762.92
686.46	16149.70
686.60	16285.45
686.73	16018.63
686.87	16336.94
687.01	16084.16
687.14	15934.37
687.28	15910.96
687.42	15983.52
687.55	15618.39
687.69	15693.29
687.82	15672.23
687.96	15585.63
688.10	15534.14
688.23	15669.89
688.37	15690.95
688.50	15499.03
688.64	15655.84
688.78	15407.75
688.91	15279.02
689.05	15517.75
689.18	15267.31
689.32	14941.98
689.46	15201.78
689.59	15314.13
689.73	14972.41
689.86	14930.28
690.00	15129.22
690.13	15012.20
690.27	14930.28
690.41	14979.43
690.54	14974.75
690.68	14817.93
690.81	14593.24
690.95	14738.35
691.08	14941.98
691.22	14448.13
691.35	14459.83
691.49	14445.79
691.62	14272.59
691.76	14459.83
691.89	14054.92
692.03	14169.60
692.16	14335.78
692.30	14080.66
692.43	14176.62
692.57	14031.51
692.70	13982.36
692.84	14087.68
692.97	13699.16
693.11	13870.01
693.24	13872.36
693.38	13666.39
693.51	13621.92
693.65	13547.02
693.78	13631.28
693.92	13460.42
694.05	13444.04
694.19	13589.15
694.32	13549.36
694.45	13259.13
694.59	13123.38
694.72	13165.51
694.86	12910.40
694.99	12858.90
695.13	12952.52
695.26	13008.70
695.39	12898.69
695.53	12702.09
695.66	13057.85
695.80	13041.46
695.93	12919.76
696.07	12896.35
696.20	12837.84
696.33	12594.42
696.47	12549.95
696.60	12753.58
696.73	12748.90
696.87	12395.48
697.00	12449.31
697.14	12479.74
697.27	12208.23
697.40	12044.40
697.54	11817.36
697.67	12081.85
697.80	11943.75
697.94	11896.94
698.07	11910.99
698.21	11747.15
698.34	11847.79
698.47	11805.66
698.61	11831.41
698.74	11859.49
698.87	11756.51
699.01	11578.63
699.14	11456.92
699.27	11545.86
699.40	11576.29
699.54	11396.07
699.67	11428.84
699.80	11274.36
699.94	11318.83
700.07	11412.45
700.20	10822.64
700.34	10965.41
700.47	11145.63
700.60	11119.89
700.73	11169.04
700.87	10759.44
701.00	10799.23
701.13	11126.91
701.26	10820.30
701.40	10988.82
701.53	10817.96
701.66	10665.82
701.79	10724.33
701.93	10553.48
702.06	10478.58
702.19	10532.41
702.32	10466.88
702.46	10148.56
702.59	10305.38
702.72	10258.57
702.85	10462.19
702.99	10286.65
703.12	10157.92
703.25	10178.99
703.38	10141.54
703.51	10207.08
703.65	9914.51
703.78	9846.63
703.91	10064.30
704.04	10132.18
704.17	9774.08
704.31	9813.87
704.44	9699.18
704.57	9713.22
704.70	9823.23
704.83	9738.97
704.96	9635.99
705.10	9460.45
705.23	9448.74
>>>>>End Processed Spectral Data<<<<<
