SpectraSuite Data File
++++++++++++++++++++++++++++++++++++
Date: Fri Oct 18 13:58:00 GMT-05:00 2013
User: bianchi
Dark Spectrum Present: No
Reference Spectrum Present: No
Number of Sampled Component Spectra: 1
Spectrometers: USB2+H05261
Integration Time (usec): 50000 (USB2+H05261)
Spectra Averaged: 1 (USB2+H05261)
Boxcar Smoothing: 0 (USB2+H05261)
Correct for Electrical Dark: No (USB2+H05261)
Strobe/Lamp Enabled: No (USB2+H05261)
Correct for Detector Non-linearity: No (USB2+H05261)
Correct for Stray Light: No (USB2+H05261)
Number of Pixels in Processed Spectrum: 2048
>>>>>Begin Processed Spectral Data<<<<<
365.73	0.00
365.92	0.00
366.12	0.00
366.32	0.00
366.52	0.00
366.72	0.00
366.91	0.00
367.11	0.00
367.31	0.00
367.51	0.00
367.70	0.00
367.90	0.00
368.10	0.00
368.30	0.00
368.49	0.00
368.69	0.00
368.89	0.00
369.09	0.00
369.28	0.00
369.48	0.00
369.68	0.00
369.87	0.00
370.07	0.00
370.27	0.00
370.47	0.00
370.66	124.05
370.86	114.69
371.06	121.71
371.25	152.13
371.45	95.96
371.65	114.69
371.84	79.58
372.04	152.13
372.24	222.35
372.44	189.58
372.63	203.63
372.83	220.01
373.03	107.66
373.22	205.97
373.42	191.92
373.62	243.42
373.81	227.03
374.01	205.97
374.21	217.67
374.40	184.90
374.60	201.29
374.79	189.58
374.99	248.10
375.19	222.35
375.38	255.12
375.58	236.39
375.78	245.76
375.97	184.90
376.17	299.59
376.37	196.60
376.56	304.27
376.76	248.10
376.95	191.92
377.15	283.20
377.35	243.42
377.54	238.73
377.74	304.27
377.93	215.33
378.13	290.23
378.33	280.86
378.52	215.33
378.72	180.22
378.91	355.76
379.11	334.70
379.31	299.59
379.50	308.95
379.70	264.48
379.89	346.40
380.09	301.93
380.28	367.46
380.48	266.82
380.68	360.44
380.87	262.14
381.07	332.36
381.26	301.93
381.46	248.10
381.65	308.95
381.85	327.68
382.04	348.74
382.24	311.29
382.43	311.29
382.63	327.68
382.83	390.87
383.02	318.31
383.22	402.57
383.41	372.15
383.61	325.33
383.80	362.78
384.00	311.29
384.19	421.30
384.39	414.27
384.58	407.25
384.78	337.04
384.97	409.59
385.17	465.77
385.36	400.23
385.56	421.30
385.75	358.10
385.95	374.49
386.14	425.98
386.34	381.51
386.53	435.34
386.72	376.83
386.92	493.85
387.11	437.68
387.31	430.66
387.50	409.59
387.70	470.45
387.89	465.77
388.09	388.53
388.28	369.80
388.48	418.96
388.67	479.81
388.86	440.02
389.06	451.72
389.25	423.64
389.45	486.83
389.64	498.53
389.84	507.90
390.03	423.64
390.22	442.36
390.42	552.37
390.61	454.06
390.81	428.32
391.00	528.96
391.19	435.34
391.39	486.83
391.58	484.49
391.78	524.28
391.97	538.32
392.16	421.30
392.36	580.45
392.55	491.51
392.75	517.26
392.94	491.51
393.13	493.85
393.33	521.94
393.52	510.24
393.71	528.96
393.91	587.47
394.10	601.52
394.29	629.60
394.49	554.71
394.68	564.07
394.88	566.41
395.07	545.34
395.26	615.56
395.46	678.76
395.65	599.18
395.84	622.58
396.04	629.60
396.23	753.65
396.42	589.82
396.62	671.73
396.81	629.60
397.00	648.33
397.19	601.52
397.39	638.97
397.58	662.37
397.77	638.97
397.97	709.18
398.16	711.52
398.35	704.50
398.55	777.06
398.74	730.25
398.93	716.20
399.12	706.84
399.32	779.40
399.51	795.78
399.70	711.52
399.90	711.52
400.09	734.93
400.28	833.23
400.47	767.70
400.67	720.88
400.86	826.21
401.05	777.06
401.24	704.50
401.44	847.27
401.63	791.10
401.82	779.40
402.01	826.21
402.21	816.85
402.40	863.66
402.59	800.46
402.78	877.70
402.97	858.98
403.17	830.89
403.36	791.10
403.55	816.85
403.74	828.55
403.93	943.24
404.13	947.92
404.32	828.55
404.51	903.45
404.70	938.55
404.89	861.32
405.09	926.85
405.28	947.92
405.47	1020.47
405.66	945.58
405.85	985.37
406.05	964.30
406.24	976.00
406.43	971.32
406.62	1050.90
406.81	1071.97
407.00	997.07
407.20	1081.33
407.39	978.34
407.58	1102.39
407.77	1053.24
407.96	1053.24
408.15	1118.78
408.34	1025.15
408.54	1095.37
408.73	1149.20
408.92	1139.84
409.11	1179.63
409.30	1200.69
409.49	1097.71
409.68	1181.97
409.87	1214.74
410.07	1172.61
410.26	1210.06
410.45	1184.31
410.64	1158.57
410.83	1203.04
411.02	1212.40
411.21	1238.14
411.40	1299.00
411.59	1287.29
411.78	1226.44
411.98	1291.98
412.17	1373.89
412.36	1266.23
412.55	1247.51
412.74	1359.85
412.93	1413.68
413.12	1299.00
413.31	1383.26
413.50	1397.30
413.69	1343.47
413.88	1378.58
414.07	1416.02
414.26	1437.09
414.45	1511.99
414.64	1409.00
414.83	1579.86
415.02	1425.39
415.22	1504.96
415.41	1523.69
415.60	1659.44
415.79	1572.84
415.98	1619.65
416.17	1605.61
416.36	1586.88
416.55	1579.86
416.74	1636.03
416.93	1671.14
417.12	1619.65
417.31	1652.42
417.50	1760.08
417.69	1659.44
417.88	1739.02
418.07	1680.50
418.26	1736.68
418.45	1717.95
418.64	1853.70
418.83	1813.92
419.02	1846.68
419.21	1877.11
419.39	1816.26
419.58	1771.79
419.77	1818.60
419.96	1851.36
420.15	1961.37
420.34	1895.83
420.53	1935.62
420.72	1973.07
420.91	1909.88
421.10	1973.07
421.29	1982.43
421.48	1872.43
421.67	1926.26
421.86	2017.54
422.05	1991.80
422.24	2040.95
422.43	1928.60
422.61	1987.11
422.80	2005.84
422.99	2003.50
423.18	1956.69
423.37	2092.44
423.56	2024.56
423.75	2099.46
423.94	1996.48
424.13	1827.96
424.32	2052.65
424.50	2054.99
424.69	2090.10
424.88	2179.04
425.07	2008.18
425.26	1893.49
425.45	1912.22
425.64	2062.01
425.83	2073.71
426.01	2172.02
426.20	1998.82
426.39	1989.46
426.58	2080.74
426.77	2059.67
426.96	2129.89
427.15	2012.86
427.33	2188.40
427.52	2118.18
427.71	2174.36
427.90	2169.68
428.09	2174.36
428.28	2186.06
428.46	2225.85
428.65	2190.74
428.84	2237.55
429.03	2260.96
429.22	2225.85
429.40	2310.11
429.59	2239.89
429.78	2200.10
429.97	2239.89
430.16	2174.36
430.34	2317.13
430.53	2216.49
430.72	2314.79
430.91	2359.26
431.10	2333.51
431.28	2401.39
431.47	2314.79
431.66	2349.90
431.85	2361.60
432.03	2495.01
432.22	2572.25
432.41	2499.69
432.60	2565.23
432.79	2349.90
432.97	2520.76
433.16	2413.09
433.35	2502.03
433.54	2546.50
433.72	2511.39
433.91	2520.76
434.10	2485.65
434.28	2448.20
434.47	2593.31
434.66	2637.78
434.85	2651.83
435.03	2679.91
435.22	2567.57
435.41	2719.70
435.59	2691.62
435.78	2745.45
435.97	2677.57
436.16	2630.76
436.34	2621.40
436.53	2750.13
436.72	2724.38
436.90	2595.65
437.09	2712.68
437.28	2670.55
437.46	2588.63
437.65	2834.39
437.84	2899.92
438.02	2759.49
438.21	2771.19
438.40	2729.06
438.58	2874.18
438.77	2867.16
438.96	2911.63
439.14	2944.39
439.33	2839.07
439.52	2853.11
439.70	2874.18
439.89	2963.12
440.08	2925.67
440.26	2977.16
440.45	3155.04
440.63	3164.40
440.82	3122.27
441.01	3155.04
441.19	3112.91
441.38	3239.30
441.57	3150.36
441.75	3396.12
441.94	3173.77
442.12	3393.78
442.31	3361.01
442.50	3208.87
442.68	3316.54
442.87	3325.90
443.05	3492.08
443.24	3459.31
443.43	3335.26
443.61	3332.92
443.80	3375.05
443.98	3318.88
444.17	3330.58
444.35	3368.03
444.54	3461.65
444.73	3555.27
444.91	3372.71
445.10	3438.25
445.28	3419.52
445.47	3501.44
445.65	3330.58
445.84	3496.76
446.02	3604.42
446.21	3459.31
446.39	3555.27
446.58	3576.34
446.77	3377.39
446.95	3506.12
447.14	3527.19
447.32	3501.44
447.51	3527.19
447.69	3489.74
447.88	3562.30
448.06	3578.68
448.25	3574.00
448.43	3562.30
448.62	3513.14
448.80	3456.97
448.99	3529.53
449.17	3578.68
449.36	3660.60
449.54	3581.02
449.73	3655.92
449.91	3819.75
450.10	3698.05
450.28	3819.75
450.46	3810.39
450.65	3742.52
450.83	3765.92
451.02	3712.09
451.20	3861.88
451.39	3791.67
451.57	3684.00
451.76	3850.18
451.94	3801.03
452.13	3892.31
452.31	3953.16
452.49	3854.86
452.68	3988.27
452.86	3824.44
453.05	3768.26
453.23	4007.00
453.42	3925.08
453.60	3967.21
453.78	3791.67
453.97	3946.14
454.15	3983.59
454.34	3953.16
454.52	3866.56
454.70	4032.74
454.89	3995.29
455.07	3880.61
455.26	4023.38
455.44	4091.26
455.62	4039.76
455.81	4044.45
455.99	4102.96
456.17	4142.75
456.36	4117.00
456.54	4280.84
456.73	4250.41
456.91	4191.90
457.09	4346.37
457.28	4362.76
457.46	4273.82
457.64	4383.82
457.83	4381.48
458.01	4308.93
458.19	4348.72
458.38	4367.44
458.56	4327.65
458.74	4400.21
458.93	4447.02
459.11	4559.36
459.29	4362.76
459.48	4472.76
459.66	4311.27
459.84	4596.81
460.03	4510.21
460.21	4528.94
460.39	4596.81
460.57	4514.89
460.76	4608.51
460.94	4552.34
461.12	4552.34
461.31	4674.05
461.49	4613.20
461.67	4681.07
461.85	4835.55
462.04	4610.86
462.22	5083.64
462.40	4826.18
462.59	4681.07
462.77	4786.40
462.95	4802.78
463.13	4821.50
463.32	4709.16
463.50	4933.85
463.68	4922.15
463.86	4978.32
464.05	4849.59
464.23	4854.27
464.41	4940.87
464.59	4858.95
464.78	4917.47
464.96	4901.08
465.14	4865.97
465.32	5006.41
465.50	4994.70
465.69	5158.54
465.87	4947.89
466.05	5060.24
466.23	4943.21
466.41	4985.34
466.60	5181.95
466.78	4863.63
466.96	5100.03
467.14	5135.14
467.32	5191.31
467.51	5221.74
467.69	5177.26
467.87	5170.24
468.05	5203.01
468.23	5078.96
468.41	5172.58
468.60	5203.01
468.78	5219.39
468.96	5109.39
469.14	5331.74
469.32	5291.95
469.50	5228.76
469.69	5240.46
469.87	5376.21
470.05	5430.04
470.23	5528.35
470.41	5460.47
470.59	5511.96
470.77	5348.12
470.95	5408.98
471.14	5411.32
471.32	5549.41
471.50	5533.03
471.68	5813.89
471.86	5577.50
472.04	5579.84
472.22	5802.19
472.40	5846.66
472.58	5806.87
472.77	5905.17
472.95	5900.49
473.13	5954.32
473.31	5947.30
473.49	5856.02
473.67	5834.96
473.85	5816.23
474.03	6054.97
474.21	6026.88
474.39	6202.42
474.57	6193.06
474.75	6061.99
474.93	6155.61
475.12	6101.78
475.30	6143.91
475.48	6197.74
475.66	6214.12
475.84	6143.91
476.02	6272.64
476.20	6164.97
476.38	6640.10
476.56	6558.18
476.74	6693.93
476.92	6539.46
477.10	6366.26
477.28	6644.78
477.46	6537.12
477.64	6558.18
477.82	6745.42
478.00	6995.86
478.18	6981.82
478.36	6984.16
478.54	7260.34
478.72	6885.86
478.90	7162.04
479.08	7148.00
479.26	7138.63
479.44	7260.34
479.62	7417.16
479.80	7562.27
479.98	7281.41
480.16	7683.98
480.34	7487.37
480.52	7597.38
480.70	7730.79
480.88	7536.52
481.06	7749.51
481.24	7793.98
481.41	7854.84
481.59	8028.04
481.77	7964.84
481.95	8058.46
482.13	8100.59
482.31	8060.80
482.49	8278.47
482.67	8332.31
482.85	8280.82
483.03	8484.44
483.21	8561.68
483.39	8720.84
483.57	8667.00
483.74	8849.57
483.92	8629.56
484.10	8725.52
484.28	8823.82
484.46	9029.79
484.64	9137.45
484.82	9212.35
485.00	9151.49
485.18	9303.63
485.35	9392.57
485.53	9518.96
485.71	9320.01
485.89	9687.48
486.07	9591.52
486.25	9659.39
486.43	9703.86
486.61	9675.77
486.78	10057.28
486.96	10015.15
487.14	10279.63
487.32	9954.30
487.50	10190.69
487.68	9970.68
487.85	10434.11
488.03	10424.75
488.21	10581.56
488.39	10513.69
488.57	10700.93
488.75	10672.84
488.92	10923.28
489.10	10913.92
489.28	11049.67
489.46	11094.14
489.64	11183.08
489.81	11087.12
489.99	11332.87
490.17	11286.06
490.35	11487.35
490.53	11632.46
490.70	11754.17
490.88	11627.78
491.06	11871.20
491.24	11772.89
491.41	11969.50
491.59	11948.43
491.77	12016.31
491.95	12175.47
492.13	12325.26
492.30	12229.30
492.48	12161.42
492.66	12231.64
492.84	12418.88
493.01	12634.21
493.19	12718.47
493.37	12650.60
493.54	12669.32
493.72	12879.97
493.90	12826.14
494.08	12931.46
494.25	13008.70
494.43	13029.76
494.61	13352.76
494.79	13474.46
494.96	13385.52
495.14	13514.25
495.32	13427.65
495.49	13687.45
495.67	13837.25
495.85	13855.97
496.02	13919.17
496.20	14228.12
496.38	13881.72
496.55	13909.80
496.73	14211.73
496.91	14340.46
497.09	14270.25
497.26	14312.38
497.44	14359.19
497.62	14380.25
497.79	14464.51
497.97	14448.13
498.14	14738.35
498.32	14927.94
498.50	14712.61
498.67	15138.58
498.85	14981.77
499.03	15176.03
499.20	15133.90
499.38	15140.93
499.56	15241.57
499.73	15440.51
499.91	15206.46
500.08	15346.89
500.26	15482.64
500.44	15639.46
500.61	15272.00
500.79	15768.19
500.97	15641.80
501.14	16109.91
501.32	15999.90
501.49	15817.34
501.67	15943.73
501.84	16175.44
502.02	15913.30
502.20	16105.23
502.37	16430.56
502.55	16107.57
502.72	16133.31
502.90	16198.85
503.07	16252.68
503.25	16313.53
503.43	16435.24
503.60	16681.00
503.78	16563.97
503.95	16744.19
504.13	16582.70
504.30	16568.65
504.48	16549.93
504.65	16711.42
504.83	17095.27
505.01	17319.96
505.18	16882.28
505.36	17116.34
505.53	17003.99
505.71	17142.08
505.88	17380.82
506.06	17076.55
506.23	17238.05
506.41	17064.85
506.58	17624.23
506.76	17336.35
506.93	17458.06
507.11	17097.61
507.28	17575.08
507.46	17336.35
507.63	17951.91
507.81	17982.34
507.98	17778.71
508.16	17888.71
508.33	17961.27
508.50	18134.47
508.68	18225.75
508.85	18345.12
509.03	18225.75
509.20	18356.82
509.38	18267.88
509.55	18359.16
509.73	18434.06
509.90	18579.17
510.08	18431.72
510.25	18342.78
510.42	18925.57
510.60	18672.79
510.77	18726.63
510.95	18860.04
511.12	18494.91
511.30	18523.00
511.47	18759.39
511.64	18951.32
511.82	19066.00
511.99	18965.36
512.17	19089.41
512.34	18946.64
512.51	19480.28
512.69	19325.80
512.86	19241.54
513.04	19278.99
513.21	19714.33
513.38	19370.27
513.56	19552.84
513.73	19358.57
513.90	19599.65
514.08	19370.27
514.25	19587.94
514.43	19814.98
514.60	19908.60
514.77	19609.01
514.95	20088.82
515.12	19913.28
515.29	20093.50
515.47	19768.16
515.64	19889.87
515.81	20205.84
515.99	20137.97
516.16	20053.71
516.33	20390.75
516.51	20678.63
516.68	20322.87
516.85	20280.74
517.03	20208.19
517.20	20503.09
517.37	20940.77
517.54	20774.60
517.72	20346.28
517.89	20624.80
518.06	20807.36
518.24	20699.70
518.41	20645.87
518.58	20769.91
518.75	21128.02
518.93	21289.51
519.10	21020.35
519.27	21207.59
519.45	21170.15
519.62	20985.24
519.79	21106.95
519.96	21102.27
520.14	21158.44
520.31	21041.42
520.48	21509.52
520.65	21188.87
520.83	21675.70
521.00	21553.99
521.17	21404.20
521.34	21617.19
521.52	21722.51
521.69	21664.00
521.86	21727.19
522.03	21645.27
522.20	21884.01
522.38	22209.34
522.55	21659.32
522.72	21907.41
522.89	21884.01
523.07	22185.94
523.24	22480.85
523.41	22089.98
523.58	21731.87
523.75	22314.67
523.92	21994.01
524.10	22185.94
524.27	22373.18
524.44	22569.79
524.61	22508.93
524.78	22459.78
524.96	22143.81
525.13	22745.33
525.30	22576.81
525.47	22534.68
525.64	22618.94
525.81	23042.57
525.98	22710.22
526.16	22649.36
526.33	22609.58
526.50	22862.35
526.67	22871.72
526.84	22836.61
527.01	22787.46
527.18	23145.56
527.36	23201.73
527.53	23140.88
527.70	23388.97
527.87	23398.34
528.04	23168.96
528.21	23281.31
528.38	23410.04
528.55	23035.55
528.72	23372.59
528.89	23620.69
529.07	23388.97
529.24	23674.52
529.41	23939.00
529.58	23543.45
529.75	23557.49
529.92	23440.47
530.09	23578.56
530.26	23665.16
530.43	23978.79
530.60	23910.91
530.77	23557.49
530.94	24250.29
531.11	23887.51
531.28	23695.58
531.46	23875.80
531.63	24194.12
531.80	24147.31
531.97	24439.87
532.14	24355.61
532.31	23953.04
532.48	24170.71
532.65	24107.52
532.82	23828.99
532.99	24105.18
533.16	24367.32
533.33	24741.80
533.50	24182.42
533.67	24730.10
533.84	24208.16
534.01	24339.23
534.18	24217.52
534.35	24875.21
534.52	24510.09
534.69	24919.68
534.86	24898.62
535.03	24734.78
535.20	24931.39
535.37	24886.92
535.54	24627.12
535.71	24709.04
535.88	24854.15
536.05	25132.67
536.22	25015.65
536.38	25083.52
536.55	25261.40
536.72	24889.26
536.89	24844.79
537.06	24947.77
537.23	25212.25
537.40	25067.14
537.57	25165.44
537.74	25216.93
537.91	25497.80
538.08	25553.97
538.25	25345.66
538.42	25448.64
538.59	25544.61
538.75	25542.27
538.92	25111.61
539.09	25518.86
539.26	25626.53
539.43	25418.22
539.60	25621.84
539.77	25542.27
539.94	25434.60
540.11	25614.82
540.28	25537.59
540.44	25750.57
540.61	25465.03
540.78	25841.85
540.95	25582.06
541.12	26019.74
541.29	25944.84
541.46	26012.71
541.62	25731.85
541.79	25813.77
541.96	25486.09
542.13	25853.56
542.30	26178.89
542.47	26047.82
542.63	26272.51
542.80	26471.46
542.97	26309.96
543.14	26394.22
543.31	26246.77
543.48	26249.11
543.64	26574.44
543.81	26504.23
543.98	26342.73
544.15	26644.66
544.32	26759.34
544.48	26834.24
544.65	26525.29
544.82	26693.81
544.99	26661.04
545.16	26916.16
545.32	26408.26
545.49	26969.99
545.66	27065.96
545.83	26848.29
546.00	27147.87
546.16	26766.37
546.33	26906.80
546.50	26333.37
546.67	26962.97
546.83	26649.34
547.00	26937.23
547.17	27033.19
547.34	27098.72
547.50	27098.72
547.67	27215.75
547.84	27068.30
548.00	27185.32
548.17	27246.18
548.34	27316.39
548.51	27414.69
548.67	27180.64
548.84	27276.60
549.01	27271.92
549.18	27267.24
549.34	27152.55
549.51	27253.20
549.68	27271.92
549.84	27424.06
550.01	27557.47
550.18	27690.88
550.34	27426.40
550.51	27899.19
550.68	27819.61
550.84	27412.35
551.01	27817.27
551.18	27744.71
551.34	27599.60
551.51	27875.78
551.68	27541.08
551.84	27843.01
552.01	27754.07
552.18	28126.22
552.34	27384.27
552.51	27875.78
552.68	27601.94
552.84	28109.83
553.01	28006.85
553.18	27814.93
553.34	28002.17
553.51	28271.33
553.67	27777.48
553.84	28180.05
554.01	28123.88
554.17	28077.07
554.34	28208.14
554.51	27906.21
554.67	28058.34
554.84	28704.33
555.00	28341.55
555.17	27971.74
555.33	28442.19
555.50	27995.15
555.67	28191.75
555.83	28339.21
556.00	28355.59
556.16	28121.54
556.33	28091.11
556.50	28503.04
556.66	28730.08
556.83	28634.11
556.99	28648.16
557.16	28760.50
557.32	29020.30
557.49	28584.96
557.65	28107.49
557.82	28442.19
557.98	28472.62
558.15	28465.60
558.32	28814.34
558.48	28489.00
558.65	28783.91
558.81	28540.49
558.98	28961.79
559.14	28610.71
559.31	28481.98
559.47	28734.76
559.64	29036.69
559.80	29139.67
559.97	28507.72
560.13	28748.80
560.30	29076.48
560.46	28683.27
560.63	29193.50
560.79	28931.36
560.96	28788.59
561.12	28966.47
561.29	28856.46
561.45	29212.23
561.61	29001.58
561.78	29390.11
561.94	29219.25
562.11	29111.58
562.27	29027.32
562.44	28889.23
562.60	28811.99
562.77	28624.75
562.93	29261.38
563.10	29558.63
563.26	29024.98
563.42	29488.41
563.59	29074.13
563.75	29067.11
563.92	29427.56
564.08	28875.19
564.24	28957.11
564.41	29280.10
564.57	29149.03
564.74	29394.79
564.90	29343.30
565.07	29537.56
565.23	29195.84
565.39	29055.41
565.56	29443.94
565.72	29069.45
565.88	29209.89
566.05	29371.38
566.21	29205.20
566.38	29294.14
566.54	29490.75
566.70	29357.34
566.87	29745.87
567.03	29254.36
567.19	29977.58
567.36	29560.97
567.52	29677.99
567.68	29516.50
567.85	29544.58
568.01	29556.28
568.17	29357.34
568.34	29682.67
568.50	29607.78
568.66	29738.85
568.83	29717.78
568.99	29282.44
569.15	29610.12
569.32	29315.21
569.48	29523.52
569.64	29579.69
569.81	29717.78
569.97	29729.48
570.13	29633.52
570.30	29525.86
570.46	29479.05
570.62	29284.78
570.78	29703.74
570.95	29504.79
571.11	29446.28
571.27	29249.67
571.43	29191.16
571.60	29490.75
571.76	29802.04
571.92	29876.94
572.09	29586.71
572.25	29729.48
572.41	29865.24
572.57	29809.06
572.74	29993.97
572.90	29694.38
573.06	29916.73
573.22	29392.45
573.38	29862.90
573.55	29748.21
573.71	30110.99
573.87	29923.75
574.03	30052.48
574.20	29954.18
574.36	29989.28
574.52	29535.22
574.68	29729.48
574.84	30270.15
575.01	29603.10
575.17	29825.45
575.33	29888.64
575.49	29752.89
575.65	30139.08
575.82	30204.61
575.98	29949.50
576.14	30040.78
576.30	29848.85
576.46	29708.42
576.62	29778.64
576.79	29717.78
576.95	29771.61
577.11	30029.07
577.27	30040.78
577.43	29795.02
577.59	30132.06
577.75	29432.24
577.92	29982.26
578.08	29720.12
578.24	30057.16
578.40	29553.94
578.56	30026.73
578.72	30132.06
578.88	30022.05
579.04	30483.14
579.21	30059.50
579.37	29923.75
579.53	30675.06
579.69	29766.93
579.85	29713.10
580.01	30047.80
580.17	29979.92
580.33	30059.50
580.49	29713.10
580.65	30235.04
580.82	29783.32
580.98	29862.90
581.14	30057.16
581.30	29921.41
581.46	29727.14
581.62	29778.64
581.78	29677.99
581.94	29837.15
582.10	29647.57
582.26	29785.66
582.42	29998.65
582.58	30132.06
582.74	30038.44
582.90	30178.87
583.06	30155.46
583.22	29916.73
583.38	30118.01
583.54	30164.82
583.70	29816.08
583.86	30162.48
584.02	29766.93
584.18	30122.69
584.34	30342.70
584.50	30345.05
584.66	30033.75
584.82	29780.98
584.98	30242.06
585.14	29827.79
585.30	29858.21
585.46	30103.97
585.62	29865.24
585.78	30155.46
585.94	29645.23
586.10	30199.93
586.26	30115.67
586.42	30515.90
586.58	30225.68
586.74	30019.71
586.90	30047.80
587.06	29881.62
587.22	30108.65
587.38	30298.23
587.54	30377.81
587.70	30326.32
587.86	29951.84
588.02	30246.74
588.18	30408.24
588.34	30487.82
588.49	30424.62
588.65	29977.58
588.81	30354.41
588.97	30192.91
589.13	30199.93
589.29	30286.53
589.45	30300.58
589.61	30213.98
589.77	30366.11
589.93	30483.14
590.08	30684.42
590.24	30314.62
590.40	30845.92
590.56	30658.68
590.72	30235.04
590.88	30419.94
591.04	30101.63
591.20	30719.53
591.35	30630.59
591.51	30965.29
591.67	30595.48
591.83	30623.57
591.99	30335.68
592.15	30302.92
592.31	30639.95
592.46	30340.36
592.62	30038.44
592.78	30293.55
592.94	30017.37
593.10	30115.67
593.26	30642.29
593.41	30679.74
593.57	30955.93
593.73	30515.90
593.89	30686.76
594.05	30366.11
594.20	30721.87
594.36	30171.85
594.52	30377.81
594.68	30438.67
594.84	30251.42
594.99	30235.04
595.15	30724.21
595.31	30909.11
595.47	30698.47
595.62	30670.38
595.78	30384.83
595.94	30944.22
596.10	30792.09
596.25	30230.36
596.41	30560.37
596.57	30534.63
596.73	30443.35
596.88	30478.46
597.04	30698.47
597.20	30749.96
597.36	30644.63
597.51	31175.94
597.67	30838.90
597.83	30534.63
597.99	30801.45
598.14	30740.60
598.30	30539.31
598.46	30595.48
598.61	30426.96
598.77	30443.35
598.93	30813.15
599.09	30728.89
599.24	31063.59
599.40	30918.48
599.56	30663.36
599.71	30923.16
599.87	30658.68
600.03	30864.64
600.18	30567.40
600.34	30389.52
600.50	30637.61
600.65	30794.43
600.81	31047.21
600.97	30810.81
601.12	30719.53
601.28	31054.23
601.44	30590.80
601.59	30824.86
601.75	30862.30
601.91	30672.72
602.06	30380.15
602.22	31042.53
602.37	30574.42
602.53	30693.79
602.69	31218.07
602.84	30827.20
603.00	30815.49
603.16	30651.66
603.31	30764.00
603.47	31051.89
603.62	30913.80
603.78	30684.42
603.94	30672.72
604.09	30583.78
604.25	30302.92
604.40	30071.20
604.56	30656.34
604.71	30771.02
604.87	30794.43
605.03	30600.16
605.18	30536.97
605.34	30906.77
605.49	30396.54
605.65	30654.00
605.80	30675.06
605.96	30340.36
606.12	30209.29
606.27	31040.18
606.43	30396.54
606.58	30946.56
606.74	30740.60
606.89	30665.70
607.05	30799.11
607.20	30827.20
607.36	31007.42
607.51	30785.07
607.67	30525.27
607.82	30316.96
607.98	30590.80
608.13	30338.02
608.29	30326.32
608.44	30663.36
608.60	30433.99
608.75	30677.40
608.91	30663.36
609.06	30579.10
609.22	30419.94
609.37	30103.97
609.53	30253.76
609.68	30546.33
609.84	29874.60
609.99	30022.05
610.15	30469.09
610.30	30597.82
610.46	30347.39
610.61	30377.81
610.76	30506.54
610.92	30558.03
611.07	30700.81
611.23	30518.25
611.38	30000.99
611.54	30040.78
611.69	30277.17
611.84	30197.59
612.00	30408.24
612.15	29869.92
612.31	30663.36
612.46	30251.42
612.62	30483.14
612.77	30328.66
612.92	30632.93
613.08	30129.72
613.23	29958.86
613.39	30492.50
613.54	29661.61
613.69	30527.61
613.85	30178.87
614.00	30110.99
614.15	30033.75
614.31	30031.41
614.46	30202.27
614.62	30426.96
614.77	30017.37
614.92	30277.17
615.08	30064.18
615.23	30127.38
615.38	30122.69
615.54	30162.48
615.69	29935.45
615.84	29923.75
616.00	30249.08
616.15	30181.21
616.30	29724.80
616.46	30003.33
616.61	29846.51
616.76	30389.52
616.92	29975.24
617.07	29832.47
617.22	29766.93
617.37	30078.22
617.53	30012.69
617.68	29968.22
617.83	29624.16
617.99	29584.37
618.14	29560.97
618.29	29762.25
618.45	29741.19
618.60	29773.95
618.75	29839.49
618.90	29818.42
619.06	29986.94
619.21	29710.76
619.36	29883.96
619.51	29551.60
619.67	29685.01
619.82	29549.26
619.97	29792.68
620.12	28790.93
620.28	29570.33
620.43	29586.71
620.58	29813.74
620.73	29722.46
620.89	29546.92
621.04	30092.27
621.19	29558.63
621.34	29797.36
621.49	29390.11
621.65	29369.04
621.80	29546.92
621.95	29071.79
622.10	29469.69
622.25	29034.35
622.41	29439.26
622.56	29624.16
622.71	29495.43
622.86	29298.83
623.01	29443.94
623.16	29146.69
623.32	29408.83
623.47	29235.63
623.62	29228.61
623.77	29186.48
623.92	29160.73
624.07	28760.50
624.23	29125.63
624.38	29205.20
624.53	29120.95
624.68	29088.18
624.83	29406.49
624.98	29015.62
625.13	29165.42
625.29	29252.02
625.44	29032.00
625.59	28922.00
625.74	28814.34
625.89	28980.51
626.04	28650.50
626.19	29139.67
626.34	28526.45
626.49	28723.05
626.65	28608.37
626.80	28982.85
626.95	29076.48
627.10	29081.16
627.25	28781.57
627.40	28692.63
627.55	28563.90
627.70	28437.51
627.85	28519.43
628.00	28652.84
628.15	28760.50
628.30	28613.05
628.45	28449.21
628.60	28510.07
628.76	28510.07
628.91	28538.15
629.06	28123.88
629.21	28350.91
629.36	28606.03
629.51	28802.63
629.66	28496.02
629.81	28285.37
629.96	28067.70
630.11	28510.07
630.26	28446.87
630.41	28491.34
630.56	28006.85
630.71	28636.45
630.86	28048.98
631.01	28121.54
631.16	28266.65
631.31	28170.69
631.46	28067.70
631.61	28379.00
631.76	28535.81
631.91	28205.80
632.06	28173.03
632.21	28140.26
632.36	28088.77
632.51	27967.06
632.66	28189.41
632.81	27974.08
632.96	28308.78
633.10	28400.06
633.25	28393.04
633.40	28273.67
633.55	28114.52
633.70	27936.63
633.85	27826.63
634.00	27988.13
634.15	27845.35
634.30	27386.61
634.45	28158.99
634.60	27744.71
634.75	27791.52
634.90	27843.01
635.05	27786.84
635.19	27854.72
635.34	27995.15
635.49	27983.44
635.64	27580.87
635.79	27733.01
635.94	27646.41
636.09	27725.99
636.24	27770.46
636.39	27587.89
636.53	27899.19
636.68	27611.30
636.83	27578.53
636.98	27412.35
637.13	27845.35
637.28	27800.88
637.43	27943.66
637.57	27630.02
637.72	27456.82
637.87	27456.82
638.02	27154.90
638.17	27721.30
638.32	27520.02
638.46	27297.67
638.61	27330.44
638.76	27269.58
638.91	27271.92
639.06	27590.24
639.20	27695.56
639.35	27435.76
639.50	27646.41
639.65	27384.27
639.80	27672.15
639.94	27365.54
640.09	27498.95
640.24	27449.80
640.39	27115.11
640.54	26731.26
640.68	27084.68
640.83	27040.21
640.98	26904.46
641.13	26923.18
641.27	27089.36
641.42	26883.39
641.57	27182.98
641.72	26918.50
641.86	26932.54
642.01	26969.99
642.16	26824.88
642.31	26749.98
642.45	26848.29
642.60	26417.63
642.75	26906.80
642.90	26747.64
643.04	26813.18
643.19	26607.21
643.34	27171.28
643.48	26696.15
643.63	26995.74
643.78	26941.91
643.93	27143.19
644.07	26831.90
644.22	26904.46
644.37	26951.27
644.51	26969.99
644.66	26635.30
644.81	26562.74
644.95	26504.23
645.10	26764.03
645.25	26803.82
645.39	26347.41
645.54	26485.50
645.69	26658.70
645.83	26661.04
645.98	26977.01
646.13	26806.16
646.27	26752.32
646.42	26492.52
646.57	26848.29
646.71	27007.44
646.86	26366.13
647.00	26525.29
647.15	26466.78
647.30	26387.20
647.44	26031.44
647.59	26118.04
647.74	26150.81
647.88	26377.84
648.03	26429.33
648.17	26534.65
648.32	26836.58
648.47	26625.93
648.61	26735.94
648.76	26342.73
648.90	26338.05
649.05	26221.02
649.20	26401.24
649.34	26483.16
649.49	26298.26
649.63	25874.62
649.78	26099.31
649.92	25654.61
650.07	26099.31
650.21	26122.72
650.36	26347.41
650.51	25982.29
650.65	26333.37
650.80	26295.92
650.94	26080.59
651.09	26068.89
651.23	25731.85
651.38	25530.56
651.52	25872.28
651.67	26073.57
651.81	25956.54
651.96	25954.20
652.10	26235.06
652.25	25729.51
652.39	25766.96
652.54	26155.49
652.68	26047.82
652.83	26052.50
652.97	26192.94
653.12	25928.45
653.26	26047.82
653.41	26202.30
653.55	25483.75
653.70	25827.81
653.84	25652.27
653.99	25708.44
654.13	25729.51
654.27	25453.33
654.42	26031.44
654.56	25790.36
654.71	25474.39
654.85	25724.83
655.00	25591.42
655.14	25792.70
655.29	25933.14
655.43	25450.99
655.57	25738.87
655.72	25539.93
655.86	25420.56
656.01	25291.83
656.15	25717.81
656.30	25525.88
656.44	25160.76
656.58	25104.59
656.73	25366.73
656.87	25263.74
657.01	25415.88
657.16	25319.92
657.30	25511.84
657.45	25390.13
657.59	25291.83
657.73	25032.03
657.88	25127.99
658.02	25165.44
658.16	25472.05
658.31	24961.81
658.45	25446.30
658.60	24634.14
658.74	24912.66
658.88	24980.54
659.03	24870.53
659.17	25130.33
659.31	25142.03
659.46	24610.73
659.60	25207.57
659.74	25025.01
659.89	24655.20
660.03	24898.62
660.17	24680.95
660.32	24786.27
660.46	24847.13
660.60	24519.45
660.74	24903.30
660.89	24683.29
661.03	24549.88
661.17	24411.79
661.32	24645.84
661.46	24484.34
661.60	25170.12
661.74	24805.00
661.89	24521.79
662.03	24720.74
662.17	24383.70
662.31	24137.94
662.46	24575.62
662.60	24294.76
662.74	24072.41
662.88	23896.87
663.03	23978.79
663.17	24140.29
663.31	23620.69
663.45	23807.93
663.60	24091.13
663.74	24081.77
663.88	24011.56
664.02	24070.07
664.17	24269.01
664.31	24137.94
664.45	24156.67
664.59	23751.76
664.73	23978.79
664.88	23737.71
665.02	23711.97
665.16	23487.28
665.30	23946.02
665.44	23845.38
665.59	23644.09
665.73	23690.90
665.87	23295.35
666.01	23709.63
666.15	23814.95
666.29	23889.85
666.44	23531.75
666.58	23157.26
666.72	23424.08
666.86	23377.27
667.00	23365.57
667.14	23407.70
667.28	23241.52
667.43	22946.61
667.57	23180.67
667.71	23145.56
667.85	23276.63
667.99	23133.86
668.13	22789.80
668.27	23063.64
668.41	23089.38
668.56	23222.80
668.70	23082.36
668.84	22750.01
668.98	22677.45
669.12	23166.62
669.26	23321.10
669.40	22920.87
669.54	23037.89
669.68	22932.57
669.82	22675.11
669.96	22527.66
670.10	22370.84
670.25	22576.81
670.39	22750.01
670.53	22333.39
670.67	22195.30
670.81	22267.86
670.95	22586.17
671.09	22520.63
671.23	22661.07
671.37	22490.21
671.51	22108.70
671.65	22412.97
671.79	22132.11
671.93	22270.20
672.07	21991.67
672.21	22134.45
672.35	21830.18
672.49	21666.34
672.63	22209.34
672.77	21626.55
672.91	21766.98
673.05	21806.77
673.19	22022.10
673.33	21788.05
673.47	21865.28
673.61	21656.98
673.75	21668.68
673.89	21572.72
674.03	21448.67
674.17	21312.92
674.31	21413.56
674.45	21228.66
674.59	21462.71
674.73	21502.50
674.87	21324.62
675.01	21202.91
675.15	21287.17
675.29	21123.33
675.43	21010.99
675.56	21050.78
675.70	21099.93
675.84	21085.89
675.98	20276.06
676.12	20999.29
676.26	21315.26
676.40	20821.41
676.54	20802.68
676.68	20828.43
676.82	20348.62
676.96	20706.72
677.10	20491.39
677.23	20212.87
677.37	20226.91
677.51	20449.26
677.65	20245.63
677.79	20100.52
677.93	20170.74
678.07	20325.21
678.21	19810.29
678.34	20088.82
678.48	20140.31
678.62	19910.94
678.76	19892.21
678.90	19477.94
679.04	19658.16
679.18	19644.12
679.31	19264.95
679.45	19447.51
679.59	19110.47
679.73	19365.59
679.87	19630.07
680.00	19618.37
680.14	19077.71
680.28	19154.94
680.42	19112.81
680.56	19089.41
680.70	19302.40
680.83	19152.60
680.97	18850.67
681.11	18930.25
681.25	18810.89
681.39	18628.32
681.52	19009.83
681.66	18689.18
681.80	18228.09
681.94	18459.81
682.07	18733.65
682.21	18200.01
682.35	18122.77
682.49	18363.84
682.62	18291.29
682.76	18015.10
682.90	18029.15
683.04	18139.15
683.17	18192.98
683.31	17813.82
683.45	18286.61
683.59	17642.96
683.72	17984.68
683.86	17895.74
684.00	17848.93
684.13	17825.52
684.27	17378.48
684.41	17420.61
684.55	17624.23
684.68	17481.46
684.82	16971.22
684.96	17163.15
685.09	17111.66
685.23	17319.96
685.37	17301.24
685.50	17336.35
685.64	17060.16
685.78	17188.89
685.91	17135.06
686.05	17247.41
686.19	16964.20
686.32	16903.35
686.46	16842.50
686.60	16751.21
686.73	16709.08
686.87	16751.21
687.01	16449.28
687.14	16453.97
687.28	16212.89
687.42	16271.40
687.55	16224.59
687.69	16379.07
687.82	16212.89
687.96	16046.71
688.10	16049.05
688.23	15974.16
688.37	16393.11
688.50	16243.32
688.64	15927.35
688.78	15756.49
688.91	15934.37
689.05	15941.39
689.18	15690.95
689.32	15405.41
689.46	15410.09
689.59	15318.81
689.73	15594.99
689.86	15475.62
690.00	15293.06
690.13	15482.64
690.27	15267.31
690.41	15393.70
690.54	15534.14
690.68	15164.33
690.81	15154.97
690.95	15215.82
691.08	15002.83
691.22	15044.96
691.35	14927.94
691.49	14806.23
691.62	14764.10
691.76	14682.18
691.89	14895.17
692.03	14565.15
692.16	14787.50
692.30	14347.48
692.43	14347.48
692.57	14356.85
692.70	14382.59
692.84	14469.19
692.97	14155.56
693.11	14516.00
693.24	14223.44
693.38	14232.80
693.51	14256.20
693.65	14143.86
693.78	13928.53
693.92	13921.51
694.05	13968.32
694.19	13755.33
694.32	13645.32
694.45	13661.71
694.59	13778.73
694.72	13614.90
694.86	13275.52
694.99	13387.86
695.13	13245.09
695.26	13458.08
695.39	13186.58
695.53	13511.91
695.66	13460.42
695.80	13041.46
695.93	13284.88
696.07	13099.98
696.20	13170.19
696.33	13336.37
696.47	13088.28
696.60	13039.12
696.73	12765.28
696.87	12882.31
697.00	13020.40
697.14	12575.70
697.27	12292.49
697.40	12196.53
697.54	12315.90
697.67	12346.33
697.80	12458.67
697.94	12189.51
698.07	12411.86
698.21	12067.80
698.34	12212.92
698.47	12191.85
698.61	11936.73
698.74	12077.16
698.87	12278.45
699.01	12046.74
699.14	11796.30
699.27	11864.18
699.40	11913.33
699.54	11941.41
699.67	11630.12
699.80	11683.95
699.94	11667.57
700.07	11707.36
700.20	11524.80
700.34	11300.11
700.47	11295.43
700.60	11382.03
700.73	11410.11
700.87	11243.93
701.00	11150.31
701.13	11030.94
701.26	11438.20
701.40	11351.60
701.53	11110.52
701.66	11295.43
701.79	10937.32
701.93	10988.82
702.06	10864.77
702.19	10757.10
702.32	10712.63
702.46	10527.73
702.59	10595.61
702.72	10476.24
702.85	10504.32
702.99	10450.49
703.12	10509.01
703.25	10256.23
703.38	10382.62
703.51	10438.79
703.65	10429.43
703.78	10146.22
703.91	10209.42
704.04	10324.10
704.17	10340.49
704.31	10160.27
704.44	10015.15
704.57	10008.13
704.70	9933.23
704.83	9865.36
704.96	9769.40
705.10	9933.23
705.23	9769.40
>>>>>End Processed Spectral Data<<<<<
