SpectraSuite Data File
++++++++++++++++++++++++++++++++++++
Date: Fri Oct 18 13:58:39 GMT-05:00 2013
User: bianchi
Dark Spectrum Present: No
Reference Spectrum Present: No
Number of Sampled Component Spectra: 1
Spectrometers: USB2+H05261
Integration Time (usec): 50000 (USB2+H05261)
Spectra Averaged: 1 (USB2+H05261)
Boxcar Smoothing: 0 (USB2+H05261)
Correct for Electrical Dark: No (USB2+H05261)
Strobe/Lamp Enabled: No (USB2+H05261)
Correct for Detector Non-linearity: No (USB2+H05261)
Correct for Stray Light: No (USB2+H05261)
Number of Pixels in Processed Spectrum: 2048
>>>>>Begin Processed Spectral Data<<<<<
365.73	0.00
365.92	0.00
366.12	0.00
366.32	0.00
366.52	0.00
366.72	0.00
366.91	0.00
367.11	0.00
367.31	0.00
367.51	0.00
367.70	0.00
367.90	0.00
368.10	0.00
368.30	0.00
368.49	0.00
368.69	0.00
368.89	0.00
369.09	0.00
369.28	0.00
369.48	0.00
369.68	0.00
369.87	0.00
370.07	0.00
370.27	0.00
370.47	0.00
370.66	142.77
370.86	77.24
371.06	72.56
371.25	91.28
371.45	98.30
371.65	152.13
371.84	156.82
372.04	194.26
372.24	201.29
372.44	140.43
372.63	154.48
372.83	250.44
373.03	187.24
373.22	156.82
373.42	220.01
373.62	159.16
373.81	201.29
374.01	238.73
374.21	210.65
374.40	208.31
374.60	224.69
374.79	222.35
374.99	212.99
375.19	257.46
375.38	175.54
375.58	252.78
375.78	241.08
375.97	224.69
376.17	325.33
376.37	294.91
376.56	313.63
376.76	337.04
376.95	311.29
377.15	266.82
377.35	255.12
377.54	304.27
377.74	318.31
377.93	322.99
378.13	259.80
378.33	292.57
378.52	292.57
378.72	276.18
378.91	341.72
379.11	308.95
379.31	250.44
379.50	332.36
379.70	315.97
379.89	339.38
380.09	276.18
380.28	278.52
380.48	301.93
380.68	358.10
380.87	255.12
381.07	355.76
381.26	376.83
381.46	290.23
381.65	306.61
381.85	287.89
382.04	383.85
382.24	299.59
382.43	318.31
382.63	355.76
382.83	433.00
383.02	360.44
383.22	341.72
383.41	292.57
383.61	360.44
383.80	374.49
384.00	407.25
384.19	322.99
384.39	346.40
384.58	346.40
384.78	320.65
384.97	376.83
385.17	339.38
385.36	386.19
385.56	421.30
385.75	409.59
385.95	362.78
386.14	381.51
386.34	414.27
386.53	440.02
386.72	341.72
386.92	489.17
387.11	465.77
387.31	416.62
387.50	367.46
387.70	348.74
387.89	376.83
388.09	428.32
388.28	433.00
388.48	409.59
388.67	484.49
388.86	489.17
389.06	510.24
389.25	472.79
389.45	526.62
389.64	484.49
389.84	425.98
390.03	465.77
390.22	463.43
390.42	463.43
390.61	421.30
390.81	496.19
391.00	484.49
391.19	514.92
391.39	447.04
391.58	550.03
391.78	470.45
391.97	524.28
392.16	510.24
392.36	547.69
392.55	498.53
392.75	510.24
392.94	578.11
393.13	620.24
393.33	571.09
393.52	552.37
393.71	589.82
393.91	585.13
394.10	547.69
394.29	608.54
394.49	678.76
394.68	596.84
394.88	571.09
395.07	655.35
395.26	608.54
395.46	594.50
395.65	615.56
395.84	603.86
396.04	601.52
396.23	559.39
396.42	629.60
396.62	674.07
396.81	678.76
397.00	645.99
397.19	594.50
397.39	695.14
397.58	676.41
397.77	645.99
397.97	748.97
398.16	615.56
398.35	725.57
398.55	716.20
398.74	737.27
398.93	795.78
399.12	674.07
399.32	734.93
399.51	730.25
399.70	711.52
399.90	692.80
400.09	734.93
400.28	779.40
400.47	730.25
400.67	791.10
400.86	695.14
401.05	798.12
401.24	760.67
401.44	781.74
401.63	730.25
401.82	882.38
402.01	760.67
402.21	868.34
402.40	837.91
402.59	880.04
402.78	800.46
402.97	774.72
403.17	858.98
403.36	919.83
403.55	765.36
403.74	877.70
403.93	798.12
404.13	894.08
404.32	915.15
404.51	844.93
404.70	924.51
404.89	959.62
405.09	938.55
405.28	919.83
405.47	971.32
405.66	992.39
405.85	1043.88
406.05	931.53
406.24	997.07
406.43	959.62
406.62	1008.77
406.81	1137.50
407.00	1048.56
407.20	1034.52
407.39	1146.86
407.58	1001.75
407.77	992.39
407.96	1001.75
408.15	1081.33
408.34	1086.01
408.54	1144.52
408.73	1083.67
408.92	1109.41
409.11	1128.14
409.30	1048.56
409.49	1196.01
409.68	1125.80
409.87	1097.71
410.07	1245.16
410.26	1041.54
410.45	1111.75
410.64	1242.82
410.83	1160.91
411.02	1163.25
411.21	1163.25
411.40	1256.87
411.59	1259.21
411.78	1273.25
411.98	1277.93
412.17	1205.38
412.36	1228.78
412.55	1235.80
412.74	1282.61
412.93	1380.92
413.12	1308.36
413.31	1423.05
413.50	1462.83
413.69	1282.61
413.88	1362.19
414.07	1404.32
414.26	1483.90
414.45	1413.68
414.64	1420.71
414.83	1474.54
415.02	1439.43
415.22	1462.83
415.41	1514.33
415.60	1561.14
415.79	1511.99
415.98	1579.86
416.17	1526.03
416.36	1598.59
416.55	1631.35
416.74	1650.08
416.93	1617.31
417.12	1647.74
417.31	1631.35
417.50	1640.72
417.69	1781.15
417.88	1802.21
418.07	1596.25
418.26	1668.80
418.45	1739.02
418.64	1729.66
418.83	1879.45
419.02	1755.40
419.21	1886.47
419.39	1802.21
419.58	1818.60
419.77	1753.06
419.96	1811.57
420.15	1996.48
420.34	1720.29
420.53	1727.32
420.72	1886.47
420.91	1851.36
421.10	1935.62
421.29	1963.71
421.48	1895.83
421.67	2031.58
421.86	1891.15
422.05	1912.22
422.24	1907.54
422.43	1949.67
422.61	1937.96
422.80	2076.06
422.99	2005.84
423.18	1991.80
423.37	2047.97
423.56	1928.60
423.75	2045.63
423.94	1872.43
424.13	1888.81
424.32	1942.64
424.50	2015.20
424.69	2047.97
424.88	2080.74
425.07	1928.60
425.26	2024.56
425.45	1977.75
425.64	2033.93
425.83	2085.42
426.01	2125.21
426.20	1949.67
426.39	2029.24
426.58	2031.58
426.77	2003.50
426.96	2148.61
427.15	2146.27
427.33	2129.89
427.52	2172.02
427.71	2181.38
427.90	2127.55
428.09	2155.63
428.28	2139.25
428.46	2225.85
428.65	2284.36
428.84	2279.68
429.03	2267.98
429.22	2193.08
429.40	2338.20
429.59	2186.06
429.78	2092.44
429.97	2146.27
430.16	2200.10
430.34	2232.87
430.53	2399.05
430.72	2230.53
430.91	2298.41
431.10	2221.17
431.28	2277.34
431.47	2375.64
431.66	2382.67
431.85	2303.09
432.03	2462.24
432.22	2399.05
432.41	2401.39
432.60	2490.33
432.79	2424.80
432.97	2410.75
433.16	2399.05
433.35	2429.48
433.54	2394.37
433.72	2544.16
433.91	2520.76
434.10	2555.86
434.28	2499.69
434.47	2602.68
434.66	2483.31
434.85	2586.29
435.03	2635.44
435.22	2588.63
435.41	2761.83
435.59	2649.49
435.78	2670.55
435.97	2497.35
436.16	2605.02
436.34	2661.19
436.53	2628.42
436.72	2771.19
436.90	2607.36
437.09	2675.23
437.28	2665.87
437.46	2663.53
437.65	2708.00
437.84	2647.15
438.02	2752.47
438.21	2607.36
438.40	2757.15
438.58	2796.94
438.77	2867.16
438.96	2834.39
439.14	2813.32
439.33	2925.67
439.52	3084.83
439.70	3047.38
439.89	3080.14
440.08	2970.14
440.26	2888.22
440.45	2998.23
440.63	3101.21
440.82	3215.90
441.01	2970.14
441.19	3061.42
441.38	3080.14
441.57	3047.38
441.75	3213.56
441.94	3323.56
442.12	3323.56
442.31	3164.40
442.50	3258.03
442.68	3344.63
442.87	3267.39
443.05	3459.31
443.24	3361.01
443.43	3176.11
443.61	3440.59
443.80	3302.50
443.98	3258.03
444.17	3302.50
444.35	3407.82
444.54	3482.72
444.73	3459.31
444.91	3393.78
445.10	3414.84
445.28	3328.24
445.47	3368.03
445.65	3410.16
445.84	3461.65
446.02	3466.33
446.21	3611.45
446.39	3346.97
446.58	3503.78
446.77	3466.33
446.95	3349.31
447.14	3440.59
447.32	3377.39
447.51	3459.31
447.69	3449.95
447.88	3499.10
448.06	3431.23
448.25	3515.48
448.43	3482.72
448.62	3566.98
448.80	3524.85
448.99	3592.72
449.17	3646.55
449.36	3499.10
449.54	3641.87
449.73	3648.90
449.91	3648.90
450.10	3620.81
450.28	3761.24
450.46	3740.18
450.65	3709.75
450.83	3794.01
451.02	3768.26
451.20	3836.14
451.39	3735.50
451.57	3805.71
451.76	3644.21
451.94	3840.82
452.13	3751.88
452.31	3791.67
452.49	3824.44
452.68	3901.67
452.86	3880.61
453.05	3836.14
453.23	3887.63
453.42	3824.44
453.60	3838.48
453.78	3929.76
453.97	3854.86
454.15	3866.56
454.34	3892.31
454.52	3894.65
454.70	4074.87
454.89	3880.61
455.07	3997.64
455.26	4098.28
455.44	4093.60
455.62	4107.64
455.81	3990.61
455.99	4018.70
456.17	4194.24
456.36	4189.56
456.54	4308.93
456.73	4196.58
456.91	4306.59
457.09	4266.80
457.28	4322.97
457.46	4250.41
457.64	4339.35
457.83	4306.59
458.01	4292.54
458.19	4463.40
458.38	4241.05
458.56	4393.19
458.74	4437.66
458.93	4393.19
459.11	4498.51
459.29	4329.99
459.48	4456.38
459.66	4395.53
459.84	4521.92
460.03	4468.08
460.21	4456.38
460.39	4507.87
460.57	4454.04
460.76	4594.47
460.94	4571.07
461.12	4601.49
461.31	4688.09
461.49	4510.21
461.67	4564.04
461.85	4746.61
462.04	4606.17
462.22	4667.03
462.40	4725.54
462.59	4622.56
462.77	4812.14
462.95	4751.29
463.13	4870.65
463.32	4695.11
463.50	4681.07
463.68	4793.42
463.86	4697.46
464.05	4758.31
464.23	4779.37
464.41	4828.53
464.59	4770.01
464.78	4926.83
464.96	5034.49
465.14	4908.10
465.32	4844.91
465.50	4922.15
465.69	5125.77
465.87	4905.76
466.05	4840.23
466.23	4964.28
466.41	4985.34
466.60	5083.64
466.78	4959.60
466.96	4999.38
467.14	4978.32
467.32	5039.17
467.51	5163.22
467.69	4992.36
467.87	5282.59
468.05	5221.74
468.23	5137.48
468.41	5090.67
468.60	5027.47
468.78	5125.77
468.96	5177.26
469.14	5291.95
469.32	5181.95
469.50	5153.86
469.69	5263.86
469.87	5458.13
470.05	5460.47
470.23	5268.55
470.41	5231.10
470.59	5455.79
470.77	5350.46
470.95	5488.56
471.14	5621.97
471.32	5437.06
471.50	5652.39
471.68	5577.50
471.86	5596.22
472.04	5584.52
472.22	5764.74
472.40	5675.80
472.58	5767.08
472.77	5636.01
472.95	5820.91
473.13	5888.79
473.31	5717.93
473.49	5867.72
473.67	5867.72
473.85	5830.27
474.03	6071.35
474.21	5970.71
474.39	6094.76
474.57	5961.34
474.75	6193.06
474.93	6164.97
475.12	6171.99
475.30	6274.98
475.48	6090.07
475.66	6274.98
475.84	6221.14
476.02	6324.13
476.20	6347.53
476.38	6506.69
476.56	6698.61
476.74	6478.60
476.92	6647.12
477.10	6511.37
477.28	6686.91
477.46	6684.57
477.64	6733.72
477.82	6586.27
478.00	6885.86
478.18	6813.30
478.36	6932.67
478.54	7028.63
478.72	6892.88
478.90	6995.86
479.08	7103.53
479.26	7227.57
479.44	7318.86
479.62	7400.77
479.80	7393.75
479.98	7351.62
480.16	7468.65
480.34	7548.23
480.52	7847.82
480.70	7665.25
480.88	7552.91
481.06	7559.93
481.24	7662.91
481.41	7857.18
481.59	7812.71
481.77	7988.25
481.95	7861.86
482.13	7960.16
482.31	7932.08
482.49	8259.75
482.67	8308.90
482.85	8318.26
483.03	8461.04
483.21	8500.83
483.39	8561.68
483.57	8535.93
483.74	8486.78
483.92	8519.55
484.10	8320.60
484.28	8753.60
484.46	9053.19
484.64	9078.94
484.82	9008.72
485.00	9186.60
485.18	9252.14
485.35	9397.25
485.53	9186.60
485.71	9394.91
485.89	9741.31
486.07	9528.32
486.25	9493.21
486.43	9575.13
486.61	9802.16
486.78	9619.60
486.96	9893.44
487.14	10029.20
487.32	9989.41
487.50	10080.69
487.68	10218.78
487.85	10408.36
488.03	10640.08
488.21	10527.73
488.39	10483.26
488.57	10647.10
488.75	10579.22
488.92	10771.15
489.10	10890.51
489.28	10902.22
489.46	11246.27
489.64	11021.58
489.81	11190.10
489.99	11138.61
490.17	11138.61
490.35	11616.08
490.53	11342.24
490.70	11501.39
490.88	11616.08
491.06	11609.06
491.24	11534.16
491.41	11552.88
491.59	11733.11
491.77	11808.00
491.95	11941.41
492.13	12210.57
492.30	12095.89
492.48	12243.34
492.66	12465.69
492.84	12051.42
493.01	12636.55
493.19	12613.15
493.37	12699.75
493.54	12542.93
493.72	12608.47
493.90	12769.96
494.08	12877.63
494.25	13174.88
494.43	12734.85
494.61	13022.74
494.79	13205.30
494.96	13249.77
495.14	13376.16
495.32	13886.40
495.49	13209.98
495.67	13710.86
495.85	13624.26
496.02	13853.63
496.20	13919.17
496.38	13788.10
496.55	13832.57
496.73	13954.27
496.91	13781.07
497.09	14036.19
497.26	14298.33
497.44	14328.76
497.62	14321.74
497.79	14363.87
497.97	14534.73
498.14	14602.60
498.32	14668.14
498.50	14633.03
498.67	14651.75
498.85	14885.81
499.03	14986.45
499.20	15007.52
499.38	15197.10
499.56	15131.56
499.73	15197.10
499.91	15468.60
500.08	15314.13
500.26	15204.12
500.44	15274.34
500.61	15283.70
500.79	15190.08
500.97	15571.58
501.14	15990.54
501.32	15709.68
501.49	16032.67
501.67	15520.09
501.84	15812.66
502.02	15756.49
502.20	15917.98
502.37	15962.45
502.55	16051.39
502.72	16039.69
502.90	15868.83
503.07	16114.59
503.25	16208.21
503.43	16311.19
503.60	16741.85
503.78	16624.83
503.95	16659.93
504.13	16350.98
504.30	16573.33
504.48	16816.75
504.65	16533.54
504.83	16755.90
505.01	17041.44
505.18	17102.29
505.36	17202.94
505.53	16933.78
505.71	16978.25
505.88	17095.27
506.06	17053.14
506.23	17415.93
506.41	17139.74
506.58	17247.41
506.76	17020.38
506.93	17200.60
507.11	17565.72
507.28	17408.90
507.46	17355.07
507.63	17668.70
507.81	18080.64
507.98	17813.82
508.16	17734.24
508.33	17900.42
508.50	17713.17
508.68	17839.56
508.85	17771.69
509.03	18118.09
509.20	18146.17
509.38	18326.39
509.55	18310.01
509.73	18129.79
509.90	18333.42
510.08	18235.11
510.25	18415.34
510.42	18239.79
510.60	18569.81
510.77	18630.66
510.95	18780.46
511.12	18429.38
511.30	18583.85
511.47	18766.42
511.64	18675.13
511.82	18948.98
511.99	19124.52
512.17	19094.09
512.34	18752.37
512.51	18932.59
512.69	19290.70
512.86	19569.22
513.04	19176.01
513.21	18963.02
513.38	19250.91
513.56	19363.25
513.73	19281.33
513.90	19220.48
514.08	19499.00
514.25	19403.04
514.43	19674.54
514.60	19922.64
514.77	19733.06
514.95	20030.30
515.12	19583.26
515.29	19871.15
515.47	19857.10
515.64	19831.36
515.81	20067.75
515.99	19868.81
516.16	20369.68
516.33	20027.96
516.51	20245.63
516.68	20072.43
516.85	20154.35
517.03	20374.36
517.20	20159.03
517.37	20313.51
517.54	20755.87
517.72	20723.10
517.89	20566.29
518.06	20996.95
518.24	20538.20
518.41	20547.56
518.58	20500.75
518.75	20753.53
518.93	20503.09
519.10	20809.70
519.27	20828.43
519.45	20685.65
519.62	20760.55
519.79	20713.74
519.96	21013.33
520.14	21254.40
520.31	20936.09
520.48	21209.93
520.65	21092.91
520.83	21675.70
521.00	21462.71
521.17	21284.83
521.34	21561.02
521.52	21467.39
521.69	21561.02
521.86	21558.67
522.03	21488.46
522.20	21905.07
522.38	21532.93
522.55	22134.45
522.72	21858.26
522.89	21802.09
523.07	22078.27
523.24	21982.31
523.41	21823.16
523.58	21806.77
523.75	22017.42
523.92	22015.08
524.10	22218.71
524.27	21986.99
524.44	22195.30
524.61	22445.74
524.78	22141.47
524.96	22546.38
525.13	22377.86
525.30	22335.73
525.47	22427.01
525.64	22368.50
525.81	22331.05
525.98	22719.58
526.16	22307.65
526.33	22714.90
526.50	22553.40
526.67	22377.86
526.84	22679.79
527.01	22897.46
527.18	22593.19
527.36	22871.72
527.53	23131.51
527.70	23194.71
527.87	23433.44
528.04	23470.89
528.21	23035.55
528.38	23454.51
528.55	23475.57
528.72	23180.67
528.89	23168.96
529.07	23335.14
529.24	23431.10
529.41	23529.41
529.58	23527.06
529.75	23351.52
529.92	23489.62
530.09	23566.85
530.26	23400.68
530.43	23634.73
530.60	23601.96
530.77	23634.73
530.94	23613.66
531.11	23543.45
531.28	23487.28
531.46	23730.69
531.63	23690.90
531.80	23838.36
531.97	23943.68
532.14	24046.66
532.31	23527.06
532.48	23917.93
532.65	23821.97
532.82	23737.71
532.99	23971.77
533.16	24058.37
533.33	24322.85
533.50	24311.14
533.67	24292.42
533.84	23885.17
534.01	24203.48
534.18	24341.57
534.35	24861.17
534.52	24327.53
534.69	24507.75
534.86	24657.54
535.03	24437.53
535.20	24685.63
535.37	24437.53
535.54	24489.03
535.71	24201.14
535.88	24617.75
536.05	24287.74
536.22	24856.49
536.38	24982.88
536.55	24760.53
536.72	25078.84
536.89	24748.82
537.06	24746.48
537.23	24840.11
537.40	24854.15
537.57	25153.74
537.74	24982.88
537.91	25219.27
538.08	25025.01
538.25	24931.39
538.42	25280.13
538.59	25245.02
538.75	24868.19
538.92	24933.73
539.09	25296.51
539.26	25287.15
539.43	25212.25
539.60	25385.45
539.77	25125.65
539.94	25443.96
540.11	25340.98
540.28	25333.96
540.44	25252.04
540.61	25617.16
540.78	25266.08
540.95	25659.29
541.12	25694.40
541.29	25675.68
541.46	25673.34
541.62	25612.48
541.79	25837.17
541.96	25556.31
542.13	25621.84
542.30	25635.89
542.47	26190.59
542.63	25912.07
542.80	25745.89
542.97	26178.89
543.14	26340.39
543.31	25975.27
543.48	26366.13
543.64	26665.72
543.81	26230.38
543.98	26387.20
544.15	26199.96
544.32	26663.38
544.48	26228.04
544.65	26181.23
544.82	26417.63
544.99	26529.97
545.16	26216.34
545.32	26403.58
545.49	26555.72
545.66	26785.09
545.83	26382.52
546.00	26707.85
546.16	26698.49
546.33	26815.52
546.50	26291.24
546.67	26902.12
546.83	26354.43
547.00	26553.38
547.17	26724.24
547.34	26801.47
547.50	26813.18
547.67	27047.23
547.84	26663.38
548.00	27096.38
548.17	27150.21
548.34	27068.30
548.51	27054.25
548.67	27307.03
548.84	27136.17
549.01	27332.78
549.18	27063.61
549.34	27110.43
549.51	27070.64
549.68	27185.32
549.84	27082.34
550.01	27550.45
550.18	27009.78
550.34	27077.66
550.51	27365.54
550.68	27662.79
550.84	26831.90
551.01	27625.34
551.18	27459.16
551.34	27384.27
551.51	27182.98
551.68	27454.48
551.84	27576.19
552.01	27503.64
552.18	27688.54
552.34	27503.64
552.51	27676.83
552.68	27374.91
552.84	27646.41
553.01	27594.92
553.18	27681.52
553.34	27484.91
553.51	27810.25
553.67	27917.91
553.84	28004.51
554.01	27936.63
554.17	27505.98
554.34	27835.99
554.51	27718.96
554.67	27899.19
554.84	27950.68
555.00	27817.27
555.17	27826.63
555.33	27775.14
555.50	27786.84
555.67	27843.01
555.83	27866.42
556.00	27835.99
556.16	28278.35
556.33	28271.33
556.50	28133.24
556.66	28393.04
556.83	27971.74
556.99	28430.49
557.16	28662.20
557.32	28266.65
557.49	28545.17
557.65	27941.32
557.82	28023.23
557.98	28233.88
558.15	28313.46
558.32	28402.40
558.48	28306.44
558.65	28371.97
558.81	28570.92
558.98	28386.02
559.14	28402.40
559.31	28386.02
559.47	28638.80
559.64	28336.87
559.80	28596.67
559.97	28549.85
560.13	28460.91
560.30	28491.34
560.46	28575.60
560.63	28573.26
560.79	28423.47
560.96	28854.12
561.12	28233.88
561.29	28781.57
561.45	28706.67
561.61	28470.28
561.78	28725.39
561.94	28673.90
562.11	28868.17
562.27	28926.68
562.44	28776.89
562.60	28905.62
562.77	28582.62
562.93	28760.50
563.10	29230.95
563.26	29001.58
563.42	29486.07
563.59	29041.37
563.75	29092.86
563.92	28718.37
564.08	28851.78
564.24	29029.66
564.41	28910.30
564.57	28863.49
564.74	28952.43
564.90	29069.45
565.07	29071.79
565.23	28945.41
565.39	29177.12
565.56	29132.65
565.72	28432.83
565.88	29172.44
566.05	28746.46
566.21	28816.68
566.38	28734.76
566.54	29315.21
566.70	29090.52
566.87	29132.65
567.03	29050.73
567.19	29228.61
567.36	29397.13
567.52	29446.28
567.68	28835.40
567.85	29020.30
568.01	28957.11
568.17	29097.54
568.34	29209.89
568.50	29223.93
568.66	29076.48
568.83	29310.53
568.99	29326.91
569.15	29088.18
569.32	29036.69
569.48	29013.28
569.64	29219.25
569.81	29450.96
569.97	29083.50
570.13	29333.93
570.30	29095.20
570.46	29294.14
570.62	29525.86
570.78	29694.38
570.95	29067.11
571.11	29369.04
571.27	29303.51
571.43	29186.48
571.60	29191.16
571.76	29575.01
571.92	29865.24
572.09	29373.72
572.25	29457.98
572.41	29289.46
572.57	29481.39
572.74	29607.78
572.90	29275.42
573.06	29277.76
573.22	29670.97
573.38	29467.34
573.55	29507.13
573.71	29544.58
573.87	29357.34
574.03	29565.65
574.20	29738.85
574.36	29312.87
574.52	29397.13
574.68	29493.09
574.84	29359.68
575.01	29280.10
575.17	29132.65
575.33	29429.90
575.49	29275.42
575.65	29638.20
575.82	29675.65
575.98	29621.82
576.14	29736.51
576.30	29560.97
576.46	29619.48
576.62	29514.16
576.79	29432.24
576.95	29443.94
577.11	29731.83
577.27	29663.95
577.43	29696.72
577.59	29813.74
577.75	29462.66
577.92	29460.32
578.08	29001.58
578.24	29509.47
578.40	29558.63
578.56	29418.19
578.72	29652.25
578.88	29958.86
579.04	29530.54
579.21	29813.74
579.37	29244.99
579.53	29738.85
579.69	29359.68
579.85	29682.67
580.01	30019.71
580.17	29366.70
580.33	29589.05
580.49	29687.36
580.65	29916.73
580.82	29310.53
580.98	29500.11
581.14	29802.04
581.30	29713.10
581.46	29455.64
581.62	29507.13
581.78	28973.49
581.94	29759.91
582.10	29736.51
582.26	29811.40
582.42	29701.40
582.58	29619.48
582.74	29673.31
582.90	29919.07
583.06	29766.93
583.22	29532.88
583.38	29954.18
583.54	29518.84
583.70	29614.80
583.86	29795.02
584.02	29790.34
584.18	29818.42
584.34	29759.91
584.50	29766.93
584.66	29876.94
584.82	29336.27
584.98	30036.09
585.14	29996.31
585.30	29310.53
585.46	29537.56
585.62	29621.82
585.78	29879.28
585.94	29888.64
586.10	30010.35
586.26	29713.10
586.42	29799.70
586.58	29837.15
586.74	29570.33
586.90	29635.86
587.06	29610.12
587.22	29539.90
587.38	29741.19
587.54	29926.09
587.70	30445.69
587.86	29663.95
588.02	29975.24
588.18	30213.98
588.34	29764.59
588.49	30094.61
588.65	29514.16
588.81	29858.21
588.97	30125.04
589.13	29823.11
589.29	29855.87
589.45	29530.54
589.61	30075.88
589.77	30197.59
589.93	29919.07
590.08	30183.55
590.24	30309.94
590.40	30415.26
590.56	30169.51
590.72	29956.52
590.88	29902.68
591.04	29991.62
591.20	30047.80
591.35	30242.06
591.51	30485.48
591.67	30260.79
591.83	30110.99
591.99	30108.65
592.15	30054.82
592.31	30022.05
592.46	29993.97
592.62	29813.74
592.78	30314.62
592.94	29895.66
593.10	29890.98
593.26	30075.88
593.41	30373.13
593.57	30176.53
593.73	30480.80
593.89	30443.35
594.05	30078.22
594.20	30366.11
594.36	30230.36
594.52	30050.14
594.68	29996.31
594.84	29958.86
594.99	30452.71
595.15	30073.54
595.31	30384.83
595.47	30391.86
595.62	30099.29
595.78	29809.06
595.94	30120.35
596.10	29982.26
596.25	30419.94
596.41	30309.94
596.57	29991.62
596.73	30199.93
596.88	30099.29
597.04	30609.53
597.20	30525.27
597.36	30242.06
597.51	30707.83
597.67	29975.24
597.83	30569.74
597.99	30218.66
598.14	30246.74
598.30	30389.52
598.46	30323.98
598.61	30515.90
598.77	29886.30
598.93	30061.84
599.09	30476.12
599.24	30412.92
599.40	30253.76
599.56	30827.20
599.71	30103.97
599.87	30824.86
600.03	30513.56
600.18	30174.19
600.34	29729.48
600.50	30164.82
600.65	30221.00
600.81	30419.94
600.97	30188.23
601.12	30895.07
601.28	30548.67
601.44	30183.55
601.59	30553.35
601.75	30581.44
601.91	30691.44
602.06	30551.01
602.22	29912.05
602.37	29858.21
602.53	30216.32
602.69	30305.26
602.84	30480.80
603.00	30555.69
603.16	30609.53
603.31	30476.12
603.47	30249.08
603.62	30536.97
603.78	30370.79
603.94	29874.60
604.09	30192.91
604.25	30157.80
604.40	30307.60
604.56	30270.15
604.71	30235.04
604.87	30628.25
605.03	30504.20
605.18	30377.81
605.34	30398.88
605.49	30562.72
605.65	29848.85
605.80	30089.93
605.96	30199.93
606.12	30424.62
606.27	30139.08
606.43	29963.54
606.58	30349.73
606.74	30162.48
606.89	30316.96
607.05	30616.55
607.20	30345.05
607.36	30305.26
607.51	30195.25
607.67	30000.99
607.82	30375.47
607.98	29694.38
608.13	30061.84
608.29	30206.95
608.44	30015.03
608.60	30127.38
608.75	30096.95
608.91	30239.72
609.06	29998.65
609.22	30543.99
609.37	30139.08
609.53	30412.92
609.68	29752.89
609.84	29902.68
609.99	30080.56
610.15	30253.76
610.30	29600.76
610.46	30047.80
610.61	29930.77
610.76	30157.80
610.92	29809.06
611.07	30064.18
611.23	30000.99
611.38	30132.06
611.54	29780.98
611.69	30221.00
611.84	29806.72
612.00	29895.66
612.15	29961.20
612.31	30246.74
612.46	29790.34
612.62	30096.95
612.77	29769.27
612.92	30190.57
613.08	30003.33
613.23	29979.92
613.39	29951.84
613.54	29799.70
613.69	29565.65
613.85	29647.57
614.00	29820.77
614.15	29687.36
614.31	29626.50
614.46	30012.69
614.62	29958.86
614.77	30054.82
614.92	29703.74
615.08	29717.78
615.23	29596.07
615.38	29682.67
615.54	29656.93
615.69	29816.08
615.84	29553.94
616.00	29486.07
616.15	29111.58
616.30	30073.54
616.46	29390.11
616.61	29134.99
616.76	29677.99
616.92	29085.84
617.07	29888.64
617.22	29149.03
617.37	29310.53
617.53	29441.60
617.68	29502.45
617.83	29268.40
617.99	29282.44
618.14	29263.72
618.29	29535.22
618.45	29378.40
618.60	29252.02
618.75	29062.43
618.90	29792.68
619.06	29598.41
619.21	29542.24
619.36	29504.79
619.51	29301.17
619.67	29106.90
619.82	28762.84
619.97	29207.55
620.12	29223.93
620.28	29214.57
620.43	29046.05
620.58	29462.66
620.73	29233.29
620.89	29137.33
621.04	29495.43
621.19	29179.46
621.34	29109.24
621.49	28837.74
621.65	28994.56
621.80	29256.70
621.95	29120.95
622.10	29401.81
622.25	28748.80
622.41	28954.77
622.56	28748.80
622.71	29048.39
622.86	28720.71
623.01	29102.22
623.16	28936.04
623.32	28776.89
623.47	28748.80
623.62	28680.92
623.77	28610.71
623.92	28723.05
624.07	28652.84
624.23	28643.48
624.38	28795.61
624.53	28723.05
624.68	28467.94
624.83	28940.72
624.98	28687.95
625.13	28439.85
625.29	28996.90
625.44	28725.39
625.59	28620.07
625.74	28711.35
625.89	28627.09
626.04	28362.61
626.19	28685.61
626.34	28622.41
626.49	28301.76
626.65	28402.40
626.80	28676.24
626.95	28512.41
627.10	28596.67
627.25	28388.36
627.40	28240.90
627.55	28575.60
627.70	28119.20
627.85	27971.74
628.00	27985.79
628.15	28177.71
628.30	27791.52
628.45	27908.55
628.60	28294.74
628.76	28545.17
628.91	28273.67
629.06	27892.16
629.21	28201.11
629.36	28268.99
629.51	28053.66
629.66	28088.77
629.81	28058.34
629.96	27924.93
630.11	28114.52
630.26	27946.00
630.41	27644.07
630.56	27527.04
630.71	28580.28
630.86	27868.76
631.01	27777.48
631.16	28032.60
631.31	27594.92
631.46	28048.98
631.61	27936.63
631.76	27793.86
631.91	27847.69
632.06	27693.22
632.21	27557.47
632.36	27725.99
632.51	27744.71
632.66	27796.20
632.81	27615.98
632.96	28023.23
633.10	27805.56
633.25	27866.42
633.40	27501.29
633.55	27620.66
633.70	27297.67
633.85	27166.60
634.00	27426.40
634.15	27798.54
634.30	27644.07
634.45	27211.07
634.60	27332.78
634.75	27838.33
634.90	27496.61
635.05	27690.88
635.19	27494.27
635.34	27878.12
635.49	27807.90
635.64	27466.19
635.79	27501.29
635.94	27370.22
636.09	27353.84
636.24	27466.19
636.39	27131.49
636.53	27253.20
636.68	26948.93
636.83	27285.97
636.98	27342.14
637.13	27311.71
637.28	27363.20
637.43	27393.63
637.57	27541.08
637.72	27370.22
637.87	27108.08
638.02	27330.44
638.17	26965.31
638.32	27117.45
638.46	27014.46
638.61	27068.30
638.76	26527.63
638.91	27143.19
639.06	26993.40
639.20	26567.42
639.35	26824.88
639.50	27044.89
639.65	27332.78
639.80	27330.44
639.94	27049.57
640.09	27033.19
640.24	26969.99
640.39	26871.69
640.54	26930.20
640.68	26773.39
640.83	26707.85
640.98	26742.96
641.13	26682.11
641.27	26792.11
641.42	26932.54
641.57	26649.34
641.72	26806.16
641.86	26867.01
642.01	26541.68
642.16	26239.75
642.31	26551.04
642.45	26757.00
642.60	26623.59
642.75	26178.89
642.90	26321.66
643.04	26382.52
643.19	26260.81
643.34	26747.64
643.48	26485.50
643.63	26487.84
643.78	26672.74
643.93	26469.12
644.07	26527.63
644.22	26405.92
644.37	26574.44
644.51	26785.09
644.66	26424.65
644.81	26441.03
644.95	26342.73
645.10	26122.72
645.25	26309.96
645.39	26246.77
645.54	26239.75
645.69	26146.12
645.83	26443.37
645.98	26239.75
646.13	26363.79
646.27	26501.89
646.42	26396.56
646.57	26361.45
646.71	26382.52
646.86	26270.17
647.00	25963.56
647.15	25979.95
647.30	26419.97
647.44	25762.28
647.59	26094.63
647.74	26057.18
647.88	25935.48
648.03	26099.31
648.17	26134.42
648.32	26127.40
648.47	25898.03
648.61	25811.43
648.76	25734.19
648.90	26005.69
649.05	25804.41
649.20	26082.93
649.34	25855.90
649.49	25493.12
649.63	25830.15
649.78	25757.60
649.92	25750.57
650.07	25853.56
650.21	25766.96
650.36	25699.08
650.51	25577.37
650.65	25465.03
650.80	25986.97
650.94	25809.09
651.09	25603.12
651.23	25645.25
651.38	25605.46
651.52	25291.83
651.67	25497.80
651.81	25678.02
651.96	25413.54
652.10	25603.12
652.25	25371.41
652.39	25858.24
652.54	25731.85
652.68	25720.15
652.83	25448.64
652.97	25790.36
653.12	25301.19
653.26	25284.81
653.41	25270.76
653.55	25502.48
653.70	25436.94
653.84	25284.81
653.99	25481.41
654.13	25296.51
654.27	25127.99
654.42	25266.08
654.56	25465.03
654.71	25425.24
654.85	25383.11
655.00	25656.95
655.14	25153.74
655.29	25249.70
655.43	25495.46
655.57	25408.86
655.72	25003.94
655.86	25043.73
656.01	25041.39
656.15	25043.73
656.30	25104.59
656.44	25198.21
656.58	24964.15
656.73	24723.08
656.87	25008.62
657.01	25071.82
657.16	25020.33
657.30	25200.55
657.45	24725.42
657.59	24980.54
657.73	24470.30
657.88	24800.32
658.02	25053.09
658.16	24800.32
658.31	24830.74
658.45	24957.13
658.60	24540.52
658.74	24177.73
658.88	24664.57
659.03	24631.80
659.17	24732.44
659.31	24634.14
659.46	24549.88
659.60	24765.21
659.74	24432.85
659.89	24664.57
660.03	24329.87
660.17	24725.42
660.32	23903.89
660.46	24142.63
660.60	24077.09
660.74	24313.48
660.89	24535.84
661.03	23728.35
661.17	24416.47
661.32	24205.82
661.46	24528.81
661.60	24320.51
661.74	24334.55
661.89	24053.69
662.03	24519.45
662.17	24276.04
662.31	24095.82
662.46	24285.40
662.60	24215.18
662.74	24130.92
662.88	23948.36
663.03	23833.68
663.17	23604.30
663.31	23536.43
663.45	23697.92
663.60	23840.70
663.74	23777.50
663.88	23503.66
664.02	23693.24
664.17	23688.56
664.31	23527.06
664.45	23655.79
664.59	23374.93
664.73	23414.72
664.88	23248.54
665.02	23185.35
665.16	23379.61
665.30	23246.20
665.44	23356.21
665.59	23014.49
665.73	23232.16
665.87	22993.42
666.01	23482.59
666.15	23257.90
666.29	23211.09
666.44	23021.51
666.58	22883.42
666.72	23035.55
666.86	22752.35
667.00	23335.14
667.14	22930.23
667.28	22794.48
667.43	22829.59
667.57	22888.10
667.71	22581.49
667.85	22747.67
667.99	22951.29
668.13	22925.55
668.27	22691.49
668.41	22836.61
668.56	22682.13
668.70	22878.74
668.84	22775.75
668.98	22682.13
669.12	22480.85
669.26	22476.16
669.40	22719.58
669.54	22302.96
669.68	22324.03
669.82	22307.65
669.96	22394.25
670.10	21811.45
670.25	22199.98
670.39	22097.00
670.53	22134.45
670.67	21961.25
670.81	22146.15
670.95	22075.93
671.09	22148.49
671.23	22209.34
671.37	22143.81
671.51	21944.86
671.65	21729.53
671.79	21811.45
671.93	22139.13
672.07	21685.06
672.21	22235.09
672.35	21589.10
672.49	21671.02
672.63	21469.73
672.77	21544.63
672.91	21195.89
673.05	21362.07
673.19	21310.58
673.33	21369.09
673.47	21708.47
673.61	21296.53
673.75	21041.42
673.89	21502.50
674.03	21378.45
674.17	21198.23
674.31	21116.31
674.45	21535.27
674.59	21120.99
674.73	21160.78
674.87	21036.74
675.01	21001.63
675.15	20760.55
675.29	20664.59
675.43	20500.75
675.56	20713.74
675.70	20489.05
675.84	20835.45
675.98	20247.97
676.12	20615.44
676.26	20594.37
676.40	20589.69
676.54	20870.56
676.68	20528.84
676.82	20046.69
676.96	20194.14
677.10	20023.28
677.23	20006.90
677.37	20051.37
677.51	19878.17
677.65	20098.18
677.79	19917.96
677.93	19634.75
678.07	19772.85
678.21	19456.87
678.34	19506.02
678.48	19550.49
678.62	19845.40
678.76	19667.52
678.90	19515.39
679.04	19688.59
679.18	19122.18
679.31	18771.10
679.45	19325.80
679.59	19122.18
679.73	18937.27
679.87	19054.30
680.00	18874.08
680.14	18801.52
680.28	19014.51
680.42	18745.35
680.56	18684.50
680.70	18845.99
680.83	18747.69
680.97	18871.74
681.11	18721.95
681.25	18625.98
681.39	18785.14
681.52	18403.63
681.66	18347.46
681.80	18295.97
681.94	18471.51
682.07	18295.97
682.21	18171.92
682.35	17912.12
682.49	17944.89
682.62	17874.67
682.76	18169.58
682.90	17975.31
683.04	17994.04
683.17	17909.78
683.31	17958.93
683.45	18050.21
683.59	18115.75
683.72	17689.77
683.86	17605.51
684.00	17563.38
684.13	17341.03
684.27	17671.04
684.41	17254.43
684.55	17256.77
684.68	17177.19
684.82	17008.67
684.96	17043.78
685.09	17027.40
685.23	16748.87
685.37	17214.64
685.50	17184.21
685.64	17015.69
685.78	16783.98
685.91	16842.50
686.05	17022.72
686.19	16634.19
686.32	16940.80
686.46	16641.21
686.60	16535.88
686.73	16545.25
686.87	16278.43
687.01	16025.65
687.14	16063.10
687.28	16086.50
687.42	16255.02
687.55	16236.30
687.69	16081.82
687.82	15763.51
687.96	15903.94
688.10	15861.81
688.23	15606.69
688.37	15917.98
688.50	15807.98
688.64	15999.90
688.78	15763.51
688.91	15686.27
689.05	15433.49
689.18	15367.96
689.32	15133.90
689.46	15204.12
689.59	15363.28
689.73	15318.81
689.86	15157.31
690.00	15154.97
690.13	14871.76
690.27	15089.43
690.41	15318.81
690.54	14995.81
690.68	14848.36
690.81	14986.45
690.95	14885.81
691.08	14810.91
691.22	14511.32
691.35	14637.71
691.49	14642.39
691.62	14621.33
691.76	14253.86
691.89	14443.45
692.03	14342.80
692.16	14415.36
692.30	14284.29
692.43	14097.05
692.57	14216.41
692.70	14185.99
692.84	13888.74
692.97	13998.74
693.11	14038.53
693.24	13673.41
693.38	14029.17
693.51	13743.63
693.65	13853.63
693.78	13750.65
693.92	14008.11
694.05	13584.47
694.19	13589.15
694.32	13322.33
694.45	13638.30
694.59	13191.26
694.72	13214.66
694.86	13165.51
694.99	13036.78
695.13	13214.66
695.26	12999.34
695.39	13226.37
695.53	13315.31
695.66	13074.23
695.80	13151.47
695.93	12999.34
696.07	12917.42
696.20	12875.29
696.33	12842.52
696.47	12739.54
696.60	12601.44
696.73	12805.07
696.87	12751.24
697.00	12606.13
697.14	12479.74
697.27	12065.46
697.40	12503.14
697.54	12276.11
697.67	12250.36
697.80	12028.01
697.94	11925.03
698.07	12107.59
698.21	11920.35
698.34	12161.42
698.47	12088.87
698.61	11969.50
698.74	11997.59
698.87	11962.48
699.01	11800.98
699.14	11595.01
699.27	11648.85
699.40	11681.61
699.54	11557.57
699.67	11655.87
699.80	11398.41
699.94	11396.07
700.07	11260.32
700.20	11229.89
700.34	11108.18
700.47	11173.72
700.60	11199.46
700.73	11143.29
700.87	11101.16
701.00	11220.53
701.13	11192.44
701.26	11061.37
701.40	11124.57
701.53	10850.72
701.66	10869.45
701.79	10815.62
701.93	11019.24
702.06	10810.93
702.19	10626.03
702.32	10501.98
702.46	10555.82
702.59	10431.77
702.72	10436.45
702.85	10541.77
702.99	10284.31
703.12	10448.15
703.25	10207.08
703.38	10225.80
703.51	10389.64
703.65	10197.71
703.78	10183.67
703.91	10153.24
704.04	10047.92
704.17	10125.16
704.31	10111.11
704.44	10068.98
704.57	9792.80
704.70	9848.97
704.83	9724.93
704.96	9757.69
705.10	9392.57
705.23	9572.79
>>>>>End Processed Spectral Data<<<<<
