SpectraSuite Data File
++++++++++++++++++++++++++++++++++++
Date: Fri Oct 18 13:58:28 GMT-05:00 2013
User: bianchi
Dark Spectrum Present: No
Reference Spectrum Present: No
Number of Sampled Component Spectra: 1
Spectrometers: USB2+H05261
Integration Time (usec): 50000 (USB2+H05261)
Spectra Averaged: 1 (USB2+H05261)
Boxcar Smoothing: 0 (USB2+H05261)
Correct for Electrical Dark: No (USB2+H05261)
Strobe/Lamp Enabled: No (USB2+H05261)
Correct for Detector Non-linearity: No (USB2+H05261)
Correct for Stray Light: No (USB2+H05261)
Number of Pixels in Processed Spectrum: 2048
>>>>>Begin Processed Spectral Data<<<<<
365.73	0.00
365.92	0.00
366.12	0.00
366.32	0.00
366.52	0.00
366.72	0.00
366.91	0.00
367.11	0.00
367.31	0.00
367.51	0.00
367.70	0.00
367.90	0.00
368.10	0.00
368.30	0.00
368.49	0.00
368.69	0.00
368.89	0.00
369.09	0.00
369.28	0.00
369.48	0.00
369.68	0.00
369.87	0.00
370.07	0.00
370.27	0.00
370.47	0.00
370.66	140.43
370.86	95.96
371.06	114.69
371.25	177.88
371.45	135.75
371.65	105.32
371.84	102.98
372.04	126.39
372.24	175.54
372.44	245.76
372.63	198.95
372.83	175.54
373.03	147.45
373.22	203.63
373.42	177.88
373.62	189.58
373.81	245.76
374.01	208.31
374.21	262.14
374.40	257.46
374.60	318.31
374.79	236.39
374.99	194.26
375.19	264.48
375.38	280.86
375.58	259.80
375.78	257.46
375.97	248.10
376.17	299.59
376.37	290.23
376.56	215.33
376.76	191.92
376.95	234.05
377.15	196.60
377.35	276.18
377.54	325.33
377.74	292.57
377.93	276.18
378.13	222.35
378.33	315.97
378.52	255.12
378.72	339.38
378.91	318.31
379.11	292.57
379.31	227.03
379.50	334.70
379.70	327.68
379.89	257.46
380.09	196.60
380.28	259.80
380.48	271.50
380.68	243.42
380.87	257.46
381.07	337.04
381.26	308.95
381.46	294.91
381.65	362.78
381.85	306.61
382.04	308.95
382.24	362.78
382.43	360.44
382.63	304.27
382.83	308.95
383.02	325.33
383.22	320.65
383.41	358.10
383.61	353.42
383.80	299.59
384.00	348.74
384.19	468.11
384.39	372.15
384.58	299.59
384.78	341.72
384.97	376.83
385.17	365.12
385.36	358.10
385.56	332.36
385.75	414.27
385.95	339.38
386.14	444.70
386.34	433.00
386.53	411.93
386.72	372.15
386.92	449.38
387.11	395.55
387.31	402.57
387.50	390.87
387.70	376.83
387.89	449.38
388.09	407.25
388.28	428.32
388.48	416.62
388.67	484.49
388.86	465.77
389.06	409.59
389.25	435.34
389.45	402.57
389.64	414.27
389.84	456.40
390.03	458.74
390.22	482.15
390.42	442.36
390.61	493.85
390.81	477.47
391.00	430.66
391.19	538.32
391.39	531.30
391.58	479.81
391.78	493.85
391.97	526.62
392.16	547.69
392.36	519.60
392.55	547.69
392.75	442.36
392.94	489.17
393.13	545.34
393.33	526.62
393.52	444.70
393.71	461.09
393.91	608.54
394.10	587.47
394.29	606.20
394.49	486.83
394.68	592.16
394.88	613.22
395.07	587.47
395.26	582.79
395.46	599.18
395.65	596.84
395.84	566.41
396.04	676.41
396.23	589.82
396.42	622.58
396.62	657.69
396.81	592.16
397.00	645.99
397.19	713.86
397.39	564.07
397.58	608.54
397.77	671.73
397.97	674.07
398.16	629.60
398.35	660.03
398.55	667.05
398.74	781.74
398.93	685.78
399.12	657.69
399.32	657.69
399.51	709.18
399.70	763.01
399.90	634.29
400.09	748.97
400.28	753.65
400.47	805.14
400.67	795.78
400.86	819.19
401.05	819.19
401.24	791.10
401.44	777.06
401.63	837.91
401.82	812.17
402.01	858.98
402.21	730.25
402.40	774.72
402.59	809.83
402.78	861.32
402.97	889.40
403.17	854.30
403.36	898.77
403.55	833.23
403.74	880.04
403.93	880.04
404.13	931.53
404.32	894.08
404.51	835.57
404.70	924.51
404.89	873.02
405.09	954.94
405.28	880.04
405.47	952.60
405.66	901.11
405.85	863.66
406.05	919.83
406.24	915.15
406.43	954.94
406.62	898.77
406.81	992.39
407.00	1020.47
407.20	966.64
407.39	964.30
407.58	997.07
407.77	1053.24
407.96	1053.24
408.15	1053.24
408.34	1032.18
408.54	999.41
408.73	1043.88
408.92	1109.41
409.11	1062.60
409.30	1069.62
409.49	1064.94
409.68	1107.07
409.87	1137.50
410.07	1100.05
410.26	1184.31
410.45	1177.29
410.64	1107.07
410.83	1275.59
411.02	1226.44
411.21	1226.44
411.40	1109.41
411.59	1252.19
411.78	1254.53
411.98	1214.74
412.17	1245.16
412.36	1224.10
412.55	1121.12
412.74	1336.45
412.93	1359.85
413.12	1334.11
413.31	1345.81
413.50	1348.15
413.69	1362.19
413.88	1481.56
414.07	1376.24
414.26	1385.60
414.45	1493.26
414.64	1338.79
414.83	1497.94
415.02	1497.94
415.22	1481.56
415.41	1547.09
415.60	1593.90
415.79	1526.03
415.98	1582.20
416.17	1540.07
416.36	1584.54
416.55	1607.95
416.74	1614.97
416.93	1561.14
417.12	1579.86
417.31	1633.69
417.50	1825.62
417.69	1708.59
417.88	1717.95
418.07	1748.38
418.26	1680.50
418.45	1762.42
418.64	1713.27
418.83	1792.85
419.02	1689.87
419.21	1937.96
419.39	1799.87
419.58	1715.61
419.77	1811.57
419.96	1966.05
420.15	1900.52
420.34	1839.66
420.53	1785.83
420.72	1825.62
420.91	1802.21
421.10	1788.17
421.29	2003.50
421.48	1933.28
421.67	1863.07
421.86	1888.81
422.05	2001.16
422.24	1956.69
422.43	1916.90
422.61	2026.90
422.80	1996.48
422.99	1926.26
423.18	2113.50
423.37	2083.08
423.56	1963.71
423.75	2019.88
423.94	2054.99
424.13	1823.28
424.32	1863.07
424.50	2104.14
424.69	1952.01
424.88	2017.54
425.07	1905.20
425.26	1912.22
425.45	1954.35
425.64	2015.20
425.83	1926.26
426.01	2134.57
426.20	2050.31
426.39	2120.53
426.58	2045.63
426.77	2012.86
426.96	2073.71
427.15	2115.84
427.33	2108.82
427.52	2104.14
427.71	2083.08
427.90	2057.33
428.09	2207.13
428.28	2197.76
428.46	2169.68
428.65	2195.42
428.84	2076.06
429.03	2146.27
429.22	2148.61
429.40	2310.11
429.59	2256.28
429.78	2244.57
429.97	2186.06
430.16	2127.55
430.34	2190.74
430.53	2356.92
430.72	2305.43
430.91	2356.92
431.10	2319.47
431.28	2420.11
431.47	2495.01
431.66	2366.28
431.85	2298.41
432.03	2408.41
432.22	2427.14
432.41	2385.01
432.60	2504.37
432.79	2473.95
432.97	2328.83
433.16	2403.73
433.35	2544.16
433.54	2455.22
433.72	2492.67
433.91	2473.95
434.10	2469.27
434.28	2534.80
434.47	2471.61
434.66	2520.76
434.85	2408.41
435.03	2586.29
435.22	2637.78
435.41	2651.83
435.59	2689.28
435.78	2457.56
435.97	2651.83
436.16	2715.02
436.34	2644.81
436.53	2593.31
436.72	2736.09
436.90	2586.29
437.09	2834.39
437.28	2565.23
437.46	2731.41
437.65	2754.81
437.84	2780.56
438.02	2871.84
438.21	2712.68
438.40	2644.81
438.58	2733.75
438.77	2773.53
438.96	2726.72
439.14	2986.52
439.33	2935.03
439.52	2988.86
439.70	3005.25
439.89	3009.93
440.08	2972.48
440.26	2942.05
440.45	2935.03
440.63	3082.49
440.82	3063.76
441.01	3045.04
441.19	3152.70
441.38	3096.53
441.57	3021.63
441.75	3215.90
441.94	3332.92
442.12	3112.91
442.31	3295.47
442.50	3255.69
442.68	3206.53
442.87	3335.26
443.05	3258.03
443.24	3349.31
443.43	3391.44
443.61	3410.16
443.80	3522.51
443.98	3316.54
444.17	3103.55
444.35	3351.65
444.54	3323.56
444.73	3351.65
444.91	3361.01
445.10	3290.79
445.28	3293.13
445.47	3468.67
445.65	3281.43
445.84	3302.50
446.02	3487.40
446.21	3377.39
446.39	3522.51
446.58	3482.72
446.77	3426.54
446.95	3361.01
447.14	3478.04
447.32	3431.23
447.51	3414.84
447.69	3452.29
447.88	3625.49
448.06	3508.46
448.25	3417.18
448.43	3527.19
448.62	3487.40
448.80	3475.70
448.99	3630.17
449.17	3447.61
449.36	3522.51
449.54	3550.59
449.73	3679.32
449.91	3693.37
450.10	3705.07
450.28	3716.77
450.46	3655.92
450.65	3838.48
450.83	3646.55
451.02	3686.34
451.20	3735.50
451.39	3758.90
451.57	3641.87
451.76	3648.90
451.94	3859.54
452.13	3840.82
452.31	3887.63
452.49	3681.66
452.68	3770.60
452.86	3840.82
453.05	3904.01
453.23	3932.10
453.42	3852.52
453.60	3805.71
453.78	3864.22
453.97	3932.10
454.15	3960.19
454.34	3896.99
454.52	4028.06
454.70	4077.21
454.89	4051.47
455.07	3995.29
455.26	3908.69
455.44	4042.11
455.62	4023.38
455.81	4037.42
455.99	3995.29
456.17	4028.06
456.36	4077.21
456.54	4170.83
456.73	3922.74
456.91	4217.65
457.09	4250.41
457.28	4297.22
457.46	4219.99
457.64	4320.63
457.83	4292.54
458.01	4135.73
458.19	4346.37
458.38	4180.20
458.56	4383.82
458.74	4327.65
458.93	4308.93
459.11	4454.04
459.29	4414.25
459.48	4299.56
459.66	4526.60
459.84	4376.80
460.03	4503.19
460.21	4451.70
460.39	4573.41
460.57	4304.25
460.76	4557.02
460.94	4568.73
461.12	4531.28
461.31	4575.75
461.49	4641.28
461.67	4564.04
461.85	4641.28
462.04	4741.93
462.22	4688.09
462.40	4704.48
462.59	4641.28
462.77	4669.37
462.95	4739.58
463.13	4643.62
463.32	4645.96
463.50	4781.71
463.68	4685.75
463.86	4798.10
464.05	4643.62
464.23	4748.95
464.41	4847.25
464.59	4889.38
464.78	4957.25
464.96	4849.59
465.14	4887.04
465.32	4786.40
465.50	4943.21
465.69	4903.42
465.87	4992.36
466.05	4917.47
466.23	4971.30
466.41	4978.32
466.60	5041.51
466.78	4849.59
466.96	4936.19
467.14	5039.17
467.32	4945.55
467.51	5177.26
467.69	4926.83
467.87	5071.94
468.05	5064.92
468.23	5046.20
468.41	5029.81
468.60	5170.24
468.78	5114.07
468.96	5177.26
469.14	5259.18
469.32	5259.18
469.50	5071.94
469.69	5284.93
469.87	5383.23
470.05	5252.16
470.23	5252.16
470.41	5406.64
470.59	5432.38
470.77	5469.83
470.95	5291.95
471.14	5439.40
471.32	5486.22
471.50	5549.41
471.68	5540.05
471.86	5675.80
472.04	5526.00
472.22	5813.89
472.40	5483.88
472.58	5511.96
472.77	5678.14
472.95	5680.48
473.13	6003.47
473.31	5647.71
473.49	5636.01
473.67	5736.65
473.85	5802.19
474.03	6090.07
474.21	6069.01
474.39	6024.54
474.57	5982.41
474.75	6010.50
474.93	6143.91
475.12	6127.52
475.30	6370.94
475.48	6113.48
475.66	6209.44
475.84	6150.93
476.02	6457.54
476.20	6200.08
476.38	6258.59
476.56	6356.90
476.74	6317.11
476.92	6487.96
477.10	6513.71
477.28	6595.63
477.46	6555.84
477.64	6558.18
477.82	6710.32
478.00	6850.75
478.18	6768.83
478.36	6810.96
478.54	6902.24
478.72	7007.56
478.90	7119.91
479.08	6923.30
479.26	7262.68
479.44	7229.91
479.62	7281.41
479.80	7250.98
479.98	7473.33
480.16	7581.00
480.34	7616.10
480.52	7538.87
480.70	7737.81
480.88	7529.50
481.06	7555.25
481.24	7452.27
481.41	7805.69
481.59	7786.96
481.77	7873.56
481.95	7880.58
482.13	7929.74
482.31	7932.08
482.49	8131.02
482.67	8063.15
482.85	8217.62
483.03	8393.16
483.21	8425.93
483.39	8629.56
483.57	8411.89
483.74	8507.85
483.92	8603.81
484.10	8606.15
484.28	8631.90
484.46	8718.50
484.64	9020.42
484.82	8760.63
485.00	8872.97
485.18	8975.95
485.35	9282.56
485.53	9280.22
485.71	9179.58
485.89	9453.42
486.07	9327.03
486.25	9481.51
486.43	9397.25
486.61	9741.31
486.78	9696.84
486.96	9795.14
487.14	10106.43
487.32	9802.16
487.50	10235.16
487.68	10054.94
487.85	10326.44
488.03	10228.14
488.21	10494.96
488.39	10525.39
488.57	10607.31
488.75	10635.39
488.92	10626.03
489.10	10923.28
489.28	10696.25
489.46	11133.93
489.64	11009.88
489.81	11180.74
489.99	11108.18
490.17	10958.39
490.35	11150.31
490.53	11356.28
490.70	11477.99
490.88	11417.13
491.06	11634.80
491.24	11503.73
491.41	11627.78
491.59	11674.59
491.77	11775.24
491.95	11955.46
492.13	11960.14
492.30	11873.54
492.48	12091.21
492.66	11948.43
492.84	12355.69
493.01	12327.60
493.19	12514.84
493.37	12666.98
493.54	12884.65
493.72	12713.79
493.90	12758.26
494.08	12865.92
494.25	12807.41
494.43	12952.52
494.61	13107.00
494.79	13107.00
494.96	13085.94
495.14	13327.01
495.32	13437.02
495.49	13224.03
495.67	13413.61
495.85	13678.09
496.02	13462.76
496.20	13668.73
496.38	13544.68
496.55	13771.71
496.73	14005.77
496.91	14001.08
497.09	14064.28
497.26	14391.95
497.44	14197.69
497.62	14232.80
497.79	14527.71
497.97	13980.02
498.14	14635.37
498.32	14834.32
498.50	14609.62
498.67	14712.61
498.85	14703.25
499.03	14600.26
499.20	14803.89
499.38	14796.87
499.56	14876.44
499.73	15047.30
499.91	15133.90
500.08	15129.22
500.26	15138.58
500.44	15269.66
500.61	15534.14
500.79	15412.43
500.97	15569.24
501.14	15599.67
501.32	15770.53
501.49	15637.12
501.67	15707.34
501.84	15594.99
502.02	15646.48
502.20	15690.95
502.37	15889.90
502.55	15934.37
502.72	15920.32
502.90	15943.73
503.07	16149.70
503.25	15910.96
503.43	16065.44
503.60	16002.24
503.78	16332.26
503.95	16477.37
504.13	16320.56
504.30	16460.99
504.48	16360.34
504.65	16751.21
504.83	16760.58
505.01	16760.58
505.18	16706.74
505.36	17083.57
505.53	16872.92
505.71	16753.55
505.88	16868.24
506.06	16891.65
506.23	17336.35
506.41	17090.59
506.58	17254.43
506.76	17095.27
506.93	17411.25
507.11	17057.82
507.28	17418.27
507.46	17153.79
507.63	17722.54
507.81	17619.55
507.98	17544.66
508.16	17743.60
508.33	17467.42
508.50	17778.71
508.68	17818.50
508.85	17841.90
509.03	18082.98
509.20	17774.03
509.38	17968.29
509.55	18071.28
509.73	18085.32
509.90	18244.48
510.08	18143.83
510.25	18228.09
510.42	18190.64
510.60	18506.62
510.77	18515.98
510.95	18651.73
511.12	18403.63
511.30	18773.44
511.47	18595.56
511.64	18705.56
511.82	18656.41
511.99	18621.30
512.17	18740.67
512.34	18670.45
512.51	18764.07
512.69	18988.77
512.86	18927.91
513.04	19278.99
513.21	19222.82
513.38	19253.25
513.56	19522.41
513.73	19157.28
513.90	19293.04
514.08	19241.54
514.25	19419.42
514.43	19585.60
514.60	19583.26
514.77	19761.14
514.95	19754.12
515.12	19606.67
515.29	18986.43
515.47	19765.82
515.64	19852.42
515.81	20168.40
515.99	20208.19
516.16	20135.63
516.33	19758.80
516.51	20128.61
516.68	20013.92
516.85	20004.56
517.03	20013.92
517.20	20381.38
517.37	20294.79
517.54	20147.33
517.72	20208.19
517.89	20236.27
518.06	20400.11
518.24	20374.36
518.41	20362.66
518.58	20315.85
518.75	20250.32
518.93	20709.06
519.10	20877.58
519.27	20725.44
519.45	20638.84
519.62	20903.32
519.79	20697.36
519.96	20713.74
520.14	20872.90
520.31	20943.11
520.48	21151.42
520.65	20945.45
520.83	20987.58
521.00	21034.39
521.17	20943.11
521.34	20943.11
521.52	21387.82
521.69	21376.11
521.86	21490.80
522.03	21612.51
522.20	21668.68
522.38	21757.62
522.55	21427.60
522.72	21568.04
522.89	21940.18
523.07	21703.79
523.24	21972.95
523.41	22218.71
523.58	21680.38
523.75	21914.44
523.92	21701.45
524.10	21867.63
524.27	21830.18
524.44	22174.24
524.61	22174.24
524.78	22331.05
524.96	22228.07
525.13	22082.95
525.30	22129.77
525.47	22567.45
525.64	22118.06
525.81	22445.74
525.98	22455.10
526.16	22438.72
526.33	22267.86
526.50	22597.87
526.67	22302.96
526.84	22579.15
527.01	22637.66
527.18	22628.30
527.36	22876.40
527.53	22885.76
527.70	23194.71
527.87	23225.14
528.04	22747.67
528.21	22689.15
528.38	22967.68
528.55	22881.08
528.72	22860.01
528.89	22991.08
529.07	23133.86
529.24	23197.05
529.41	23063.64
529.58	23101.09
529.75	23281.31
529.92	23129.17
530.09	23412.38
530.26	23288.33
530.43	23381.95
530.60	23288.33
530.77	23470.89
530.94	23372.59
531.11	23594.94
531.28	23204.07
531.46	23103.43
531.63	23360.89
531.80	23587.92
531.97	23903.89
532.14	23468.55
532.31	23747.08
532.48	23583.24
532.65	23716.65
532.82	23688.56
532.99	24180.07
533.16	23637.07
533.33	24009.22
533.50	24189.44
533.67	24093.47
533.84	23784.52
534.01	24058.37
534.18	23843.04
534.35	24154.33
534.52	24182.42
534.69	24060.71
534.86	24294.76
535.03	24329.87
535.20	24425.83
535.37	24482.00
535.54	24531.15
535.71	24095.82
535.88	24538.18
536.05	24718.40
536.22	24840.11
536.38	24671.59
536.55	24638.82
536.72	24458.60
536.89	24645.84
537.06	24755.85
537.23	24451.58
537.40	25083.52
537.57	24875.21
537.74	24498.39
537.91	24856.49
538.08	25003.94
538.25	25022.67
538.42	24985.22
538.59	25102.25
538.75	24657.54
538.92	24652.86
539.09	25343.32
539.26	25165.44
539.43	25151.40
539.60	25383.11
539.77	25207.57
539.94	25434.60
540.11	25458.01
540.28	25284.81
540.44	25069.48
540.61	25184.16
540.78	25137.35
540.95	25469.71
541.12	25135.01
541.29	25352.68
541.46	25418.22
541.62	25338.64
541.79	25699.08
541.96	25205.23
542.13	25326.94
542.30	25558.65
542.47	25729.51
542.63	26017.40
542.80	25638.23
542.97	25895.69
543.14	25986.97
543.31	26267.83
543.48	25820.79
543.64	26103.99
543.81	26132.08
543.98	26160.17
544.15	26192.94
544.32	26008.03
544.48	26024.42
544.65	25935.48
544.82	26015.05
544.99	25900.37
545.16	26080.59
545.32	25991.65
545.49	26740.62
545.66	26522.95
545.83	26349.75
546.00	26565.08
546.16	26206.98
546.33	26157.83
546.50	26118.04
546.67	26773.39
546.83	25858.24
547.00	26384.86
547.17	26396.56
547.34	26508.91
547.50	26515.93
547.67	26436.35
547.84	26555.72
548.00	26677.43
548.17	26904.46
548.34	26859.99
548.51	26981.70
548.67	26864.67
548.84	26920.84
549.01	26726.58
549.18	26881.05
549.34	27035.53
549.51	27019.14
549.68	27016.80
549.84	27101.06
550.01	27087.02
550.18	26874.03
550.34	26981.70
550.51	27157.24
550.68	26958.29
550.84	26881.05
551.01	27178.30
551.18	26700.83
551.34	27087.02
551.51	27402.99
551.68	27307.03
551.84	27330.44
552.01	27152.55
552.18	27754.07
552.34	27316.39
552.51	27363.20
552.68	27218.09
552.84	27398.31
553.01	27555.13
553.18	27580.87
553.34	27578.53
553.51	27304.69
553.67	27772.80
553.84	27997.49
554.01	27812.59
554.17	27667.47
554.34	27770.46
554.51	27398.31
554.67	27276.60
554.84	27529.38
555.00	27302.35
555.17	27494.27
555.33	28077.07
555.50	27913.23
555.67	27424.06
555.83	27639.39
556.00	27887.48
556.16	28161.33
556.33	27917.91
556.50	28030.26
556.66	27772.80
556.83	28037.28
556.99	27660.45
557.16	28430.49
557.32	27620.66
557.49	27733.01
557.65	28107.49
557.82	27920.25
557.98	28261.97
558.15	28077.07
558.32	28175.37
558.48	28182.39
558.65	28058.34
558.81	28261.97
558.98	28376.66
559.14	28177.71
559.31	27737.69
559.47	27950.68
559.64	28058.34
559.80	28257.29
559.97	28411.76
560.13	28563.90
560.30	28240.90
560.46	28744.12
560.63	28531.13
560.79	28411.76
560.96	27768.12
561.12	28180.05
561.29	28507.72
561.45	28613.05
561.61	28407.08
561.78	28294.74
561.94	28514.75
562.11	28416.44
562.27	28210.48
562.44	28701.99
562.60	28194.09
562.77	28325.16
562.93	28245.58
563.10	28830.72
563.26	28746.46
563.42	28966.47
563.59	28446.87
563.75	28463.25
563.92	28900.94
564.08	28730.08
564.24	28889.23
564.41	28374.31
564.57	28931.36
564.74	28788.59
564.90	28872.85
565.07	28830.72
565.23	28624.75
565.39	28809.65
565.56	28797.95
565.72	28985.19
565.88	28907.96
566.05	28631.77
566.21	28676.24
566.38	28847.10
566.54	28772.21
566.70	28978.17
566.87	29223.93
567.03	28917.32
567.19	29413.51
567.36	29214.57
567.52	29017.96
567.68	28917.32
567.85	28655.18
568.01	29228.61
568.17	29090.52
568.34	28877.53
568.50	29137.33
568.66	29308.19
568.83	29057.75
568.99	29003.92
569.15	28849.44
569.32	28914.98
569.48	28753.48
569.64	29006.26
569.81	29060.09
569.97	28879.87
570.13	29174.78
570.30	28943.06
570.46	28975.83
570.62	29060.09
570.78	29294.14
570.95	28865.83
571.11	29034.35
571.27	28563.90
571.43	28973.49
571.60	29053.07
571.76	28875.19
571.92	29254.36
572.09	29032.00
572.25	29116.26
572.41	29184.14
572.57	29223.93
572.74	29160.73
572.90	28919.66
573.06	28980.51
573.22	29441.60
573.38	29462.66
573.55	29076.48
573.71	29495.43
573.87	29357.34
574.03	29200.52
574.20	29181.80
574.36	29137.33
574.52	29127.97
574.68	28924.34
574.84	29174.78
575.01	29247.33
575.17	29207.55
575.33	29120.95
575.49	28964.13
575.65	29212.23
575.82	29460.32
575.98	28940.72
576.14	29256.70
576.30	29130.31
576.46	29333.93
576.62	29020.30
576.79	29043.71
576.95	29504.79
577.11	29329.25
577.27	29628.84
577.43	29476.71
577.59	29259.04
577.75	29481.39
577.92	28992.22
578.08	29240.31
578.24	29479.05
578.40	29071.79
578.56	29511.81
578.72	29509.47
578.88	29467.34
579.04	29385.43
579.21	29394.79
579.37	29324.57
579.53	29282.44
579.69	29088.18
579.85	29338.62
580.01	29390.11
580.17	28865.83
580.33	29399.47
580.49	29275.42
580.65	29743.53
580.82	29392.45
580.98	29181.80
581.14	29575.01
581.30	29523.52
581.46	29144.35
581.62	29282.44
581.78	29081.16
581.94	29095.20
582.10	29425.22
582.26	29401.81
582.42	29715.44
582.58	29685.01
582.74	29504.79
582.90	29312.87
583.06	29198.18
583.22	29249.67
583.38	29516.50
583.54	29490.75
583.70	29654.59
583.86	29287.12
584.02	29008.60
584.18	29701.40
584.34	29788.00
584.50	29488.41
584.66	29404.15
584.82	29584.37
584.98	29638.20
585.14	29387.77
585.30	29383.09
585.46	29034.35
585.62	29465.00
585.78	29537.56
585.94	29340.96
586.10	29481.39
586.26	29666.29
586.42	29420.53
586.58	29748.21
586.74	29668.63
586.90	29055.41
587.06	29139.67
587.22	29558.63
587.38	29624.16
587.54	29364.36
587.70	29509.47
587.86	29659.27
588.02	29764.59
588.18	30019.71
588.34	29401.81
588.49	29869.92
588.65	29727.14
588.81	29645.23
588.97	29893.32
589.13	29734.17
589.29	29502.45
589.45	29523.52
589.61	29626.50
589.77	30024.39
589.93	29848.85
590.08	29895.66
590.24	29968.22
590.40	29963.54
590.56	29598.41
590.72	29788.00
590.88	29413.51
591.04	29640.54
591.20	29926.09
591.35	29785.66
591.51	30022.05
591.67	30401.22
591.83	30082.91
591.99	29785.66
592.15	29682.67
592.31	29759.91
592.46	29551.60
592.62	29518.84
592.78	29872.26
592.94	29979.92
593.10	29535.22
593.26	29965.88
593.41	29792.68
593.57	29839.49
593.73	29617.14
593.89	29970.56
594.05	29898.00
594.20	30377.81
594.36	30010.35
594.52	29685.01
594.68	29596.07
594.84	29902.68
594.99	30265.47
595.15	30153.12
595.31	30075.88
595.47	30129.72
595.62	30312.28
595.78	29631.18
595.94	30249.08
596.10	30005.67
596.25	30082.91
596.41	30082.91
596.57	29652.25
596.73	29947.15
596.88	29935.45
597.04	30181.21
597.20	30195.25
597.36	30115.67
597.51	30188.23
597.67	30183.55
597.83	29989.28
597.99	30066.52
598.14	29530.54
598.30	30085.25
598.46	29764.59
598.61	30298.23
598.77	29919.07
598.93	29689.70
599.09	30246.74
599.24	30696.13
599.40	30103.97
599.56	30391.86
599.71	30141.42
599.87	29926.09
600.03	29748.21
600.18	29912.05
600.34	29895.66
600.50	30132.06
600.65	30319.30
600.81	30380.15
600.97	30125.04
601.12	30267.81
601.28	30000.99
601.44	30136.74
601.59	30459.73
601.75	30061.84
601.91	30429.30
602.06	29788.00
602.22	29654.59
602.37	30157.80
602.53	29792.68
602.69	30235.04
602.84	30157.80
603.00	30143.76
603.16	29773.95
603.31	30380.15
603.47	30342.70
603.62	29811.40
603.78	29926.09
603.94	30026.73
604.09	29968.22
604.25	30066.52
604.40	29792.68
604.56	30176.53
604.71	30314.62
604.87	30607.19
605.03	29883.96
605.18	30157.80
605.34	30122.69
605.49	29909.71
605.65	29666.29
605.80	29912.05
605.96	29762.25
606.12	29914.39
606.27	30558.03
606.43	29752.89
606.58	30022.05
606.74	29708.42
606.89	30026.73
607.05	29785.66
607.20	30188.23
607.36	29926.09
607.51	30174.19
607.67	29832.47
607.82	29666.29
607.98	30122.69
608.13	30190.57
608.29	29972.90
608.44	29619.48
608.60	30143.76
608.75	30457.39
608.91	30237.38
609.06	29956.52
609.22	29902.68
609.37	29486.07
609.53	29771.61
609.68	29237.97
609.84	29827.79
609.99	29713.10
610.15	29603.10
610.30	29521.18
610.46	29596.07
610.61	29677.99
610.76	30000.99
610.92	29951.84
611.07	29900.34
611.23	29427.56
611.38	29661.61
611.54	29432.24
611.69	29586.71
611.84	29694.38
612.00	30022.05
612.15	29493.09
612.31	29425.22
612.46	29713.10
612.62	29776.30
612.77	29996.31
612.92	30157.80
613.08	29773.95
613.23	29472.03
613.39	29652.25
613.54	29214.57
613.69	29549.26
613.85	29495.43
614.00	29504.79
614.15	29514.16
614.31	29275.42
614.46	29443.94
614.62	29443.94
614.77	29867.58
614.92	29626.50
615.08	29413.51
615.23	29404.15
615.38	29666.29
615.54	28947.75
615.69	29401.81
615.84	29233.29
616.00	29755.23
616.15	29436.92
616.30	29481.39
616.46	28847.10
616.61	29834.81
616.76	29490.75
616.92	29394.79
617.07	29277.76
617.22	29230.95
617.37	28847.10
617.53	29092.86
617.68	29228.61
617.83	29043.71
617.99	29200.52
618.14	29226.27
618.29	29369.04
618.45	29441.60
618.60	28933.70
618.75	29305.85
618.90	29296.49
619.06	29174.78
619.21	28720.71
619.36	29088.18
619.51	28772.21
619.67	28844.76
619.82	28418.78
619.97	28790.93
620.12	28835.40
620.28	28489.00
620.43	28982.85
620.58	29146.69
620.73	29186.48
620.89	28734.76
621.04	28788.59
621.19	29223.93
621.34	28734.76
621.49	28645.82
621.65	28833.06
621.80	28811.99
621.95	28924.34
622.10	28313.46
622.25	28645.82
622.41	28545.17
622.56	28477.30
622.71	29008.60
622.86	28748.80
623.01	28629.43
623.16	28744.12
623.32	28622.41
623.47	28332.18
623.62	28428.15
623.77	28734.76
623.92	28540.49
624.07	28332.18
624.23	28648.16
624.38	28348.57
624.53	28308.78
624.68	28727.74
624.83	28687.95
624.98	28561.56
625.13	28692.63
625.29	28959.45
625.44	28603.69
625.59	28591.98
625.74	28243.24
625.89	27981.10
626.04	28208.14
626.19	28128.56
626.34	28151.96
626.49	27948.34
626.65	28133.24
626.80	28058.34
626.95	28336.87
627.10	27922.59
627.25	28147.28
627.40	28018.55
627.55	27873.44
627.70	27798.54
627.85	28037.28
628.00	28048.98
628.15	28027.92
628.30	27931.95
628.45	27831.31
628.60	27833.65
628.76	28222.18
628.91	27756.41
629.06	27702.58
629.21	28266.65
629.36	27819.61
629.51	27946.00
629.66	27798.54
629.81	27651.09
629.96	27751.73
630.11	27456.82
630.26	27903.87
630.41	27484.91
630.56	27807.90
630.71	27976.42
630.86	27477.89
631.01	27410.01
631.16	27796.20
631.31	27438.10
631.46	27550.45
631.61	27564.49
631.76	27688.54
631.91	27412.35
632.06	27594.92
632.21	27447.46
632.36	27562.15
632.51	27445.12
632.66	27405.33
632.81	27154.90
632.96	27054.25
633.10	27690.88
633.25	27950.68
633.40	27424.06
633.55	27707.26
633.70	27311.71
633.85	27220.43
634.00	27288.31
634.15	27192.34
634.30	27318.73
634.45	27330.44
634.60	27054.25
634.75	27379.59
634.90	27250.86
635.05	27433.42
635.19	27077.66
635.34	27405.33
635.49	27335.12
635.64	27438.10
635.79	27105.74
635.94	27269.58
636.09	27044.89
636.24	27091.70
636.39	27019.14
636.53	27541.08
636.68	26871.69
636.83	26799.13
636.98	27264.90
637.13	27182.98
637.28	26906.80
637.43	27248.52
637.57	27239.15
637.72	26771.05
637.87	26810.84
638.02	27021.48
638.17	27218.09
638.32	27098.72
638.46	26434.01
638.61	26450.39
638.76	26628.27
638.91	26710.19
639.06	26513.59
639.20	26836.58
639.35	26562.74
639.50	26719.56
639.65	27197.02
639.80	26705.51
639.94	26836.58
640.09	26859.99
640.24	26799.13
640.39	26628.27
640.54	26494.86
640.68	26359.11
640.83	26508.91
640.98	26476.14
641.13	26749.98
641.27	26494.86
641.42	26539.33
641.57	26663.38
641.72	26810.84
641.86	26099.31
642.01	26221.02
642.16	26260.81
642.31	25926.11
642.45	26316.98
642.60	26012.71
642.75	25963.56
642.90	26284.22
643.04	26251.45
643.19	26057.18
643.34	26504.23
643.48	26169.53
643.63	26457.42
643.78	26125.06
643.93	26764.03
644.07	26703.17
644.22	26412.95
644.37	25993.99
644.51	25809.09
644.66	26078.25
644.81	26223.36
644.95	26038.46
645.10	25741.21
645.25	25710.78
645.39	26106.34
645.54	25778.66
645.69	26352.09
645.83	25914.41
645.98	25898.03
646.13	26260.81
646.27	26214.00
646.42	26150.81
646.57	26410.60
646.71	25837.17
646.86	26047.82
647.00	25741.21
647.15	25909.73
647.30	25652.27
647.44	25656.95
647.59	25909.73
647.74	25984.63
647.88	25584.40
648.03	25832.49
648.17	25865.26
648.32	26010.37
648.47	25865.26
648.61	25972.92
648.76	25940.16
648.90	25862.92
649.05	25949.52
649.20	25455.67
649.34	25790.36
649.49	25425.24
649.63	25706.10
649.78	25184.16
649.92	25570.35
650.07	25865.26
650.21	25715.47
650.36	25427.58
650.51	25891.01
650.65	25446.30
650.80	25741.21
650.94	25460.35
651.09	25785.68
651.23	25378.43
651.38	25563.33
651.52	25708.44
651.67	25324.60
651.81	25233.32
651.96	25179.48
652.10	25191.19
652.25	25350.34
652.39	25408.86
652.54	25598.44
652.68	25296.51
652.83	25558.65
652.97	25230.98
653.12	25350.34
653.26	24985.22
653.41	25249.70
653.55	24580.31
653.70	25106.93
653.84	24882.24
653.99	24837.76
654.13	25256.72
654.27	24741.80
654.42	25263.74
654.56	25198.21
654.71	25039.05
654.85	25034.37
655.00	24999.26
655.14	24734.78
655.29	25017.99
655.43	25275.45
655.57	24886.92
655.72	25163.10
655.86	24713.72
656.01	25172.46
656.15	24734.78
656.30	24842.45
656.44	24388.38
656.58	24678.61
656.73	24648.18
656.87	24687.97
657.01	24521.79
657.16	24797.98
657.30	24861.17
657.45	24781.59
657.59	24971.18
657.73	24559.24
657.88	24903.30
658.02	24456.26
658.16	24584.99
658.31	24238.59
658.45	24694.99
658.60	24226.89
658.74	24177.73
658.88	24189.44
659.03	24460.94
659.17	24376.68
659.31	24592.01
659.46	24484.34
659.60	24208.16
659.74	24580.31
659.89	24453.92
660.03	24219.86
660.17	24210.50
660.32	24212.84
660.46	24318.17
660.60	24163.69
660.74	24130.92
660.89	23850.06
661.03	24065.39
661.17	23946.02
661.32	23885.17
661.46	23868.78
661.60	23812.61
661.74	23978.79
661.89	24236.25
662.03	24114.54
662.17	24063.05
662.31	23857.08
662.46	23927.30
662.60	23880.49
662.74	23941.34
662.88	23597.28
663.03	23473.23
663.17	23606.64
663.31	23335.14
663.45	23814.95
663.60	23192.37
663.74	23407.70
663.88	23426.42
664.02	23578.56
664.17	23517.70
664.31	23697.92
664.45	23782.18
664.59	23288.33
664.73	23309.40
664.88	23365.57
665.02	22939.59
665.16	23257.90
665.30	22876.40
665.44	23049.60
665.59	23077.68
665.73	23042.57
665.87	23065.98
666.01	23204.07
666.15	22803.84
666.29	22995.76
666.44	22860.01
666.58	22824.90
666.72	22670.43
666.86	23044.91
667.00	22939.59
667.14	22728.94
667.28	22595.53
667.43	22920.87
667.57	22944.27
667.71	22635.32
667.85	22501.91
667.99	22628.30
668.13	22403.61
668.27	22359.14
668.41	22583.83
668.56	22443.40
668.70	22604.89
668.84	22314.67
668.98	22209.34
669.12	22389.56
669.26	22363.82
669.40	22522.98
669.54	22464.46
669.68	22171.89
669.82	22003.38
669.96	21919.12
670.10	21937.84
670.25	21884.01
670.39	21654.64
670.53	21956.57
670.67	21902.73
670.81	22089.98
670.95	21839.54
671.09	21982.31
671.23	21881.67
671.37	22017.42
671.51	21614.85
671.65	21673.36
671.79	21628.89
671.93	21713.15
672.07	21736.56
672.21	21561.02
672.35	21469.73
672.49	21413.56
672.63	21420.58
672.77	21165.46
672.91	21455.69
673.05	21439.31
673.19	21385.47
673.33	21216.96
673.47	21301.22
673.61	21088.23
673.75	20884.60
673.89	21427.60
674.03	20798.00
674.17	21231.00
674.31	20636.50
674.45	20814.38
674.59	21057.80
674.73	20678.63
674.87	20669.27
675.01	20828.43
675.15	20673.95
675.29	20360.32
675.43	20634.16
675.56	20552.24
675.70	20676.29
675.84	20713.74
675.98	19946.05
676.12	20446.92
676.26	20577.99
676.40	20402.45
676.54	19964.77
676.68	20449.26
676.82	20156.69
676.96	19889.87
677.10	19892.21
677.23	19697.95
677.37	19744.76
677.51	19704.97
677.65	19892.21
677.79	19377.30
677.93	19810.29
678.07	19438.15
678.21	19260.27
678.34	19550.49
678.48	19358.57
678.62	19281.33
678.76	19335.17
678.90	19295.38
679.04	19403.04
679.18	19438.15
679.31	18869.40
679.45	18918.55
679.59	19117.50
679.73	18845.99
679.87	19014.51
680.00	18609.60
680.14	18576.83
680.28	18417.68
680.42	18668.11
680.56	18934.93
680.70	18515.98
680.83	18604.92
680.97	18450.44
681.11	18452.78
681.25	18305.33
681.39	18331.08
681.52	17949.57
681.66	18078.30
681.80	18242.14
681.94	17961.27
682.07	18059.57
682.21	18022.12
682.35	17855.95
682.49	17823.18
682.62	17593.81
682.76	17914.46
682.90	17617.21
683.04	17982.34
683.17	17830.20
683.31	17352.73
683.45	17612.53
683.59	17867.65
683.72	17570.40
683.86	17387.84
684.00	17495.50
684.13	17245.07
684.27	17331.67
684.41	17046.12
684.55	17256.77
684.68	16936.12
684.82	16809.73
684.96	17184.21
685.09	17193.58
685.23	16552.27
685.37	16716.11
685.50	16774.62
685.64	16886.97
685.78	16823.77
685.91	16655.25
686.05	16889.31
686.19	16374.39
686.32	16617.80
686.46	16245.66
686.60	16280.77
686.73	16507.80
686.87	16156.72
687.01	16184.80
687.14	15995.22
687.28	15889.90
687.42	15913.30
687.55	15899.26
687.69	16121.61
687.82	15847.77
687.96	15639.46
688.10	15646.48
688.23	15765.85
688.37	15932.03
688.50	15756.49
688.64	15632.44
688.78	15344.55
688.91	15363.28
689.05	15517.75
689.18	15281.36
689.32	14881.13
689.46	15040.28
689.59	15592.65
689.73	15049.64
689.86	14988.79
690.00	14941.98
690.13	15087.09
690.27	15042.62
690.41	14956.02
690.54	14963.04
690.68	14778.14
690.81	14906.87
690.95	14780.48
691.08	14768.78
691.22	14508.98
691.35	14618.99
691.49	14689.20
691.62	14413.02
691.76	14022.15
691.89	14239.82
692.03	14073.64
692.16	14185.99
692.30	14349.82
692.43	14230.46
692.57	14120.45
692.70	13851.29
692.84	13738.94
692.97	13872.36
693.11	13811.50
693.24	13612.56
693.38	13731.92
693.51	13666.39
693.65	13635.96
693.78	13631.28
693.92	13572.77
694.05	13460.42
694.19	13369.14
694.32	13415.95
694.45	13362.12
694.59	13149.13
694.72	13226.37
694.86	13090.62
694.99	12727.83
695.13	12882.31
695.26	12865.92
695.39	12961.89
695.53	12872.95
695.66	12964.23
695.80	12702.09
695.93	12863.58
696.07	12996.99
696.20	12795.71
696.33	12793.37
696.47	12575.70
696.60	12547.61
696.73	12348.67
696.87	12334.62
697.00	12301.86
697.14	12259.73
697.27	12065.46
697.40	11971.84
697.54	11932.05
697.67	11927.37
697.80	12194.19
697.94	11775.24
698.07	11758.85
698.21	11796.30
698.34	11824.39
698.47	11908.65
698.61	11861.84
698.74	11925.03
698.87	11915.67
699.01	11716.72
699.14	11719.06
699.27	11559.91
699.40	11686.29
699.54	11604.38
699.67	11337.56
699.80	11190.10
699.94	11431.18
700.07	11190.10
700.20	11246.27
700.34	11419.47
700.47	11201.80
700.60	10930.30
700.73	11208.83
700.87	10984.13
701.00	10806.25
701.13	10862.43
701.26	10967.75
701.40	11084.78
701.53	10927.96
701.66	11049.67
701.79	10869.45
701.93	10698.59
702.06	10647.10
702.19	10597.95
702.32	10480.92
702.46	10361.55
702.59	10391.98
702.72	10190.69
702.85	10291.34
702.99	10181.33
703.12	10047.92
703.25	10150.90
703.38	10258.57
703.51	10246.87
703.65	10384.96
703.78	9987.07
703.91	9949.62
704.04	9926.21
704.17	9926.21
704.31	10045.58
704.44	9902.81
704.57	9736.63
704.70	9610.24
704.83	9572.79
704.96	9692.16
705.10	9551.73
705.23	9537.68
>>>>>End Processed Spectral Data<<<<<
