SpectraSuite Data File
++++++++++++++++++++++++++++++++++++
Date: Fri Oct 18 13:58:11 GMT-05:00 2013
User: bianchi
Dark Spectrum Present: No
Reference Spectrum Present: No
Number of Sampled Component Spectra: 1
Spectrometers: USB2+H05261
Integration Time (usec): 50000 (USB2+H05261)
Spectra Averaged: 1 (USB2+H05261)
Boxcar Smoothing: 0 (USB2+H05261)
Correct for Electrical Dark: No (USB2+H05261)
Strobe/Lamp Enabled: No (USB2+H05261)
Correct for Detector Non-linearity: No (USB2+H05261)
Correct for Stray Light: No (USB2+H05261)
Number of Pixels in Processed Spectrum: 2048
>>>>>Begin Processed Spectral Data<<<<<
365.73	21.06
365.92	21.06
366.12	21.06
366.32	0.00
366.52	0.00
366.72	0.00
366.91	0.00
367.11	0.00
367.31	0.00
367.51	0.00
367.70	0.00
367.90	0.00
368.10	0.00
368.30	0.00
368.49	0.00
368.69	0.00
368.89	0.00
369.09	0.00
369.28	0.00
369.48	0.00
369.68	0.00
369.87	0.00
370.07	0.00
370.27	0.00
370.47	2.34
370.66	84.26
370.86	93.62
371.06	210.65
371.25	161.50
371.45	140.43
371.65	133.41
371.84	166.18
372.04	138.09
372.24	154.48
372.44	126.39
372.63	212.99
372.83	259.80
373.03	196.60
373.22	201.29
373.42	182.56
373.62	152.13
373.81	198.95
374.01	173.20
374.21	248.10
374.40	152.13
374.60	292.57
374.79	271.50
374.99	161.50
375.19	142.77
375.38	201.29
375.58	257.46
375.78	191.92
375.97	269.16
376.17	287.89
376.37	234.05
376.56	299.59
376.76	234.05
376.95	287.89
377.15	290.23
377.35	297.25
377.54	264.48
377.74	290.23
377.93	285.55
378.13	376.83
378.33	325.33
378.52	313.63
378.72	294.91
378.91	351.08
379.11	313.63
379.31	308.95
379.50	337.04
379.70	255.12
379.89	334.70
380.09	308.95
380.28	304.27
380.48	287.89
380.68	330.02
380.87	313.63
381.07	285.55
381.26	276.18
381.46	327.68
381.65	337.04
381.85	313.63
382.04	334.70
382.24	351.08
382.43	337.04
382.63	376.83
382.83	330.02
383.02	315.97
383.22	344.06
383.41	339.38
383.61	351.08
383.80	421.30
384.00	358.10
384.19	409.59
384.39	395.55
384.58	339.38
384.78	362.78
384.97	491.51
385.17	379.17
385.36	425.98
385.56	351.08
385.75	456.40
385.95	444.70
386.14	468.11
386.34	379.17
386.53	475.13
386.72	379.17
386.92	407.25
387.11	395.55
387.31	477.47
387.50	421.30
387.70	421.30
387.89	451.72
388.09	507.90
388.28	428.32
388.48	433.00
388.67	582.79
388.86	514.92
389.06	430.66
389.25	447.04
389.45	510.24
389.64	550.03
389.84	421.30
390.03	500.87
390.22	491.51
390.42	451.72
390.61	505.56
390.81	517.26
391.00	418.96
391.19	608.54
391.39	512.58
391.58	461.09
391.78	458.74
391.97	552.37
392.16	552.37
392.36	641.31
392.55	503.22
392.75	550.03
392.94	505.56
393.13	528.96
393.33	528.96
393.52	531.30
393.71	566.41
393.91	550.03
394.10	531.30
394.29	622.58
394.49	636.63
394.68	627.26
394.88	660.03
395.07	629.60
395.26	669.39
395.46	678.76
395.65	664.71
395.84	578.11
396.04	655.35
396.23	667.05
396.42	627.26
396.62	755.99
396.81	634.29
397.00	662.37
397.19	629.60
397.39	645.99
397.58	702.16
397.77	669.39
397.97	655.35
398.16	807.48
398.35	739.61
398.55	660.03
398.74	720.88
398.93	713.86
399.12	763.01
399.32	819.19
399.51	706.84
399.70	751.31
399.90	727.91
400.09	734.93
400.28	844.93
400.47	760.67
400.67	861.32
400.86	819.19
401.05	779.40
401.24	861.32
401.44	835.57
401.63	821.53
401.82	849.61
402.01	791.10
402.21	842.59
402.40	840.25
402.59	943.24
402.78	889.40
402.97	875.36
403.17	919.83
403.36	858.98
403.55	819.19
403.74	905.79
403.93	933.87
404.13	933.87
404.32	940.90
404.51	929.19
404.70	957.28
404.89	959.62
405.09	1025.15
405.28	931.53
405.47	1027.50
405.66	992.39
405.85	1046.22
406.05	842.59
406.24	950.26
406.43	1008.77
406.62	1074.31
406.81	1008.77
407.00	1025.15
407.20	1029.84
407.39	1088.35
407.58	1118.78
407.77	1121.12
407.96	1116.44
408.15	1086.01
408.34	1118.78
408.54	1135.16
408.73	1130.48
408.92	1121.12
409.11	1067.28
409.30	1226.44
409.49	1163.25
409.68	1233.46
409.87	1132.82
410.07	1238.14
410.26	1242.82
410.45	1226.44
410.64	1128.14
410.83	1196.01
411.02	1238.14
411.21	1348.15
411.40	1247.51
411.59	1233.46
411.78	1224.10
411.98	1324.74
412.17	1289.64
412.36	1404.32
412.55	1352.83
412.74	1357.51
412.93	1448.79
413.12	1284.95
413.31	1472.20
413.50	1483.90
413.69	1446.45
413.88	1497.94
414.07	1495.60
414.26	1589.22
414.45	1521.35
414.64	1446.45
414.83	1533.05
415.02	1526.03
415.22	1469.86
415.41	1657.10
415.60	1659.44
415.79	1636.03
415.98	1563.48
416.17	1528.37
416.36	1621.99
416.55	1643.06
416.74	1671.14
416.93	1661.78
417.12	1668.80
417.31	1694.55
417.50	1694.55
417.69	1729.66
417.88	1820.94
418.07	1832.64
418.26	1675.82
418.45	1834.98
418.64	1891.15
418.83	1795.19
419.02	1825.62
419.21	1701.57
419.39	1919.24
419.58	1750.72
419.77	1783.49
419.96	1884.13
420.15	1944.99
420.34	1872.43
420.53	1867.75
420.72	1905.20
420.91	2003.50
421.10	1994.14
421.29	1961.37
421.48	1921.58
421.67	2099.46
421.86	2003.50
422.05	1984.77
422.24	2003.50
422.43	1963.71
422.61	1954.35
422.80	2045.63
422.99	2012.86
423.18	2073.71
423.37	2069.03
423.56	2026.90
423.75	2012.86
423.94	2052.65
424.13	1928.60
424.32	1912.22
424.50	1998.82
424.69	2120.53
424.88	2087.76
425.07	2045.63
425.26	2097.12
425.45	2050.31
425.64	2010.52
425.83	2045.63
426.01	2106.48
426.20	2045.63
426.39	2059.67
426.58	2059.67
426.77	2141.59
426.96	2125.21
427.15	2059.67
427.33	2120.53
427.52	2190.74
427.71	2153.29
427.90	2289.04
428.09	2246.91
428.28	2249.25
428.46	2246.91
428.65	2186.06
428.84	2263.30
429.03	2267.98
429.22	2221.17
429.40	2195.42
429.59	2298.41
429.78	2120.53
429.97	2136.91
430.16	2286.70
430.34	2359.26
430.53	2340.54
430.72	2429.48
430.91	2256.28
431.10	2321.81
431.28	2476.29
431.47	2413.09
431.66	2485.65
431.85	2310.11
432.03	2366.28
432.22	2546.50
432.41	2471.61
432.60	2487.99
432.79	2509.05
432.97	2569.91
433.16	2551.18
433.35	2572.25
433.54	2626.08
433.72	2473.95
433.91	2490.33
434.10	2626.08
434.28	2616.72
434.47	2553.52
434.66	2668.21
434.85	2619.06
435.03	2759.49
435.22	2621.40
435.41	2642.46
435.59	2647.15
435.78	2644.81
435.97	2710.34
436.16	2626.08
436.34	2672.89
436.53	2689.28
436.72	2773.53
436.90	2679.91
437.09	2747.79
437.28	2679.91
437.46	2792.26
437.65	2745.45
437.84	2836.73
438.02	2855.45
438.21	2949.08
438.40	2869.50
438.58	3000.57
438.77	3000.57
438.96	2902.26
439.14	2869.50
439.33	3045.04
439.52	2925.67
439.70	3145.68
439.89	3117.59
440.08	3131.64
440.26	3124.62
440.45	3169.09
440.63	3180.79
440.82	3119.93
441.01	3169.09
441.19	3183.13
441.38	3197.17
441.57	3145.68
441.75	3187.81
441.94	3304.84
442.12	3215.90
442.31	3471.01
442.50	3480.38
442.68	3447.61
442.87	3382.07
443.05	3356.33
443.24	3459.31
443.43	3447.61
443.61	3517.83
443.80	3501.44
443.98	3248.66
444.17	3321.22
444.35	3459.31
444.54	3536.55
444.73	3538.89
444.91	3538.89
445.10	3501.44
445.28	3576.34
445.47	3468.67
445.65	3623.15
445.84	3538.89
446.02	3576.34
446.21	3417.18
446.39	3452.29
446.58	3555.27
446.77	3569.32
446.95	3695.71
447.14	3576.34
447.32	3595.06
447.51	3410.16
447.69	3557.61
447.88	3662.94
448.06	3597.40
448.25	3557.61
448.43	3522.51
448.62	3655.92
448.80	3623.15
448.99	3658.26
449.17	3676.98
449.36	3613.79
449.54	3578.68
449.73	3744.86
449.91	3768.26
450.10	3854.86
450.28	3871.25
450.46	3843.16
450.65	3794.01
450.83	3850.18
451.02	3894.65
451.20	3882.95
451.39	3777.62
451.57	3852.52
451.76	3803.37
451.94	3843.16
452.13	3913.38
452.31	3859.54
452.49	3822.09
452.68	3901.67
452.86	3824.44
453.05	3971.89
453.23	4021.04
453.42	3847.84
453.60	3960.19
453.78	3850.18
453.97	3908.69
454.15	4037.42
454.34	4044.45
454.52	4156.79
454.70	4072.53
454.89	4231.69
455.07	4074.87
455.26	4229.35
455.44	4102.96
455.62	4131.05
455.81	4173.18
455.99	4210.62
456.17	4109.98
456.36	4255.09
456.54	4180.20
456.73	4397.87
456.91	4428.29
457.09	4290.20
457.28	4365.10
457.46	4299.56
457.64	4327.65
457.83	4540.64
458.01	4432.97
458.19	4678.73
458.38	4418.93
458.56	4486.81
458.74	4409.57
458.93	4524.26
459.11	4622.56
459.29	4535.96
459.48	4587.45
459.66	4664.69
459.84	4650.64
460.03	4695.11
460.21	4606.17
460.39	4636.60
460.57	4697.46
460.76	4758.31
460.94	4793.42
461.12	4723.20
461.31	4685.75
461.49	4624.90
461.67	4765.33
461.85	4793.42
462.04	4690.43
462.22	5069.60
462.40	4908.10
462.59	4748.95
462.77	4936.19
462.95	4819.16
463.13	4748.95
463.32	4884.70
463.50	4896.40
463.68	4837.89
463.86	4990.02
464.05	4784.06
464.23	5018.11
464.41	5041.51
464.59	4975.98
464.78	5071.94
464.96	5062.58
465.14	4926.83
465.32	5064.92
465.50	5200.67
465.69	5191.31
465.87	5032.15
466.05	5018.11
466.23	5214.71
466.41	5203.01
466.60	5233.44
466.78	5050.88
466.96	5146.84
467.14	5001.72
467.32	5217.05
467.51	5242.80
467.69	5160.88
467.87	5074.28
468.05	5423.02
468.23	5118.75
468.41	5238.12
468.60	5291.95
468.78	5334.08
468.96	5200.67
469.14	5385.57
469.32	5406.64
469.50	5282.59
469.69	5418.34
469.87	5533.03
470.05	5514.30
470.23	5593.88
470.41	5563.45
470.59	5479.19
470.77	5516.64
470.95	5685.16
471.14	5668.78
471.32	5633.67
471.50	5680.48
471.68	5790.49
471.86	5762.40
472.04	5643.03
472.22	5809.21
472.40	5598.56
472.58	5797.51
472.77	6012.84
472.95	5785.80
473.13	6118.16
473.31	5987.09
473.49	5956.66
473.67	6033.90
473.85	6071.35
474.03	6202.42
474.21	6115.82
474.39	6272.64
474.57	6132.20
474.75	6127.52
474.93	6410.73
475.12	6244.55
475.30	6214.12
475.48	6326.47
475.66	6396.68
475.84	6406.05
476.02	6324.13
476.20	6347.53
476.38	6583.93
476.56	6817.98
476.74	6675.21
476.92	6623.72
477.10	6602.65
477.28	6862.45
477.46	6754.79
477.64	6796.92
477.82	6834.36
478.00	7220.55
478.18	7091.82
478.36	6965.43
478.54	7117.57
478.72	7171.40
478.90	7255.66
479.08	7330.56
479.26	7583.34
479.44	7562.27
479.62	7674.62
479.80	7595.04
479.98	7557.59
480.16	7693.34
480.34	7737.81
480.52	7868.88
480.70	7784.62
480.88	7791.64
481.06	7789.30
481.24	7719.09
481.41	7983.57
481.59	8112.30
481.77	8210.60
481.95	8222.30
482.13	8037.40
482.31	8248.05
482.49	8306.56
482.67	8374.44
482.85	8531.25
483.03	8699.77
483.21	8809.78
483.39	8638.92
483.57	8505.51
483.74	8720.84
483.92	8872.97
484.10	8842.54
484.28	9156.18
484.46	9359.80
484.64	9174.90
484.82	9308.31
485.00	9172.56
485.18	9327.03
485.35	9612.58
485.53	9406.61
485.71	9266.18
485.89	9923.87
486.07	9668.75
486.25	9790.46
486.43	9947.28
486.61	9830.25
486.78	10064.30
486.96	9966.00
487.14	10221.12
487.32	10239.84
487.50	10202.40
487.68	10600.29
487.85	10574.54
488.03	10558.16
488.21	10626.03
488.39	10817.96
488.57	10794.55
488.75	10846.04
488.92	11009.88
489.10	11110.52
489.28	11012.22
489.46	11435.86
489.64	11286.06
489.81	11693.32
489.99	11520.12
490.17	11449.90
490.35	11824.39
490.53	11534.16
490.70	11800.98
490.88	11641.82
491.06	12262.07
491.24	12013.97
491.41	11908.65
491.59	12351.01
491.77	12252.70
491.95	12355.69
492.13	12578.04
492.30	12606.13
492.48	12416.54
492.66	12856.56
492.84	12547.61
493.01	12800.39
493.19	12978.27
493.37	13046.15
493.54	13193.60
493.72	13181.90
493.90	13228.71
494.08	13343.39
494.25	13235.73
494.43	13425.31
494.61	13383.18
494.79	13490.85
494.96	13532.98
495.14	13851.29
495.32	13858.31
495.49	14017.47
495.67	13973.00
495.85	13928.53
496.02	14066.62
496.20	13987.04
496.38	14090.02
496.55	14104.07
496.73	14663.46
496.91	14520.68
497.09	14335.78
497.26	14801.55
497.44	14644.73
497.62	14775.80
497.79	14937.30
497.97	14937.30
498.14	15063.69
498.32	15192.42
498.50	15084.75
498.67	15489.67
498.85	15250.93
499.03	15281.36
499.20	15363.28
499.38	15314.13
499.56	15506.05
499.73	15545.84
499.91	15641.80
500.08	15744.78
500.26	15627.76
500.44	15768.19
500.61	15730.74
500.79	15758.83
500.97	16042.03
501.14	16250.34
501.32	16156.72
501.49	16107.57
501.67	16355.66
501.84	16023.31
502.02	16428.22
502.20	16325.24
502.37	16393.11
502.55	16587.38
502.72	16681.00
502.90	16266.72
503.07	16601.42
503.25	16968.88
503.43	16599.08
503.60	16952.50
503.78	17041.44
503.95	16915.05
504.13	17011.01
504.30	16975.91
504.48	16999.31
504.65	17160.81
504.83	17362.09
505.01	17458.06
505.18	17673.39
505.36	17422.95
505.53	17469.76
505.71	17640.62
505.88	17846.58
506.06	17280.18
506.23	17865.31
506.41	17600.83
506.58	17893.40
506.76	17774.03
506.93	17914.46
507.11	17888.71
507.28	18190.64
507.46	17972.97
507.63	17804.46
507.81	18354.48
507.98	17795.09
508.16	18181.28
508.33	18146.17
508.50	18490.23
508.68	18501.93
508.85	18359.16
509.03	18520.66
509.20	18799.18
509.38	18944.30
509.55	18836.63
509.73	18775.78
509.90	18824.93
510.08	18768.76
510.25	18806.20
510.42	19007.49
510.60	18948.98
510.77	19077.71
510.95	19077.71
511.12	18970.04
511.30	19009.83
511.47	19197.07
511.64	19290.70
511.82	19344.53
511.99	19442.83
512.17	19580.92
512.34	19328.14
512.51	19756.46
512.69	19576.24
512.86	19814.98
513.04	19983.49
513.21	19690.93
513.38	20189.46
513.56	19866.47
513.73	19971.79
513.90	19901.58
514.08	19901.58
514.25	20149.67
514.43	20067.75
514.60	20175.42
514.77	20203.50
514.95	20491.39
515.12	19887.53
515.29	20173.08
515.47	20713.74
515.64	20608.42
515.81	20446.92
515.99	20851.83
516.16	20835.45
516.33	20510.11
516.51	20683.31
516.68	20648.21
516.85	20816.72
517.03	20863.54
517.20	20922.05
517.37	21167.80
517.54	21008.65
517.72	20875.24
517.89	20985.24
518.06	21207.59
518.24	20844.81
518.41	21146.74
518.58	21406.54
518.75	21191.21
518.93	21551.65
519.10	21591.44
519.27	21642.93
519.45	21308.24
519.62	21500.16
519.79	21586.76
519.96	21797.41
520.14	22045.51
520.31	21633.57
520.48	21996.35
520.65	21944.86
520.83	21855.92
521.00	21965.93
521.17	21984.65
521.34	21855.92
521.52	22019.76
521.69	22050.19
521.86	22178.92
522.03	22483.19
522.20	22419.99
522.38	22143.81
522.55	22050.19
522.72	22214.02
522.89	22520.63
523.07	22733.62
523.24	22459.78
523.41	22867.03
523.58	22415.31
523.75	22780.43
523.92	22618.94
524.10	22684.47
524.27	22785.12
524.44	22572.13
524.61	22827.24
524.78	23255.56
524.96	23215.77
525.13	22939.59
525.30	23068.32
525.47	23183.01
525.64	23421.74
525.81	23332.80
525.98	23365.57
526.16	23295.35
526.33	23421.74
526.50	23545.79
526.67	23637.07
526.84	23667.50
527.01	23489.62
527.18	23634.73
527.36	23508.34
527.53	23494.30
527.70	24020.92
527.87	23969.43
528.04	23625.37
528.21	23997.51
528.38	23800.91
528.55	23882.83
528.72	23971.77
528.89	23920.28
529.07	23894.53
529.24	24112.20
529.41	24121.56
529.58	23892.19
529.75	24325.19
529.92	24430.51
530.09	24339.23
530.26	24236.25
530.43	24077.09
530.60	24013.90
530.77	24056.03
530.94	24208.16
531.11	24386.04
531.28	24119.22
531.46	24299.44
531.63	24355.61
531.80	24329.87
531.97	24636.48
532.14	24343.91
532.31	24692.65
532.48	24671.59
532.65	24662.22
532.82	24891.60
532.99	24870.53
533.16	24788.61
533.33	24739.46
533.50	25123.31
533.67	24982.88
533.84	24903.30
534.01	24994.58
534.18	24802.66
534.35	25331.62
534.52	25060.12
534.69	25357.36
534.86	25659.29
535.03	25125.65
535.20	25364.39
535.37	25179.48
535.54	25270.76
535.71	25245.02
535.88	25050.75
536.05	25523.54
536.22	25146.72
536.38	25839.51
536.55	25579.71
536.72	25568.01
536.89	25387.79
537.06	25586.74
537.23	25549.29
537.40	25696.74
537.57	25799.73
537.74	26085.27
537.91	26089.95
538.08	26122.72
538.25	26008.03
538.42	25900.37
538.59	26003.35
538.75	26022.08
538.92	25881.64
539.09	26324.01
539.26	26103.99
539.43	26251.45
539.60	26403.58
539.77	26071.23
539.94	26064.21
540.11	26387.20
540.28	26277.19
540.44	26242.09
540.61	26167.19
540.78	26525.29
540.95	26328.69
541.12	26284.22
541.29	26455.08
541.46	26242.09
541.62	26059.52
541.79	26628.27
541.96	26398.90
542.13	26429.33
542.30	26314.64
542.47	27072.98
542.63	26852.97
542.80	26824.88
542.97	27058.93
543.14	27068.30
543.31	27072.98
543.48	27028.51
543.64	27192.34
543.81	27550.45
543.98	27101.06
544.15	26958.29
544.32	27342.14
544.48	27360.86
544.65	27204.05
544.82	27339.80
544.99	26927.86
545.16	27187.66
545.32	27321.07
545.49	27344.48
545.66	27489.59
545.83	27700.24
546.00	27665.13
546.16	27725.99
546.33	27180.64
546.50	26827.22
546.67	27482.57
546.83	27166.60
547.00	27630.02
547.17	27513.00
547.34	27763.43
547.50	27618.32
547.67	27623.00
547.84	28060.68
548.00	27871.10
548.17	27775.14
548.34	27924.93
548.51	27859.40
548.67	28130.90
548.84	27997.49
549.01	27901.53
549.18	27667.47
549.34	27782.16
549.51	28154.30
549.68	28011.53
549.84	28041.96
550.01	28304.10
550.18	28109.83
550.34	28161.33
550.51	28411.76
550.68	28362.61
550.84	28147.28
551.01	28514.75
551.18	28268.99
551.34	28168.35
551.51	28034.94
551.68	28203.46
551.84	28290.06
552.01	28388.36
552.18	28517.09
552.34	28355.59
552.51	28884.55
552.68	28341.55
552.84	28421.13
553.01	28524.11
553.18	28746.46
553.34	28776.89
553.51	28596.67
553.67	28484.32
553.84	29006.26
554.01	28922.00
554.17	28774.55
554.34	28858.81
554.51	28746.46
554.67	28826.04
554.84	28622.41
555.00	28821.36
555.17	28861.15
555.33	28879.87
555.50	28985.19
555.67	28484.32
555.83	28685.61
556.00	29125.63
556.16	29076.48
556.33	28863.49
556.50	29111.58
556.66	29177.12
556.83	29020.30
556.99	29268.40
557.16	29221.59
557.32	29259.04
557.49	29628.84
557.65	29116.26
557.82	28744.12
557.98	29071.79
558.15	29102.22
558.32	29268.40
558.48	29591.39
558.65	29263.72
558.81	29315.21
558.98	29467.34
559.14	29308.19
559.31	29549.26
559.47	29570.33
559.64	29589.05
559.80	29560.97
559.97	29607.78
560.13	29221.59
560.30	29579.69
560.46	29551.60
560.63	29813.74
560.79	29792.68
560.96	29930.77
561.12	29546.92
561.29	29158.39
561.45	29347.98
561.61	29270.74
561.78	29806.72
561.94	29886.30
562.11	29905.02
562.27	29408.83
562.44	29961.20
562.60	29614.80
562.77	29869.92
562.93	29677.99
563.10	30113.33
563.26	29809.06
563.42	29638.20
563.59	29694.38
563.75	29507.13
563.92	30394.20
564.08	29652.25
564.24	29984.60
564.41	29607.78
564.57	29694.38
564.74	29926.09
564.90	30125.04
565.07	29780.98
565.23	30057.16
565.39	29886.30
565.56	30221.00
565.72	29823.11
565.88	30174.19
566.05	29905.02
566.21	30153.12
566.38	29820.77
566.54	29783.32
566.70	30314.62
566.87	30328.66
567.03	30057.16
567.19	30635.27
567.36	30237.38
567.52	30054.82
567.68	29797.36
567.85	30157.80
568.01	30340.36
568.17	30223.34
568.34	30211.64
568.50	30382.49
568.66	30352.07
568.83	30323.98
568.99	30281.85
569.15	29956.52
569.32	29900.34
569.48	29832.47
569.64	30590.80
569.81	30309.94
569.97	30366.11
570.13	30565.06
570.30	30244.40
570.46	30412.92
570.62	30237.38
570.78	30471.43
570.95	29802.04
571.11	30316.96
571.27	30239.72
571.43	29937.79
571.60	30300.58
571.76	30340.36
571.92	30665.70
572.09	30225.68
572.25	30618.89
572.41	30682.08
572.57	30391.86
572.74	30235.04
572.90	30448.03
573.06	29935.45
573.22	30686.76
573.38	30260.79
573.55	30195.25
573.71	30597.82
573.87	30529.95
574.03	30277.17
574.20	30176.53
574.36	30008.01
574.52	30380.15
574.68	30529.95
574.84	30457.39
575.01	30522.93
575.17	30742.94
575.33	30543.99
575.49	30415.26
575.65	30604.84
575.82	30504.20
575.98	30347.39
576.14	30995.71
576.30	30417.60
576.46	30429.30
576.62	30735.92
576.79	30464.41
576.95	30253.76
577.11	30448.03
577.27	30504.20
577.43	31222.75
577.59	30480.80
577.75	31079.97
577.92	30583.78
578.08	30342.70
578.24	30850.60
578.40	30595.48
578.56	30937.20
578.72	30562.72
578.88	30995.71
579.04	31208.70
579.21	30316.96
579.37	30525.27
579.53	30899.75
579.69	30134.40
579.85	30836.56
580.01	30843.58
580.17	30398.88
580.33	30909.11
580.49	30707.83
580.65	30810.81
580.82	31112.74
580.98	30834.22
581.14	30478.46
581.30	30888.05
581.46	30377.81
581.62	30979.33
581.78	30574.42
581.94	30742.94
582.10	30644.63
582.26	30646.97
582.42	30700.81
582.58	30721.87
582.74	30771.02
582.90	30494.84
583.06	30864.64
583.22	30316.96
583.38	30993.37
583.54	31028.48
583.70	30689.10
583.86	30703.15
584.02	30934.86
584.18	30923.16
584.34	30843.58
584.50	30899.75
584.66	30536.97
584.82	30817.83
584.98	30824.86
585.14	30450.37
585.30	30602.50
585.46	30789.75
585.62	30293.55
585.78	31213.38
585.94	30810.81
586.10	30635.27
586.26	31072.95
586.42	31391.26
586.58	31079.97
586.74	30717.19
586.90	30916.14
587.06	30548.67
587.22	31136.15
587.38	30588.46
587.54	31096.36
587.70	31307.01
587.86	30944.22
588.02	30984.01
588.18	31473.18
588.34	31353.82
588.49	30712.51
588.65	30836.56
588.81	30874.01
588.97	31063.59
589.13	30810.81
589.29	30834.22
589.45	31072.95
589.61	31009.76
589.77	31276.58
589.93	31094.02
590.08	31222.75
590.24	31496.59
590.40	31208.70
590.56	31260.20
590.72	30787.41
590.88	30941.88
591.04	31115.08
591.20	31674.47
591.35	31417.01
591.51	31587.87
591.67	31372.54
591.83	31550.42
591.99	30993.37
592.15	31358.50
592.31	31323.39
592.46	31075.29
592.62	30930.18
592.78	31215.72
592.94	31145.51
593.10	30991.03
593.26	31564.46
593.41	31358.50
593.57	30979.33
593.73	31414.67
593.89	31615.96
594.05	31454.46
594.20	31307.01
594.36	31325.73
594.52	30951.24
594.68	30829.54
594.84	30981.67
594.99	31379.56
595.15	31412.33
595.31	31686.17
595.47	31505.95
595.62	31548.08
595.78	31239.13
595.94	31047.21
596.10	31395.95
596.25	31470.84
596.41	31255.51
596.57	30969.97
596.73	31285.94
596.88	31428.71
597.04	31634.68
597.20	31370.20
597.36	31424.03
597.51	31564.46
597.67	31428.71
597.83	31693.19
597.99	31578.51
598.14	31346.79
598.30	31197.00
598.46	31269.56
598.61	31267.22
598.77	31360.84
598.93	31435.74
599.09	31693.19
599.24	32212.79
599.40	31590.21
599.56	31510.63
599.71	31683.83
599.87	31353.82
600.03	31175.94
600.18	31562.12
600.34	31374.88
600.50	31566.81
600.65	31482.55
600.81	31445.10
600.97	31241.47
601.12	31559.78
601.28	31730.64
601.44	31597.23
601.59	31761.07
601.75	31723.62
601.91	31351.48
602.06	31117.42
602.22	31758.73
602.37	31353.82
602.53	31211.04
602.69	31435.74
602.84	31351.48
603.00	31775.11
603.16	31665.11
603.31	31941.29
603.47	31433.39
603.62	31358.50
603.78	31534.04
603.94	30981.67
604.09	31204.02
604.25	31536.38
604.40	31370.20
604.56	31585.53
604.71	31634.68
604.87	31496.59
605.03	31667.45
605.18	31653.40
605.34	31456.80
605.49	31014.44
605.65	31302.32
605.80	31307.01
605.96	31276.58
606.12	30967.63
606.27	31325.73
606.43	31199.34
606.58	31913.20
606.74	31152.53
606.89	31531.70
607.05	31236.79
607.20	31622.98
607.36	31311.69
607.51	31454.46
607.67	31084.65
607.82	31072.95
607.98	31555.10
608.13	31267.22
608.29	31435.74
608.44	31126.78
608.60	31257.85
608.75	31793.84
608.91	31159.55
609.06	31278.92
609.22	31145.51
609.37	31094.02
609.53	31318.71
609.68	30979.33
609.84	30904.43
609.99	31393.61
610.15	30946.56
610.30	30759.32
610.46	31402.97
610.61	31152.53
610.76	31370.20
610.92	30951.24
611.07	31065.93
611.23	31119.76
611.38	31147.85
611.54	30932.52
611.69	30801.45
611.84	31082.31
612.00	30714.85
612.15	31119.76
612.31	31211.04
612.46	30932.52
612.62	31040.18
612.77	31033.16
612.92	31108.06
613.08	31150.19
613.23	30969.97
613.39	31098.70
613.54	31007.42
613.69	30593.14
613.85	31005.08
614.00	30944.22
614.15	31096.36
614.31	30991.03
614.46	30775.70
614.62	30747.62
614.77	31243.81
614.92	31098.70
615.08	30817.83
615.23	31182.96
615.38	30721.87
615.54	30848.26
615.69	30623.57
615.84	30822.51
616.00	31234.45
616.15	30665.70
616.30	30955.93
616.46	30696.13
616.61	30593.14
616.76	30892.73
616.92	30520.59
617.07	31115.08
617.22	30600.16
617.37	31007.42
617.53	30548.67
617.68	30649.32
617.83	30672.72
617.99	30443.35
618.14	30345.05
618.29	30401.22
618.45	30651.66
618.60	30347.39
618.75	30663.36
618.90	30363.77
619.06	30962.95
619.21	30391.86
619.36	30492.50
619.51	30082.91
619.67	29993.97
619.82	30403.56
619.97	30307.60
620.12	30075.88
620.28	30373.13
620.43	30670.38
620.58	30183.55
620.73	30331.00
620.89	30464.41
621.04	30391.86
621.19	29977.58
621.34	30532.29
621.49	30174.19
621.65	30338.02
621.80	30340.36
621.95	30492.50
622.10	30190.57
622.25	29961.20
622.41	29926.09
622.56	30120.35
622.71	30246.74
622.86	30274.83
623.01	30157.80
623.16	29514.16
623.32	29921.41
623.47	29748.21
623.62	29916.73
623.77	29923.75
623.92	29631.18
624.07	30017.37
624.23	30017.37
624.38	30253.76
624.53	29921.41
624.68	29951.84
624.83	29729.48
624.98	30174.19
625.13	30015.03
625.29	29631.18
625.44	29652.25
625.59	29696.72
625.74	29874.60
625.89	29694.38
626.04	29582.03
626.19	29291.80
626.34	29474.37
626.49	29556.28
626.65	29158.39
626.80	29923.75
626.95	29380.74
627.10	29619.48
627.25	29708.42
627.40	29228.61
627.55	29429.90
627.70	29504.79
627.85	29432.24
628.00	29170.10
628.15	29469.69
628.30	29261.38
628.45	29418.19
628.60	29165.42
628.76	29628.84
628.91	29237.97
629.06	29275.42
629.21	29741.19
629.36	29696.72
629.51	29226.27
629.66	29401.81
629.81	29118.60
629.96	29102.22
630.11	29029.66
630.26	29137.33
630.41	28875.19
630.56	29125.63
630.71	29439.26
630.86	29394.79
631.01	29053.07
631.16	29542.24
631.31	29029.66
631.46	29036.69
631.61	29146.69
631.76	29226.27
631.91	28999.24
632.06	28987.53
632.21	28608.37
632.36	28720.71
632.51	28816.68
632.66	29085.84
632.81	28772.21
632.96	29235.63
633.10	29078.82
633.25	29223.93
633.40	28884.55
633.55	28884.55
633.70	28493.68
633.85	28505.38
634.00	28599.01
634.15	28720.71
634.30	28503.04
634.45	28360.27
634.60	28657.52
634.75	28666.88
634.90	28437.51
635.05	28678.58
635.19	28912.64
635.34	28821.36
635.49	28594.32
635.64	28683.27
635.79	28470.28
635.94	28563.90
636.09	28709.01
636.24	28196.43
636.39	28149.62
636.53	28507.72
636.68	28219.84
636.83	28624.75
636.98	28847.10
637.13	28610.71
637.28	28629.43
637.43	28334.53
637.57	28467.94
637.72	28318.14
637.87	28528.79
638.02	28381.34
638.17	28219.84
638.32	28088.77
638.46	27623.00
638.61	27948.34
638.76	27981.10
638.91	27983.44
639.06	27812.59
639.20	28170.69
639.35	28039.62
639.50	28257.29
639.65	28437.51
639.80	28144.94
639.94	28208.14
640.09	28009.19
640.24	28048.98
640.39	28121.54
640.54	27910.89
640.68	27761.09
640.83	27580.87
640.98	28013.87
641.13	27520.02
641.27	28044.30
641.42	27908.55
641.57	27924.93
641.72	27960.04
641.86	27620.66
642.01	27903.87
642.16	27669.81
642.31	27440.44
642.45	27779.82
642.60	27716.62
642.75	27463.85
642.90	27864.08
643.04	27737.69
643.19	27498.95
643.34	27967.06
643.48	27707.26
643.63	27702.58
643.78	27683.86
643.93	27929.61
644.07	27826.63
644.22	27751.73
644.37	27482.57
644.51	27763.43
644.66	27630.02
644.81	27580.87
644.95	27531.72
645.10	27300.01
645.25	27384.27
645.39	27260.22
645.54	27484.91
645.69	27157.24
645.83	27150.21
645.98	27229.79
646.13	27236.81
646.27	27487.25
646.42	27335.12
646.57	27124.47
646.71	27379.59
646.86	27594.92
647.00	27138.51
647.15	26951.27
647.30	27454.48
647.44	26845.94
647.59	27236.81
647.74	27019.14
647.88	27215.75
648.03	26934.88
648.17	27309.37
648.32	27068.30
648.47	27459.16
648.61	26874.03
648.76	27199.37
648.90	26958.29
649.05	26906.80
649.20	26789.77
649.34	27381.93
649.49	26874.03
649.63	26703.17
649.78	27040.21
649.92	26689.13
650.07	26934.88
650.21	27000.42
650.36	26761.69
650.51	26649.34
650.65	26822.54
650.80	26972.33
650.94	26635.30
651.09	26726.58
651.23	26597.85
651.38	26625.93
651.52	26810.84
651.67	26576.78
651.81	26668.06
651.96	26579.12
652.10	26661.04
652.25	26874.03
652.39	26742.96
652.54	26864.67
652.68	26649.34
652.83	27016.80
652.97	27337.46
653.12	26761.69
653.26	26551.04
653.41	26529.97
653.55	26333.37
653.70	26143.78
653.84	26326.35
653.99	26506.57
654.13	26232.72
654.27	26682.11
654.42	26501.89
654.56	26150.81
654.71	26436.35
654.85	26237.41
655.00	26218.68
655.14	26436.35
655.29	26335.71
655.43	26195.28
655.57	26167.19
655.72	26038.46
655.86	26328.69
656.01	26246.77
656.15	26146.12
656.30	26295.92
656.44	26003.35
656.58	26061.87
656.73	26043.14
656.87	26326.35
657.01	25893.35
657.16	26089.95
657.30	26211.66
657.45	25912.07
657.59	26064.21
657.73	26075.91
657.88	26052.50
658.02	25832.49
658.16	25865.26
658.31	25996.33
658.45	26087.61
658.60	25544.61
658.74	25809.09
658.88	25549.29
659.03	25619.50
659.17	25682.70
659.31	25961.22
659.46	25612.48
659.60	25745.89
659.74	25668.66
659.89	25799.73
660.03	25631.21
660.17	25411.20
660.32	25233.32
660.46	25273.10
660.60	25139.69
660.74	25427.58
660.89	25261.40
661.03	25104.59
661.17	25631.21
661.32	25214.59
661.46	25371.41
661.60	25696.74
661.74	25298.85
661.89	25333.96
662.03	25305.87
662.17	24940.75
662.31	24809.68
662.46	25064.80
662.60	25219.27
662.74	24971.18
662.88	25135.01
663.03	24741.80
663.17	24872.87
663.31	24484.34
663.45	24893.94
663.60	24390.72
663.74	24594.35
663.88	24833.08
664.02	24376.68
664.17	24989.90
664.31	24776.91
664.45	24346.25
664.59	24563.92
664.73	24589.67
664.88	24217.52
665.02	24402.43
665.16	24439.87
665.30	24240.93
665.44	24451.58
665.59	24156.67
665.73	24673.93
665.87	23992.83
666.01	24416.47
666.15	24451.58
666.29	24575.62
666.44	24292.42
666.58	24093.47
666.72	24400.08
666.86	24159.01
667.00	24051.34
667.14	23990.49
667.28	23854.74
667.43	23700.26
667.57	23641.75
667.71	23910.91
667.85	24114.54
667.99	23721.33
668.13	23690.90
668.27	23676.86
668.41	23477.91
668.56	23386.63
668.70	23702.61
668.84	23880.49
668.98	23658.14
669.12	23576.22
669.26	23580.90
669.40	23637.07
669.54	23608.98
669.68	23239.18
669.82	23288.33
669.96	23475.57
670.10	23016.83
670.25	23211.09
670.39	23117.47
670.53	22867.03
670.67	23122.15
670.81	23321.10
670.95	23096.41
671.09	23035.55
671.23	22820.22
671.37	23014.49
671.51	23044.91
671.65	22843.63
671.79	23084.70
671.93	22794.48
672.07	22623.62
672.21	22707.88
672.35	22665.75
672.49	22211.68
672.63	22232.75
672.77	22317.01
672.91	22530.00
673.05	22801.50
673.19	22281.90
673.33	22455.10
673.47	22249.13
673.61	22693.83
673.75	22319.35
673.89	22073.59
674.03	22111.04
674.17	22092.32
674.31	22192.96
674.45	22148.49
674.59	21879.33
674.73	21996.35
674.87	22209.34
675.01	21575.06
675.15	21769.32
675.29	21675.70
675.43	21467.39
675.56	21689.74
675.70	21654.64
675.84	22033.80
675.98	20900.98
676.12	21579.74
676.26	21617.19
676.40	21422.92
676.54	21542.29
676.68	21458.03
676.82	20648.21
676.96	21109.29
677.10	21525.91
677.23	21135.04
677.37	20798.00
677.51	20659.91
677.65	20849.49
677.79	20666.93
677.93	20367.34
678.07	20737.15
678.21	20545.22
678.34	20631.82
678.48	20315.85
678.62	20402.45
678.76	20130.95
678.90	20702.04
679.04	20203.50
679.18	20229.25
679.31	20130.95
679.45	19702.63
679.59	19866.47
679.73	20004.56
679.87	19810.29
680.00	19875.83
680.14	19936.68
680.28	19866.47
680.42	19859.45
680.56	19822.00
680.70	19454.53
680.83	19510.71
680.97	19665.18
681.11	19398.36
681.25	19662.84
681.39	19529.43
681.52	19323.46
681.66	19269.63
681.80	18991.11
681.94	19152.60
682.07	19073.03
682.21	19161.97
682.35	18806.20
682.49	18869.40
682.62	18892.80
682.76	18778.12
682.90	18768.76
683.04	18944.30
683.17	18611.94
683.31	18834.29
683.45	19019.19
683.59	18614.28
683.72	18352.14
683.86	18380.23
684.00	18382.57
684.13	18272.56
684.27	18204.69
684.41	17991.70
684.55	18078.30
684.68	18017.44
684.82	17666.36
684.96	17685.09
685.09	17558.70
685.23	17380.82
685.37	17675.73
685.50	17827.86
685.64	17750.62
685.78	17834.88
685.91	17921.48
686.05	17678.07
686.19	17518.91
686.32	17530.61
686.46	17238.05
686.60	17228.68
686.73	17238.05
686.87	17050.80
687.01	17036.76
687.14	16844.84
687.28	16802.71
687.42	16896.33
687.55	16737.17
687.69	17092.93
687.82	16919.73
687.96	16570.99
688.10	16783.98
688.23	16704.40
688.37	16358.00
688.50	16554.61
688.64	16463.33
688.78	16252.68
688.91	16521.84
689.05	16350.98
689.18	16002.24
689.32	16006.92
689.46	15908.62
689.59	15857.13
689.73	16056.08
689.86	15864.15
690.00	16011.60
690.13	15662.86
690.27	15721.38
690.41	15985.86
690.54	15641.80
690.68	15594.99
690.81	15906.28
690.95	15562.22
691.08	15716.70
691.22	15489.67
691.35	15304.76
691.49	15597.33
691.62	15616.05
691.76	15133.90
691.89	15030.92
692.03	14824.95
692.16	15084.75
692.30	14871.76
692.43	14658.78
692.57	14672.82
692.70	14773.46
692.84	14766.44
692.97	14920.92
693.11	14497.28
693.24	14707.93
693.38	14661.12
693.51	14415.36
693.65	14593.24
693.78	14553.45
693.92	14366.21
694.05	14590.90
694.19	14244.50
694.32	14043.21
694.45	13977.68
694.59	13987.04
694.72	13870.01
694.86	13877.04
694.99	13626.60
695.13	13776.39
695.26	13752.99
695.39	13870.01
695.53	13584.47
695.66	13575.11
695.80	13717.88
695.93	13884.06
696.07	13469.78
696.20	13664.05
696.33	13547.02
696.47	13366.80
696.60	13132.75
696.73	13266.16
696.87	13092.96
697.00	12933.80
697.14	12814.43
697.27	12751.24
697.40	13165.51
697.54	12781.67
697.67	12739.54
697.80	12802.73
697.94	12482.08
698.07	12608.47
698.21	12545.27
698.34	12524.21
698.47	12458.67
698.61	12411.86
698.74	12549.95
698.87	12390.80
699.01	12386.12
699.14	12257.39
699.27	12201.21
699.40	12149.72
699.54	12229.30
699.67	12049.08
699.80	12145.04
699.94	11796.30
700.07	11892.26
700.20	11632.46
700.34	11625.44
700.47	11632.46
700.60	11864.18
700.73	11840.77
700.87	11613.74
701.00	11634.80
701.13	11485.01
701.26	11506.07
701.40	11543.52
701.53	11510.75
701.66	11337.56
701.79	11592.67
701.93	11351.60
702.06	11131.59
702.19	11187.76
702.32	11000.52
702.46	11021.58
702.59	11019.24
702.72	10658.80
702.85	10663.48
702.99	10808.59
703.12	10789.87
703.25	10771.15
703.38	10672.84
703.51	10794.55
703.65	10780.51
703.78	10347.51
703.91	10642.42
704.04	10506.66
704.17	10635.39
704.31	10593.26
704.44	10431.77
704.57	10298.36
704.70	10162.61
704.83	10111.11
704.96	10155.58
705.10	9989.41
705.23	10059.62
>>>>>End Processed Spectral Data<<<<<
