SpectraSuite Data File
++++++++++++++++++++++++++++++++++++
Date: Fri Oct 18 13:57:54 GMT-05:00 2013
User: bianchi
Dark Spectrum Present: No
Reference Spectrum Present: No
Number of Sampled Component Spectra: 1
Spectrometers: USB2+H05261
Integration Time (usec): 50000 (USB2+H05261)
Spectra Averaged: 1 (USB2+H05261)
Boxcar Smoothing: 0 (USB2+H05261)
Correct for Electrical Dark: No (USB2+H05261)
Strobe/Lamp Enabled: No (USB2+H05261)
Correct for Detector Non-linearity: No (USB2+H05261)
Correct for Stray Light: No (USB2+H05261)
Number of Pixels in Processed Spectrum: 2048
>>>>>Begin Processed Spectral Data<<<<<
365.73	0.00
365.92	0.00
366.12	0.00
366.32	0.00
366.52	0.00
366.72	0.00
366.91	0.00
367.11	0.00
367.31	0.00
367.51	0.00
367.70	0.00
367.90	0.00
368.10	0.00
368.30	0.00
368.49	0.00
368.69	0.00
368.89	0.00
369.09	0.00
369.28	0.00
369.48	0.00
369.68	0.00
369.87	0.00
370.07	0.00
370.27	0.00
370.47	0.00
370.66	119.37
370.86	23.41
371.06	124.05
371.25	110.01
371.45	170.86
371.65	107.66
371.84	154.48
372.04	100.64
372.24	152.13
372.44	138.09
372.63	175.54
372.83	187.24
373.03	198.95
373.22	262.14
373.42	217.67
373.62	154.48
373.81	250.44
374.01	220.01
374.21	180.22
374.40	229.37
374.60	290.23
374.79	182.56
374.99	231.71
375.19	269.16
375.38	168.52
375.58	231.71
375.78	229.37
375.97	315.97
376.17	299.59
376.37	243.42
376.56	269.16
376.76	278.52
376.95	222.35
377.15	299.59
377.35	257.46
377.54	215.33
377.74	278.52
377.93	325.33
378.13	301.93
378.33	262.14
378.52	318.31
378.72	292.57
378.91	245.76
379.11	339.38
379.31	248.10
379.50	327.68
379.70	369.80
379.89	360.44
380.09	304.27
380.28	322.99
380.48	304.27
380.68	325.33
380.87	290.23
381.07	355.76
381.26	322.99
381.46	379.17
381.65	304.27
381.85	353.42
382.04	355.76
382.24	337.04
382.43	262.14
382.63	367.46
382.83	414.27
383.02	332.36
383.22	374.49
383.41	348.74
383.61	388.53
383.80	447.04
384.00	355.76
384.19	418.96
384.39	374.49
384.58	397.89
384.78	379.17
384.97	362.78
385.17	425.98
385.36	320.65
385.56	301.93
385.75	311.29
385.95	402.57
386.14	351.08
386.34	447.04
386.53	351.08
386.72	341.72
386.92	365.12
387.11	449.38
387.31	430.66
387.50	430.66
387.70	425.98
387.89	498.53
388.09	425.98
388.28	470.45
388.48	386.19
388.67	482.15
388.86	409.59
389.06	472.79
389.25	507.90
389.45	465.77
389.64	498.53
389.84	575.77
390.03	472.79
390.22	489.17
390.42	444.70
390.61	458.74
390.81	428.32
391.00	531.30
391.19	479.81
391.39	496.19
391.58	554.71
391.78	519.60
391.97	601.52
392.16	503.22
392.36	552.37
392.55	575.77
392.75	561.73
392.94	578.11
393.13	535.98
393.33	622.58
393.52	557.05
393.71	554.71
393.91	603.86
394.10	507.90
394.29	606.20
394.49	578.11
394.68	559.39
394.88	629.60
395.07	608.54
395.26	596.84
395.46	681.10
395.65	688.12
395.84	622.58
396.04	615.56
396.23	645.99
396.42	601.52
396.62	613.22
396.81	648.33
397.00	709.18
397.19	650.67
397.39	699.82
397.58	706.84
397.77	685.78
397.97	695.14
398.16	849.61
398.35	781.74
398.55	695.14
398.74	737.27
398.93	699.82
399.12	828.55
399.32	755.99
399.51	709.18
399.70	786.42
399.90	763.01
400.09	746.63
400.28	751.31
400.47	823.87
400.67	898.77
400.86	830.89
401.05	828.55
401.24	894.08
401.44	741.95
401.63	858.98
401.82	805.14
402.01	816.85
402.21	837.91
402.40	875.36
402.59	873.02
402.78	833.23
402.97	821.53
403.17	961.96
403.36	866.00
403.55	931.53
403.74	889.40
403.93	919.83
404.13	887.06
404.32	992.39
404.51	816.85
404.70	940.90
404.89	908.13
405.09	1062.60
405.28	987.71
405.47	980.68
405.66	1020.47
405.85	940.90
406.05	1074.31
406.24	1107.07
406.43	1104.73
406.62	968.98
406.81	1034.52
407.00	1064.94
407.20	1001.75
407.39	1160.91
407.58	1123.46
407.77	1123.46
407.96	1078.99
408.15	1078.99
408.34	1048.56
408.54	1139.84
408.73	1149.20
408.92	1153.88
409.11	1132.82
409.30	1142.18
409.49	1107.07
409.68	1139.84
409.87	1179.63
410.07	1114.10
410.26	1146.86
410.45	1125.80
410.64	1228.78
410.83	1191.33
411.02	1207.72
411.21	1170.27
411.40	1240.48
411.59	1348.15
411.78	1320.06
411.98	1270.91
412.17	1273.25
412.36	1369.21
412.55	1380.92
412.74	1404.32
412.93	1359.85
413.12	1371.55
413.31	1533.05
413.50	1441.77
413.69	1394.96
413.88	1516.67
414.07	1448.79
414.26	1526.03
414.45	1401.98
414.64	1373.89
414.83	1568.16
415.02	1474.54
415.22	1502.62
415.41	1523.69
415.60	1600.93
415.79	1666.46
415.98	1617.31
416.17	1710.93
416.36	1575.18
416.55	1631.35
416.74	1692.21
416.93	1570.50
417.12	1699.23
417.31	1750.72
417.50	1682.85
417.69	1668.80
417.88	1846.68
418.07	1689.87
418.26	1760.08
418.45	1762.42
418.64	1806.89
418.83	1844.34
419.02	1830.30
419.21	1834.98
419.39	1757.74
419.58	1820.94
419.77	1916.90
419.96	1884.13
420.15	1935.62
420.34	1863.07
420.53	1874.77
420.72	2045.63
420.91	1984.77
421.10	1989.46
421.29	1949.67
421.48	1947.33
421.67	1914.56
421.86	1966.05
422.05	2104.14
422.24	1930.94
422.43	1963.71
422.61	1998.82
422.80	1916.90
422.99	2085.42
423.18	2153.29
423.37	2029.24
423.56	1987.11
423.75	1970.73
423.94	1956.69
424.13	1926.26
424.32	1973.07
424.50	2153.29
424.69	2115.84
424.88	2211.81
425.07	2043.29
425.26	1982.43
425.45	2031.58
425.64	2207.13
425.83	2092.44
426.01	2253.94
426.20	2183.72
426.39	2106.48
426.58	2066.69
426.77	2083.08
426.96	2157.97
427.15	2174.36
427.33	2146.27
427.52	2090.10
427.71	2143.93
427.90	2193.08
428.09	2258.62
428.28	2270.32
428.46	2066.69
428.65	2331.17
428.84	2242.23
429.03	2167.34
429.22	2176.70
429.40	2193.08
429.59	2218.83
429.78	2363.94
429.97	2183.72
430.16	2167.34
430.34	2394.37
430.53	2471.61
430.72	2380.32
430.91	2321.81
431.10	2342.88
431.28	2303.09
431.47	2476.29
431.66	2429.48
431.85	2434.16
432.03	2562.89
432.22	2485.65
432.41	2539.48
432.60	2485.65
432.79	2448.20
432.97	2457.56
433.16	2490.33
433.35	2373.30
433.54	2576.93
433.72	2541.82
433.91	2483.31
434.10	2504.37
434.28	2595.65
434.47	2600.34
434.66	2555.86
434.85	2684.59
435.03	2656.51
435.22	2534.80
435.41	2724.38
435.59	2757.15
435.78	2785.24
435.97	2665.87
436.16	2642.46
436.34	2738.43
436.53	2677.57
436.72	2766.51
436.90	2642.46
437.09	2754.81
437.28	2637.78
437.46	2708.00
437.65	2696.30
437.84	2820.35
438.02	2832.05
438.21	2867.16
438.40	2799.28
438.58	2942.05
438.77	2902.26
438.96	2871.84
439.14	2881.20
439.33	3016.95
439.52	2963.12
439.70	3021.63
439.89	3082.49
440.08	3084.83
440.26	3138.66
440.45	3087.17
440.63	3204.19
440.82	3098.87
441.01	3218.24
441.19	3234.62
441.38	3272.07
441.57	3314.20
441.75	3307.18
441.94	3248.66
442.12	3379.73
442.31	3398.46
442.50	3290.79
442.68	3403.14
442.87	3316.54
443.05	3459.31
443.24	3459.31
443.43	3471.01
443.61	3417.18
443.80	3583.36
443.98	3323.56
444.17	3325.90
444.35	3351.65
444.54	3599.74
444.73	3314.20
444.91	3604.42
445.10	3478.04
445.28	3583.36
445.47	3529.53
445.65	3536.55
445.84	3548.25
446.02	3576.34
446.21	3410.16
446.39	3435.91
446.58	3613.79
446.77	3639.53
446.95	3452.29
447.14	3487.40
447.32	3440.59
447.51	3562.30
447.69	3494.42
447.88	3644.21
448.06	3637.19
448.25	3543.57
448.43	3695.71
448.62	3485.06
448.80	3534.21
448.99	3705.07
449.17	3723.79
449.36	3674.64
449.54	3812.73
449.73	3808.05
449.91	3791.67
450.10	3747.20
450.28	3880.61
450.46	3770.60
450.65	3852.52
450.83	3794.01
451.02	3908.69
451.20	3896.99
451.39	3901.67
451.57	3866.56
451.76	3789.33
451.94	3915.72
452.13	3957.85
452.31	3936.78
452.49	3978.91
452.68	3894.65
452.86	3929.76
453.05	4086.58
453.23	4049.13
453.42	3915.72
453.60	3899.33
453.78	3922.74
453.97	4016.36
454.15	4044.45
454.34	3985.93
454.52	4007.00
454.70	3974.23
454.89	3960.19
455.07	4056.15
455.26	4072.53
455.44	4243.39
455.62	4028.06
455.81	4248.07
455.99	4131.05
456.17	4229.35
456.36	4189.56
456.54	4217.65
456.73	4266.80
456.91	4456.38
457.09	4344.03
457.28	4463.40
457.46	4311.27
457.64	4397.87
457.83	4461.06
458.01	4318.29
458.19	4400.21
458.38	4402.55
458.56	4521.92
458.74	4585.11
458.93	4561.70
459.11	4568.73
459.29	4491.49
459.48	4528.94
459.66	4447.02
459.84	4634.26
460.03	4746.61
460.21	4697.46
460.39	4566.39
460.57	4905.76
460.76	4713.84
460.94	4704.48
461.12	4770.01
461.31	4664.69
461.49	4788.74
461.67	4671.71
461.85	4713.84
462.04	4840.23
462.22	5034.49
462.40	4924.49
462.59	4835.55
462.77	4889.38
462.95	4805.12
463.13	4858.95
463.32	4861.29
463.50	4875.34
463.68	5013.43
463.86	4819.16
464.05	4835.55
464.23	5032.15
464.41	4931.51
464.59	5008.75
464.78	5053.22
464.96	4992.36
465.14	4830.87
465.32	5085.98
465.50	5041.51
465.69	5095.35
465.87	5071.94
466.05	5219.39
466.23	4975.98
466.41	5130.45
466.60	5275.57
466.78	5060.24
466.96	5156.20
467.14	5334.08
467.32	5144.50
467.51	5355.15
467.69	5233.44
467.87	5050.88
468.05	5387.91
468.23	5149.18
468.41	5275.57
468.60	5444.09
468.78	5352.81
468.96	5378.55
469.14	5296.63
469.32	5441.75
469.50	5277.91
469.69	5301.31
469.87	5568.13
470.05	5434.72
470.23	5584.52
470.41	5540.05
470.59	5547.07
470.77	5486.22
470.95	5579.84
471.14	5762.40
471.32	5448.77
471.50	5729.63
471.68	5757.72
471.86	5511.96
472.04	5533.03
472.22	5982.41
472.40	5820.91
472.58	5668.78
472.77	5731.97
472.95	5877.09
473.13	6171.99
473.31	5977.73
473.49	5785.80
473.67	5956.66
473.85	5959.00
474.03	6057.31
474.21	6040.92
474.39	6054.97
474.57	6286.68
474.75	6303.06
474.93	6347.53
475.12	6174.33
475.30	6466.90
475.48	6328.81
475.66	6572.22
475.84	6345.19
476.02	6464.56
476.20	6604.99
476.38	6619.04
476.56	6574.56
476.74	6567.54
476.92	6717.34
477.10	6759.47
477.28	6782.87
477.46	6722.02
477.64	6773.51
477.82	6829.68
478.00	7164.38
478.18	7073.10
478.36	7150.34
478.54	7143.32
478.72	7246.30
478.90	7194.81
479.08	7243.96
479.26	7321.20
479.44	7370.35
479.62	7590.36
479.80	7527.16
479.98	7534.18
480.16	7611.42
480.34	7634.83
480.52	7686.32
480.70	7878.24
480.88	7749.51
481.06	7981.23
481.24	7906.33
481.41	7803.35
481.59	8161.45
481.77	8154.43
481.95	8084.21
482.13	8365.07
482.31	8381.46
482.49	8224.64
482.67	8573.38
482.85	8739.56
483.03	8781.69
483.21	8847.22
483.39	8755.94
483.57	8931.48
483.74	8800.41
483.92	8809.78
484.10	8936.17
484.28	9104.68
484.46	9399.59
484.64	9163.20
484.82	9383.21
485.00	9200.65
485.18	9547.05
485.35	9626.62
485.53	9549.39
485.71	9729.61
485.89	9947.28
486.07	9792.80
486.25	9916.85
486.43	9954.30
486.61	9966.00
486.78	10162.61
486.96	10141.54
487.14	10544.11
487.32	10190.69
487.50	10314.74
487.68	10422.41
487.85	10408.36
488.03	10471.56
488.21	10803.91
488.39	10902.22
488.57	10946.69
488.75	11028.60
488.92	11375.00
489.10	11204.14
489.28	11243.93
489.46	11389.05
489.64	11503.73
489.81	11426.50
489.99	11815.02
490.17	11688.64
490.35	11948.43
490.53	11967.16
490.70	12107.59
490.88	11772.89
491.06	12194.19
491.24	11859.49
491.41	12006.95
491.59	12154.40
491.77	12500.80
491.95	12526.55
492.13	12573.36
492.30	12559.31
492.48	12613.15
492.66	12580.38
492.84	12688.04
493.01	12709.11
493.19	12809.75
493.37	12844.86
493.54	12837.84
493.72	12996.99
493.90	13053.17
494.08	13202.96
494.25	13437.02
494.43	13336.37
494.61	13504.89
494.79	13551.70
494.96	13530.64
495.14	13455.74
495.32	14005.77
495.49	13895.76
495.67	13984.70
495.85	13996.40
496.02	14394.29
496.20	14396.64
496.38	14038.53
496.55	14279.61
496.73	14602.60
496.91	14363.87
497.09	14457.49
497.26	14445.79
497.44	14862.40
497.62	14813.25
497.79	14824.95
497.97	15087.09
498.14	15192.42
498.32	14871.76
498.50	15157.31
498.67	15555.20
498.85	15194.76
499.03	15522.43
499.20	15136.24
499.38	15438.17
499.56	15508.39
499.73	15644.14
499.91	15744.78
500.08	15702.65
500.26	15590.31
500.44	15981.18
500.61	15763.51
500.79	16163.74
500.97	16123.95
501.14	15999.90
501.32	16360.34
501.49	16376.73
501.67	16147.36
501.84	16484.39
502.02	16147.36
502.20	16507.80
502.37	16596.74
502.55	16224.59
502.72	16369.71
502.90	16739.51
503.07	16493.76
503.25	16362.69
503.43	16475.03
503.60	16744.19
503.78	16774.62
503.95	16882.28
504.13	16938.46
504.30	17055.48
504.48	16793.34
504.65	17198.26
504.83	17202.94
505.01	17331.67
505.18	17380.82
505.36	17465.08
505.53	17355.07
505.71	17413.59
505.88	17488.48
506.06	17188.89
506.23	17902.76
506.41	17818.50
506.58	17788.07
506.76	17715.51
506.93	17961.27
507.11	17593.81
507.28	18073.62
507.46	17949.57
507.63	18047.87
507.81	18146.17
507.98	18064.25
508.16	18223.41
508.33	18272.56
508.50	18434.06
508.68	18356.82
508.85	18401.29
509.03	18780.46
509.20	18621.30
509.38	18757.05
509.55	18897.49
509.73	18644.71
509.90	18747.69
510.08	18904.51
510.25	18794.50
510.42	18778.12
510.60	18956.00
510.77	19110.47
510.95	19269.63
511.12	19136.22
511.30	19257.93
511.47	19206.44
511.64	19475.60
511.82	19246.23
511.99	19262.61
512.17	19440.49
512.34	19669.86
512.51	19597.31
512.69	19744.76
512.86	19831.36
513.04	19943.70
513.21	20067.75
513.38	19934.34
513.56	20042.01
513.73	19948.39
513.90	19697.95
514.08	20020.94
514.25	20025.62
514.43	19964.77
514.60	20255.00
514.77	20226.91
514.95	20334.57
515.12	20367.34
515.29	20353.30
515.47	20374.36
515.64	20580.33
515.81	20421.17
515.99	20704.38
516.16	20673.95
516.33	20744.17
516.51	20748.85
516.68	20582.67
516.85	20671.61
517.03	20767.57
517.20	20980.56
517.37	21057.80
517.54	21006.31
517.72	20992.26
517.89	21022.69
518.06	20884.60
518.24	21364.41
518.41	21102.27
518.58	21074.18
518.75	21434.63
518.93	21315.26
519.10	21357.39
519.27	21516.54
519.45	21252.06
519.62	21523.57
519.79	21315.26
519.96	21652.30
520.14	21823.16
520.31	21745.92
520.48	21757.62
520.65	21844.22
520.83	21879.33
521.00	21750.60
521.17	21982.31
521.34	21727.19
521.52	22045.51
521.69	22031.46
521.86	22422.33
522.03	22691.49
522.20	22188.28
522.38	22326.37
522.55	22211.68
522.72	22537.02
522.89	22359.14
523.07	22553.40
523.24	22705.54
523.41	22417.65
523.58	22719.58
523.75	22642.34
523.92	22740.64
524.10	22768.73
524.27	22782.77
524.44	23058.96
524.61	23150.24
524.78	22923.21
524.96	22953.63
525.13	22810.86
525.30	23054.28
525.47	23250.88
525.64	22925.55
525.81	23370.25
525.98	23473.23
526.16	23534.09
526.33	23337.48
526.50	23363.23
526.67	23255.56
526.84	23498.98
527.01	23711.97
527.18	23381.95
527.36	23321.10
527.53	23800.91
527.70	24280.72
527.87	23775.16
528.04	23646.43
528.21	23651.11
528.38	23461.53
528.55	24058.37
528.72	23962.40
528.89	23756.44
529.07	24058.37
529.24	24093.47
529.41	24088.79
529.58	23964.75
529.75	24201.14
529.92	23974.11
530.09	24180.07
530.26	23999.85
530.43	24559.24
530.60	24130.92
530.77	24184.76
530.94	24112.20
531.11	24617.75
531.28	24390.72
531.46	24570.94
531.63	24648.18
531.80	24428.17
531.97	24465.62
532.14	24746.48
532.31	24694.99
532.48	24552.22
532.65	24800.32
532.82	24563.92
532.99	24587.33
533.16	24692.65
533.33	24694.99
533.50	25261.40
533.67	25057.78
533.84	24692.65
534.01	24575.62
534.18	24601.37
534.35	25170.12
534.52	24886.92
534.69	24893.94
534.86	25495.46
535.03	25228.63
535.20	24926.71
535.37	25392.47
535.54	25298.85
535.71	25329.28
535.88	25186.50
536.05	25242.68
536.22	25570.35
536.38	25671.00
536.55	25853.56
536.72	25462.69
536.89	25401.83
537.06	25364.39
537.23	25589.08
537.40	25715.47
537.57	25458.01
537.74	25528.22
537.91	26129.74
538.08	25942.50
538.25	25701.42
538.42	26174.21
538.59	26106.34
538.75	25778.66
538.92	26033.78
539.09	26277.19
539.26	26380.18
539.43	25991.65
539.60	26040.80
539.77	26515.93
539.94	26401.24
540.11	26305.28
540.28	26267.83
540.44	26160.17
540.61	26450.39
540.78	25846.54
540.95	26195.28
541.12	26270.17
541.29	26593.17
541.46	26501.89
541.62	26242.09
541.79	26403.58
541.96	26251.45
542.13	26480.82
542.30	26174.21
542.47	26845.94
542.63	26682.11
542.80	27110.43
542.97	27351.50
543.14	26946.59
543.31	26693.81
543.48	26721.90
543.64	27140.85
543.81	27260.22
543.98	27033.19
544.15	27175.96
544.32	27435.76
544.48	27459.16
544.65	27037.87
544.82	27236.81
544.99	27044.89
545.16	26974.67
545.32	27199.37
545.49	27505.98
545.66	27023.83
545.83	27524.70
546.00	27709.60
546.16	27229.79
546.33	27356.18
546.50	27243.84
546.67	27529.38
546.83	27122.13
547.00	27651.09
547.17	27339.80
547.34	27789.18
547.50	27651.09
547.67	27960.04
547.84	27840.67
548.00	27637.05
548.17	27709.60
548.34	27548.11
548.51	27995.15
548.67	28067.70
548.84	28306.44
549.01	27894.50
549.18	27840.67
549.34	28187.07
549.51	27908.55
549.68	27948.34
549.84	28011.53
550.01	28119.20
550.18	27887.48
550.34	28098.13
550.51	28692.63
550.68	28357.93
550.84	28264.31
551.01	28591.98
551.18	27953.02
551.34	27835.99
551.51	28030.26
551.68	28156.64
551.84	28219.84
552.01	28226.86
552.18	28390.70
552.34	28498.36
552.51	28524.11
552.68	28739.44
552.84	28458.57
553.01	28460.91
553.18	28584.96
553.34	28362.61
553.51	28627.09
553.67	28591.98
553.84	29144.35
554.01	28816.68
554.17	28577.94
554.34	28652.84
554.51	28559.22
554.67	28790.93
554.84	28891.57
555.00	29088.18
555.17	28683.27
555.33	28783.91
555.50	28563.90
555.67	29006.26
555.83	28765.18
556.00	29130.31
556.16	29048.39
556.33	28760.50
556.50	29221.59
556.66	28868.17
556.83	29106.90
556.99	29266.06
557.16	29483.73
557.32	29069.45
557.49	29350.32
557.65	28971.15
557.82	29083.50
557.98	29160.73
558.15	28950.09
558.32	29237.97
558.48	29282.44
558.65	29177.12
558.81	29326.91
558.98	29748.21
559.14	29296.49
559.31	29331.59
559.47	29326.91
559.64	29364.36
559.80	29102.22
559.97	29586.71
560.13	29429.90
560.30	29394.79
560.46	29228.61
560.63	29624.16
560.79	29207.55
560.96	29333.93
561.12	29479.05
561.29	29401.81
561.45	29514.16
561.61	29544.58
561.78	29617.14
561.94	29544.58
562.11	29942.47
562.27	30054.82
562.44	29656.93
562.60	29663.95
562.77	29355.00
562.93	29549.26
563.10	30024.39
563.26	29546.92
563.42	30071.20
563.59	29443.94
563.75	29993.97
563.92	29780.98
564.08	29900.34
564.24	29715.44
564.41	29841.83
564.57	30132.06
564.74	29780.98
564.90	29685.01
565.07	29809.06
565.23	30368.45
565.39	29996.31
565.56	30274.83
565.72	29893.32
565.88	30160.14
566.05	29977.58
566.21	29940.13
566.38	29928.43
566.54	30110.99
566.70	29989.28
566.87	30022.05
567.03	30363.77
567.19	30731.23
567.36	30129.72
567.52	30169.51
567.68	30012.69
567.85	30078.22
568.01	30314.62
568.17	30078.22
568.34	30012.69
568.50	30455.05
568.66	30251.42
568.83	30565.06
568.99	30326.32
569.15	30375.47
569.32	29722.46
569.48	30136.74
569.64	30043.12
569.81	30206.95
569.97	30295.89
570.13	30698.47
570.30	30267.81
570.46	30115.67
570.62	30106.31
570.78	30485.48
570.95	30185.89
571.11	30551.01
571.27	30155.46
571.43	30157.80
571.60	30771.02
571.76	30483.14
571.92	30497.18
572.09	30611.87
572.25	30483.14
572.41	30410.58
572.57	30349.73
572.74	30525.27
572.90	30375.47
573.06	30176.53
573.22	30176.53
573.38	30356.75
573.55	30279.51
573.71	30621.23
573.87	30874.01
574.03	30623.57
574.20	30541.65
574.36	30281.85
574.52	30707.83
574.68	30539.31
574.84	30560.37
575.01	30389.52
575.17	30836.56
575.33	30464.41
575.49	30494.84
575.65	30527.61
575.82	30836.56
575.98	30689.10
576.14	30309.94
576.30	30675.06
576.46	30302.92
576.62	30459.73
576.79	30441.01
576.95	30015.03
577.11	30614.21
577.27	30499.52
577.43	30771.02
577.59	30787.41
577.75	30340.36
577.92	30555.69
578.08	30415.26
578.24	30178.87
578.40	30321.64
578.56	30808.47
578.72	30546.33
578.88	30782.73
579.04	30974.65
579.21	30799.11
579.37	30637.61
579.53	30712.51
579.69	30532.29
579.85	30157.80
580.01	30536.97
580.17	30555.69
580.33	30630.59
580.49	30579.10
580.65	30689.10
580.82	30391.86
580.98	30815.49
581.14	30569.74
581.30	31030.82
581.46	30866.98
581.62	30492.50
581.78	30539.31
581.94	30993.37
582.10	30630.59
582.26	30607.19
582.42	31002.74
582.58	31075.29
582.74	30745.28
582.90	30984.01
583.06	30920.82
583.22	30630.59
583.38	30696.13
583.54	30553.35
583.70	30391.86
583.86	30602.50
584.02	30630.59
584.18	31124.44
584.34	31007.42
584.50	30745.28
584.66	31035.50
584.82	30553.35
584.98	30541.65
585.14	30787.41
585.30	30726.55
585.46	31112.74
585.62	30625.91
585.78	30492.50
585.94	31061.25
586.10	30705.49
586.26	30670.38
586.42	31037.84
586.58	31098.70
586.74	30548.67
586.90	30836.56
587.06	30911.46
587.22	30756.98
587.38	30646.97
587.54	31101.04
587.70	31105.72
587.86	31094.02
588.02	30824.86
588.18	31316.37
588.34	31374.88
588.49	31187.64
588.65	30565.06
588.81	30759.32
588.97	30817.83
589.13	30499.52
589.29	31077.63
589.45	31431.05
589.61	31372.54
589.77	31232.11
589.93	31136.15
590.08	31201.68
590.24	31281.26
590.40	31138.49
590.56	31328.07
590.72	31206.36
590.88	30923.16
591.04	31110.40
591.20	31239.13
591.35	31152.53
591.51	31866.39
591.67	31269.56
591.83	31674.47
591.99	31419.35
592.15	31283.60
592.31	31178.28
592.46	31094.02
592.62	30899.75
592.78	31082.31
592.94	31063.59
593.10	30878.69
593.26	31370.20
593.41	31321.05
593.57	31009.76
593.73	31012.10
593.89	31115.08
594.05	31505.95
594.20	31112.74
594.36	31672.13
594.52	31054.23
594.68	31288.28
594.84	31140.83
594.99	31353.82
595.15	31178.28
595.31	31412.33
595.47	31206.36
595.62	31590.21
595.78	30962.95
595.94	31194.66
596.10	31225.09
596.25	31260.20
596.41	31283.60
596.57	31323.39
596.73	31599.57
596.88	31206.36
597.04	31115.08
597.20	31587.87
597.36	31374.88
597.51	31606.59
597.67	31257.85
597.83	31519.99
597.99	31178.28
598.14	31033.16
598.30	31269.56
598.46	31351.48
598.61	31372.54
598.77	30904.43
598.93	31463.82
599.09	31473.18
599.24	31770.43
599.40	31501.27
599.56	31625.32
599.71	31463.82
599.87	31461.48
600.03	31578.51
600.18	31723.62
600.34	31634.68
600.50	31150.19
600.65	31197.00
600.81	30911.46
600.97	31330.41
601.12	31697.88
601.28	31627.66
601.44	31108.06
601.59	31793.84
601.75	31384.24
601.91	31271.90
602.06	31555.10
602.22	31477.86
602.37	31189.98
602.53	31232.11
602.69	31740.00
602.84	31555.10
603.00	31477.86
603.16	31665.11
603.31	31658.09
603.47	31960.02
603.62	31318.71
603.78	31412.33
603.94	31236.79
604.09	31339.77
604.25	31475.52
604.40	31353.82
604.56	31367.86
604.71	31529.36
604.87	31803.20
605.03	31899.16
605.18	31484.89
605.34	31381.90
605.49	31318.71
605.65	31475.52
605.80	30745.28
605.96	31157.21
606.12	31140.83
606.27	31316.37
606.43	30796.77
606.58	31510.63
606.74	31283.60
606.89	31421.69
607.05	31477.86
607.20	31606.59
607.36	31386.58
607.51	31578.51
607.67	31304.67
607.82	31236.79
607.98	31094.02
608.13	31054.23
608.29	31168.91
608.44	31131.47
608.60	31278.92
608.75	31442.76
608.91	31246.15
609.06	30916.14
609.22	31049.55
609.37	31126.78
609.53	31028.48
609.68	31028.48
609.84	30986.35
609.99	31374.88
610.15	30789.75
610.30	30974.65
610.46	31236.79
610.61	30906.77
610.76	31075.29
610.92	31321.05
611.07	31482.55
611.23	30771.02
611.38	30986.35
611.54	30822.51
611.69	30752.30
611.84	30969.97
612.00	30998.06
612.15	30768.68
612.31	31241.47
612.46	31061.25
612.62	31124.44
612.77	31250.83
612.92	31171.25
613.08	31065.93
613.23	31094.02
613.39	30724.21
613.54	30717.19
613.69	30782.73
613.85	30909.11
614.00	31082.31
614.15	30738.26
614.31	30881.03
614.46	31201.68
614.62	30976.99
614.77	30948.90
614.92	31037.84
615.08	30639.95
615.23	31220.41
615.38	31028.48
615.54	30426.96
615.69	30635.27
615.84	30473.78
616.00	30710.17
616.15	30398.88
616.30	31051.89
616.46	30813.15
616.61	30611.87
616.76	31239.13
616.92	30569.74
617.07	30782.73
617.22	30696.13
617.37	30431.65
617.53	30855.28
617.68	30366.11
617.83	30375.47
617.99	30345.05
618.14	30848.26
618.29	30401.22
618.45	30251.42
618.60	30237.38
618.75	30909.11
618.90	30190.57
619.06	30852.94
619.21	30429.30
619.36	30471.43
619.51	30155.46
619.67	30455.05
619.82	30225.68
619.97	30181.21
620.12	30256.11
620.28	30237.38
620.43	30232.70
620.58	30574.42
620.73	30197.59
620.89	30298.23
621.04	30567.40
621.19	30410.58
621.34	30199.93
621.49	30213.98
621.65	30129.72
621.80	30113.33
621.95	29734.17
622.10	30302.92
622.25	29837.15
622.41	29876.94
622.56	30197.59
622.71	30202.27
622.86	30017.37
623.01	29940.13
623.16	29923.75
623.32	30136.74
623.47	30230.36
623.62	29820.77
623.77	29273.08
623.92	29963.54
624.07	29881.62
624.23	29764.59
624.38	29982.26
624.53	29649.91
624.68	30167.16
624.83	30197.59
624.98	29940.13
625.13	29500.11
625.29	30029.07
625.44	29848.85
625.59	29603.10
625.74	29560.97
625.89	29495.43
626.04	29467.34
626.19	29235.63
626.34	29509.47
626.49	29406.49
626.65	29626.50
626.80	29645.23
626.95	29675.65
627.10	30038.44
627.25	29532.88
627.40	29656.93
627.55	29542.24
627.70	29640.54
627.85	29266.06
628.00	29205.20
628.15	29612.46
628.30	29266.06
628.45	29277.76
628.60	29359.68
628.76	29167.76
628.91	29537.56
629.06	29305.85
629.21	29163.08
629.36	29333.93
629.51	29088.18
629.66	29294.14
629.81	29233.29
629.96	29298.83
630.11	28863.49
630.26	28725.39
630.41	29268.40
630.56	29048.39
630.71	29317.55
630.86	28982.85
631.01	29209.89
631.16	29043.71
631.31	28992.22
631.46	28608.37
631.61	29385.43
631.76	29092.86
631.91	29261.38
632.06	29067.11
632.21	28811.99
632.36	28486.66
632.51	28467.94
632.66	29137.33
632.81	28889.23
632.96	28964.13
633.10	29200.52
633.25	29184.14
633.40	29109.24
633.55	28638.80
633.70	28676.24
633.85	28554.54
634.00	28407.08
634.15	28706.67
634.30	28767.52
634.45	28400.06
634.60	28371.97
634.75	28376.66
634.90	28519.43
635.05	28926.68
635.19	28788.59
635.34	28938.38
635.49	28898.59
635.64	28774.55
635.79	28676.24
635.94	28180.05
636.09	28449.21
636.24	28601.35
636.39	28484.32
636.53	28601.35
636.68	28315.80
636.83	28446.87
636.98	28617.73
637.13	28130.90
637.28	28701.99
637.43	28381.34
637.57	28627.09
637.72	28266.65
637.87	28238.56
638.02	28009.19
638.17	28432.83
638.32	28268.99
638.46	27931.95
638.61	28109.83
638.76	28182.39
638.91	28222.18
639.06	28011.53
639.20	28339.21
639.35	28266.65
639.50	28182.39
639.65	28058.34
639.80	28400.06
639.94	28093.45
640.09	28081.75
640.24	28297.08
640.39	27639.39
640.54	27971.74
640.68	28023.23
640.83	27929.61
640.98	27447.46
641.13	27615.98
641.27	28058.34
641.42	27639.39
641.57	28133.24
641.72	27857.06
641.86	27831.31
642.01	27838.33
642.16	27718.96
642.31	27601.94
642.45	27175.96
642.60	27428.74
642.75	27520.02
642.90	27349.16
643.04	27185.32
643.19	27194.68
643.34	27735.35
643.48	27679.18
643.63	27433.42
643.78	27758.75
643.93	27620.66
644.07	27559.81
644.22	27400.65
644.37	27353.84
644.51	27548.11
644.66	27337.46
644.81	27517.68
644.95	27555.13
645.10	27133.83
645.25	27082.34
645.39	27576.19
645.54	27103.40
645.69	27239.15
645.83	27182.98
645.98	27101.06
646.13	27325.75
646.27	27395.97
646.42	27225.11
646.57	27168.94
646.71	27096.38
646.86	27227.45
647.00	27393.63
647.15	27253.20
647.30	27161.92
647.44	27131.49
647.59	27278.94
647.74	26925.52
647.88	26841.26
648.03	26930.20
648.17	27538.74
648.32	27147.87
648.47	27161.92
648.61	27009.78
648.76	27023.83
648.90	27269.58
649.05	27447.46
649.20	26787.43
649.34	26717.22
649.49	26665.72
649.63	26803.82
649.78	26733.60
649.92	26782.75
650.07	27037.87
650.21	26796.79
650.36	26920.84
650.51	26902.12
650.65	26764.03
650.80	26979.36
650.94	27187.66
651.09	26712.53
651.23	26316.98
651.38	26649.34
651.52	26647.00
651.67	26415.29
651.81	26768.71
651.96	26621.25
652.10	26375.50
652.25	26581.46
652.39	26581.46
652.54	26862.33
652.68	26586.15
652.83	26836.58
652.97	27007.44
653.12	26923.18
653.26	26431.67
653.41	26536.99
653.55	26078.25
653.70	26232.72
653.84	26422.31
653.99	26359.11
654.13	26286.56
654.27	26515.93
654.42	26642.32
654.56	26429.33
654.71	26511.25
654.85	26043.14
655.00	26803.82
655.14	25930.80
655.29	26321.66
655.43	26363.79
655.57	26211.66
655.72	26214.00
655.86	26047.82
656.01	26459.76
656.15	25954.20
656.30	25577.37
656.44	25832.49
656.58	25797.38
656.73	26073.57
656.87	25750.57
657.01	25912.07
657.16	25982.29
657.30	26422.31
657.45	26291.24
657.59	25818.45
657.73	25986.97
657.88	25986.97
658.02	25867.60
658.16	25940.16
658.31	25663.97
658.45	25898.03
658.60	25591.42
658.74	25612.48
658.88	25832.49
659.03	25935.48
659.17	25951.86
659.31	25722.49
659.46	25553.97
659.60	25542.27
659.74	25762.28
659.89	25315.23
660.03	25125.65
660.17	25544.61
660.32	25252.04
660.46	25280.13
660.60	25315.23
660.74	25333.96
660.89	25352.68
661.03	25050.75
661.17	25062.46
661.32	25200.55
661.46	25633.55
661.60	25422.90
661.74	25385.45
661.89	25200.55
662.03	25195.87
662.17	24781.59
662.31	24737.12
662.46	25397.15
662.60	25120.97
662.74	25106.93
662.88	25046.07
663.03	24781.59
663.17	24947.77
663.31	24547.54
663.45	24613.07
663.60	24500.73
663.74	24552.22
663.88	24479.66
664.02	24746.48
664.17	24702.01
664.31	24554.56
664.45	24456.26
664.59	24341.57
664.73	24851.81
664.88	24842.45
665.02	24191.78
665.16	24334.55
665.30	24156.67
665.44	24198.80
665.59	24170.71
665.73	24250.29
665.87	24140.29
666.01	24388.38
666.15	24187.10
666.29	24215.18
666.44	24287.74
666.58	24065.39
666.72	24091.13
666.86	24507.75
667.00	24367.32
667.14	23611.32
667.28	23974.11
667.43	23859.42
667.57	24084.11
667.71	23765.80
667.85	24016.24
667.99	23871.12
668.13	23573.88
668.27	23674.52
668.41	23819.63
668.56	23545.79
668.70	23934.32
668.84	23234.50
668.98	23850.06
669.12	23681.54
669.26	23370.25
669.40	23592.60
669.54	23828.99
669.68	23278.97
669.82	23459.19
669.96	23318.76
670.10	22939.59
670.25	23136.20
670.39	23152.58
670.53	22895.12
670.67	23002.78
670.81	23454.51
670.95	22754.69
671.09	23365.57
671.23	23019.17
671.37	23091.73
671.51	23047.26
671.65	23180.67
671.79	22757.03
671.93	22703.20
672.07	22614.26
672.21	22647.02
672.35	22466.80
672.49	22483.19
672.63	22532.34
672.77	22347.44
672.91	22377.86
673.05	22487.87
673.19	22485.53
673.33	22656.39
673.47	22089.98
673.61	22441.06
673.75	22263.18
673.89	22092.32
674.03	22242.11
674.17	22265.52
674.31	22094.66
674.45	21886.35
674.59	21893.37
674.73	21937.84
674.87	21355.05
675.01	21858.26
675.15	21872.31
675.29	21694.43
675.43	21523.57
675.56	21656.98
675.70	21694.43
675.84	21708.47
675.98	20982.90
676.12	21708.47
676.26	21708.47
676.40	21720.17
676.54	21238.02
676.68	21238.02
676.82	20805.02
676.96	21174.83
677.10	20987.58
677.23	20933.75
677.37	21025.03
677.51	20940.77
677.65	20704.38
677.79	20692.68
677.93	20648.21
678.07	20685.65
678.21	20332.23
678.34	20570.97
678.48	20585.01
678.62	20386.07
678.76	20386.07
678.90	20659.91
679.04	20177.76
679.18	20374.36
679.31	19988.18
679.45	20105.20
679.59	19924.98
679.73	19763.48
679.87	19887.53
680.00	19798.59
680.14	19674.54
680.28	19620.71
680.42	19620.71
680.56	19819.66
680.70	19852.42
680.83	19683.91
680.97	19775.19
681.11	19445.17
681.25	19316.44
681.39	19351.55
681.52	19494.32
681.66	19323.46
681.80	19026.21
681.94	19124.52
682.07	19145.58
682.21	19073.03
682.35	18803.86
682.49	18857.70
682.62	18794.50
682.76	18656.41
682.90	18668.11
683.04	18572.15
683.17	18405.97
683.31	18661.09
683.45	18417.68
683.59	18672.79
683.72	18518.32
683.86	18366.18
684.00	18242.14
684.13	18335.76
684.27	18469.17
684.41	18230.43
684.55	17982.34
684.68	17701.47
684.82	17818.50
684.96	17750.62
685.09	17666.36
685.23	17617.21
685.37	17771.69
685.50	17561.04
685.64	17568.06
685.78	17823.18
685.91	17832.54
686.05	17640.62
686.19	17336.35
686.32	17390.18
686.46	17390.18
686.60	17202.94
686.73	17060.16
686.87	16879.94
687.01	16950.16
687.14	17055.48
687.28	16987.61
687.42	16776.96
687.55	16666.95
687.69	16774.62
687.82	16812.07
687.96	16788.66
688.10	16926.75
688.23	16734.83
688.37	16849.52
688.50	16582.70
688.64	16496.10
688.78	16652.91
688.91	16369.71
689.05	16219.91
689.18	16264.38
689.32	15587.97
689.46	15875.85
689.59	15726.06
689.73	16053.73
689.86	15754.15
690.00	15953.09
690.13	15651.16
690.27	15665.21
690.41	15714.36
690.54	15777.55
690.68	15688.61
690.81	15730.74
690.95	15688.61
691.08	15672.23
691.22	15332.85
691.35	15365.62
691.49	15435.83
691.62	15101.14
691.76	15382.00
691.89	15007.52
692.03	14883.47
692.16	14937.30
692.30	14778.14
692.43	14789.85
692.57	14679.84
692.70	14658.78
692.84	14532.39
692.97	14354.51
693.11	14630.69
693.24	14429.40
693.38	14450.47
693.51	14288.97
693.65	14532.39
693.78	14420.04
693.92	14326.42
694.05	14244.50
694.19	14106.41
694.32	14274.93
694.45	14113.43
694.59	13862.99
694.72	13949.59
694.86	13806.82
694.99	13778.73
695.13	13783.41
695.26	13689.79
695.39	13673.41
695.53	13589.15
695.66	13785.76
695.80	13434.68
695.93	13741.29
696.07	13415.95
696.20	13802.14
696.33	13364.46
696.47	13635.96
696.60	13174.88
696.73	13371.48
696.87	13036.78
697.00	12978.27
697.14	12772.30
697.27	12674.00
697.40	12896.35
697.54	13006.36
697.67	12652.94
697.80	12692.73
697.94	12652.94
698.07	12657.62
698.21	12617.83
698.34	12395.48
698.47	12493.78
698.61	12545.27
698.74	12685.70
698.87	12416.54
699.01	12138.02
699.14	12191.85
699.27	12074.82
699.40	12201.21
699.54	11983.54
699.67	12053.76
699.80	11992.90
699.94	11819.71
700.07	12044.40
700.20	11639.48
700.34	11609.06
700.47	11791.62
700.60	11737.79
700.73	11854.81
700.87	11880.56
701.00	11470.97
701.13	11461.60
701.26	11456.92
701.40	11461.60
701.53	11463.94
701.66	11562.25
701.79	11431.18
701.93	11288.40
702.06	11075.42
702.19	10986.47
702.32	10888.17
702.46	10909.24
702.59	10808.59
702.72	10981.79
702.85	10785.19
702.99	10707.95
703.12	10937.32
703.25	10513.69
703.38	10743.06
703.51	10686.89
703.65	10593.26
703.78	10438.79
703.91	10422.41
704.04	10452.83
704.17	10455.17
704.31	10338.15
704.44	10244.52
704.57	10340.49
704.70	10153.24
704.83	10162.61
704.96	10207.08
705.10	9949.62
705.23	9832.59
>>>>>End Processed Spectral Data<<<<<
