SpectraSuite Data File
++++++++++++++++++++++++++++++++++++
Date: Fri Oct 18 13:58:38 GMT-05:00 2013
User: bianchi
Dark Spectrum Present: No
Reference Spectrum Present: No
Number of Sampled Component Spectra: 1
Spectrometers: USB2+H05261
Integration Time (usec): 50000 (USB2+H05261)
Spectra Averaged: 1 (USB2+H05261)
Boxcar Smoothing: 0 (USB2+H05261)
Correct for Electrical Dark: No (USB2+H05261)
Strobe/Lamp Enabled: No (USB2+H05261)
Correct for Detector Non-linearity: No (USB2+H05261)
Correct for Stray Light: No (USB2+H05261)
Number of Pixels in Processed Spectrum: 2048
>>>>>Begin Processed Spectral Data<<<<<
365.73	0.00
365.92	0.00
366.12	0.00
366.32	0.00
366.52	0.00
366.72	0.00
366.91	0.00
367.11	0.00
367.31	0.00
367.51	0.00
367.70	0.00
367.90	0.00
368.10	0.00
368.30	0.00
368.49	0.00
368.69	0.00
368.89	0.00
369.09	0.00
369.28	0.00
369.48	0.00
369.68	0.00
369.87	0.00
370.07	0.00
370.27	0.00
370.47	0.00
370.66	79.58
370.86	79.58
371.06	180.22
371.25	147.45
371.45	163.84
371.65	124.05
371.84	131.07
372.04	170.86
372.24	138.09
372.44	149.79
372.63	149.79
372.83	187.24
373.03	203.63
373.22	168.52
373.42	191.92
373.62	154.48
373.81	215.33
374.01	248.10
374.21	222.35
374.40	245.76
374.60	266.82
374.79	201.29
374.99	187.24
375.19	283.20
375.38	259.80
375.58	262.14
375.78	308.95
375.97	198.95
376.17	308.95
376.37	241.08
376.56	224.69
376.76	212.99
376.95	297.25
377.15	227.03
377.35	208.31
377.54	252.78
377.74	276.18
377.93	227.03
378.13	285.55
378.33	238.73
378.52	264.48
378.72	285.55
378.91	276.18
379.11	269.16
379.31	339.38
379.50	313.63
379.70	276.18
379.89	315.97
380.09	264.48
380.28	234.05
380.48	278.52
380.68	273.84
380.87	327.68
381.07	287.89
381.26	294.91
381.46	322.99
381.65	269.16
381.85	276.18
382.04	322.99
382.24	271.50
382.43	383.85
382.63	313.63
382.83	299.59
383.02	339.38
383.22	292.57
383.41	322.99
383.61	360.44
383.80	397.89
384.00	301.93
384.19	407.25
384.39	341.72
384.58	355.76
384.78	383.85
384.97	341.72
385.17	376.83
385.36	414.27
385.56	421.30
385.75	393.21
385.95	292.57
386.14	367.46
386.34	381.51
386.53	435.34
386.72	411.93
386.92	484.49
387.11	442.36
387.31	334.70
387.50	421.30
387.70	416.62
387.89	353.42
388.09	493.85
388.28	475.13
388.48	418.96
388.67	435.34
388.86	383.85
389.06	505.56
389.25	468.11
389.45	512.58
389.64	461.09
389.84	477.47
390.03	449.38
390.22	383.85
390.42	433.00
390.61	411.93
390.81	547.69
391.00	531.30
391.19	498.53
391.39	585.13
391.58	561.73
391.78	538.32
391.97	599.18
392.16	514.92
392.36	543.00
392.55	479.81
392.75	564.07
392.94	458.74
393.13	493.85
393.33	531.30
393.52	533.64
393.71	500.87
393.91	615.56
394.10	552.37
394.29	636.63
394.49	566.41
394.68	561.73
394.88	538.32
395.07	610.88
395.26	575.77
395.46	620.24
395.65	608.54
395.84	643.65
396.04	739.61
396.23	631.94
396.42	657.69
396.62	683.44
396.81	552.37
397.00	688.12
397.19	653.01
397.39	671.73
397.58	734.93
397.77	681.10
397.97	664.71
398.16	587.47
398.35	620.24
398.55	725.57
398.74	706.84
398.93	748.97
399.12	713.86
399.32	657.69
399.51	725.57
399.70	688.12
399.90	695.14
400.09	786.42
400.28	706.84
400.47	683.44
400.67	690.46
400.86	767.70
401.05	753.65
401.24	779.40
401.44	772.38
401.63	875.36
401.82	922.17
402.01	779.40
402.21	842.59
402.40	784.08
402.59	760.67
402.78	788.76
402.97	915.15
403.17	795.78
403.36	833.23
403.55	858.98
403.74	821.53
403.93	821.53
404.13	875.36
404.32	826.21
404.51	793.44
404.70	933.87
404.89	882.38
405.09	910.47
405.28	992.39
405.47	994.73
405.66	959.62
405.85	959.62
406.05	938.55
406.24	873.02
406.43	1006.43
406.62	1090.69
406.81	1036.86
407.00	983.02
407.20	1043.88
407.39	1018.13
407.58	947.92
407.77	1076.65
407.96	964.30
408.15	1004.09
408.34	954.94
408.54	994.73
408.73	1132.82
408.92	985.37
409.11	1043.88
409.30	1053.24
409.49	1144.52
409.68	1142.18
409.87	1111.75
410.07	1132.82
410.26	1188.99
410.45	1205.38
410.64	1123.46
410.83	1135.16
411.02	1088.35
411.21	1135.16
411.40	1245.16
411.59	1284.95
411.78	1226.44
411.98	1245.16
412.17	1320.06
412.36	1324.74
412.55	1306.02
412.74	1240.48
412.93	1313.04
413.12	1338.79
413.31	1418.36
413.50	1336.45
413.69	1439.43
413.88	1380.92
414.07	1355.17
414.26	1416.02
414.45	1373.89
414.64	1495.60
414.83	1516.67
415.02	1455.81
415.22	1416.02
415.41	1465.18
415.60	1605.61
415.79	1575.18
415.98	1579.86
416.17	1418.36
416.36	1572.84
416.55	1680.50
416.74	1577.52
416.93	1607.95
417.12	1633.69
417.31	1561.14
417.50	1598.59
417.69	1774.13
417.88	1678.16
418.07	1748.38
418.26	1739.02
418.45	1647.74
418.64	1792.85
418.83	1849.02
419.02	1809.23
419.21	1811.57
419.39	1748.38
419.58	1732.00
419.77	1900.52
419.96	1776.47
420.15	1858.39
420.34	1891.15
420.53	1900.52
420.72	1832.64
420.91	1834.98
421.10	1954.35
421.29	1998.82
421.48	1874.77
421.67	1881.79
421.86	1921.58
422.05	1884.13
422.24	1898.17
422.43	1916.90
422.61	2036.27
422.80	1942.64
422.99	1928.60
423.18	2017.54
423.37	1961.37
423.56	2010.52
423.75	1968.39
423.94	1895.83
424.13	1867.75
424.32	1837.32
424.50	1982.43
424.69	2125.21
424.88	2083.08
425.07	1982.43
425.26	1963.71
425.45	2113.50
425.64	2008.18
425.83	2001.16
426.01	2047.97
426.20	2078.40
426.39	1916.90
426.58	2010.52
426.77	2113.50
426.96	2092.44
427.15	2057.33
427.33	2162.66
427.52	2122.87
427.71	2174.36
427.90	2111.16
428.09	2153.29
428.28	2169.68
428.46	2003.50
428.65	2153.29
428.84	2207.13
429.03	2237.55
429.22	2251.60
429.40	2200.10
429.59	2284.36
429.78	2179.04
429.97	2045.63
430.16	2188.40
430.34	2420.11
430.53	2317.13
430.72	2324.15
430.91	2289.04
431.10	2202.44
431.28	2317.13
431.47	2352.24
431.66	2312.45
431.85	2314.79
432.03	2438.84
432.22	2452.88
432.41	2331.17
432.60	2263.30
432.79	2490.33
432.97	2359.26
433.16	2349.90
433.35	2385.01
433.54	2532.46
433.72	2466.92
433.91	2441.18
434.10	2523.10
434.28	2483.31
434.47	2471.61
434.66	2502.03
434.85	2607.36
435.03	2504.37
435.22	2609.70
435.41	2637.78
435.59	2600.34
435.78	2593.31
435.97	2635.44
436.16	2588.63
436.34	2567.57
436.53	2661.19
436.72	2729.06
436.90	2628.42
437.09	2712.68
437.28	2708.00
437.46	2724.38
437.65	2684.59
437.84	2761.83
438.02	2810.98
438.21	2789.92
438.40	2696.30
438.58	2827.37
438.77	2743.11
438.96	2771.19
439.14	2836.73
439.33	2937.37
439.52	2909.29
439.70	2878.86
439.89	2993.55
440.08	3159.72
440.26	2967.80
440.45	3056.74
440.63	3035.67
440.82	3070.78
441.01	2890.56
441.19	2930.35
441.38	3166.74
441.57	3164.40
441.75	3215.90
441.94	3281.43
442.12	3335.26
442.31	3236.96
442.50	3241.64
442.68	3368.03
442.87	3400.80
443.05	3351.65
443.24	3372.71
443.43	3339.94
443.61	3286.11
443.80	3466.33
443.98	3290.79
444.17	3204.19
444.35	3267.39
444.54	3365.69
444.73	3389.10
444.91	3339.94
445.10	3426.54
445.28	3454.63
445.47	3318.88
445.65	3372.71
445.84	3417.18
446.02	3463.99
446.21	3351.65
446.39	3379.73
446.58	3410.16
446.77	3478.04
446.95	3466.33
447.14	3522.51
447.32	3508.46
447.51	3463.99
447.69	3515.48
447.88	3506.12
448.06	3424.20
448.25	3492.08
448.43	3529.53
448.62	3555.27
448.80	3375.05
448.99	3576.34
449.17	3578.68
449.36	3454.63
449.54	3602.08
449.73	3611.45
449.91	3735.50
450.10	3747.20
450.28	3763.58
450.46	3712.09
450.65	3751.88
450.83	3721.45
451.02	3723.79
451.20	3700.39
451.39	3726.13
451.57	3637.19
451.76	3777.62
451.94	3920.40
452.13	3864.22
452.31	3843.16
452.49	3772.94
452.68	3812.73
452.86	3758.90
453.05	3801.03
453.23	3822.09
453.42	3815.07
453.60	3885.29
453.78	3817.41
453.97	3826.78
454.15	3955.51
454.34	3941.46
454.52	4039.76
454.70	4046.79
454.89	4070.19
455.07	3904.01
455.26	3995.29
455.44	4016.36
455.62	4032.74
455.81	4131.05
455.99	4142.75
456.17	4093.60
456.36	4058.49
456.54	4128.70
456.73	4180.20
456.91	4334.67
457.09	4252.75
457.28	4322.97
457.46	4276.16
457.64	4318.29
457.83	4306.59
458.01	4212.96
458.19	4318.29
458.38	4355.74
458.56	4269.14
458.74	4372.12
458.93	4383.82
459.11	4290.20
459.29	4376.80
459.48	4383.82
459.66	4362.76
459.84	4592.13
460.03	4526.60
460.21	4496.17
460.39	4486.81
460.57	4547.66
460.76	4484.47
460.94	4681.07
461.12	4685.75
461.31	4589.79
461.49	4414.25
461.67	4409.57
461.85	4538.30
462.04	4580.43
462.22	4594.47
462.40	4643.62
462.59	4631.92
462.77	4802.78
462.95	4683.41
463.13	4809.80
463.32	4774.69
463.50	4802.78
463.68	4842.57
463.86	4819.16
464.05	4704.48
464.23	4737.24
464.41	5041.51
464.59	4720.86
464.78	4849.59
464.96	4819.16
465.14	4903.42
465.32	4933.85
465.50	4905.76
465.69	4844.91
465.87	4816.82
466.05	4929.17
466.23	4992.36
466.41	5076.62
466.60	5095.35
466.78	4905.76
466.96	4931.51
467.14	5027.47
467.32	5060.24
467.51	5053.22
467.69	4975.98
467.87	5034.49
468.05	5177.26
468.23	5034.49
468.41	5217.05
468.60	4933.85
468.78	5284.93
468.96	4964.28
469.14	5320.04
469.32	5350.46
469.50	5121.09
469.69	5373.87
469.87	5406.64
470.05	5280.25
470.23	5373.87
470.41	5275.57
470.59	5437.06
470.77	5406.64
470.95	5453.45
471.14	5516.64
471.32	5394.93
471.50	5671.12
471.68	5572.82
471.86	5650.05
472.04	5493.24
472.22	5621.97
472.40	5547.07
472.58	5610.26
472.77	5696.86
472.95	5816.23
473.13	6003.47
473.31	5856.02
473.49	5872.40
473.67	5731.97
473.85	5921.56
474.03	5984.75
474.21	5790.49
474.39	5951.98
474.57	5973.05
474.75	6024.54
474.93	6113.48
475.12	6043.26
475.30	6195.40
475.48	6043.26
475.66	6111.14
475.84	6085.39
476.02	6389.66
476.20	6249.23
476.38	6366.26
476.56	6619.04
476.74	6462.22
476.92	6478.60
477.10	6504.35
477.28	6633.08
477.46	6801.60
477.64	6581.59
477.82	6750.10
478.00	6881.18
478.18	6930.33
478.36	6988.84
478.54	7045.01
478.72	7061.40
478.90	7068.42
479.08	7148.00
479.26	7260.34
479.44	7269.70
479.62	7407.80
479.80	7426.52
479.98	7365.67
480.16	7569.29
480.34	7304.81
480.52	7588.02
480.70	7658.23
480.88	7531.84
481.06	7531.84
481.24	7660.57
481.41	7793.98
481.59	7819.73
481.77	7903.99
481.95	7953.14
482.13	8011.65
482.31	8145.06
482.49	8079.53
482.67	8138.04
482.85	8332.31
483.03	8297.20
483.21	8259.75
483.39	8498.49
483.57	8559.34
483.74	8491.46
483.92	8809.78
484.10	8414.23
484.28	8826.16
484.46	8966.59
484.64	9210.01
484.82	8985.32
485.00	8856.59
485.18	9114.05
485.35	9186.60
485.53	9357.46
485.71	9437.04
485.89	9369.16
486.07	9486.19
486.25	9378.53
486.43	9310.65
486.61	9540.02
486.78	9764.72
486.96	9963.66
487.14	10134.52
487.32	10204.74
487.50	10029.20
487.68	10132.18
487.85	10181.33
488.03	10298.36
488.21	10565.18
488.39	10424.75
488.57	10516.03
488.75	10600.29
488.92	10843.70
489.10	10712.63
489.28	10881.15
489.46	11082.44
489.64	11009.88
489.81	10897.53
489.99	11239.25
490.17	11208.83
490.35	11363.30
490.53	11545.86
490.70	11236.91
490.88	11550.54
491.06	11686.29
491.24	11665.23
491.41	11892.26
491.59	11838.43
491.77	11690.98
491.95	12121.63
492.13	11936.73
492.30	12070.14
492.48	12131.00
492.66	12287.81
492.84	12215.26
493.01	12297.17
493.19	12519.53
493.37	12695.07
493.54	12631.87
493.72	12711.45
493.90	12882.31
494.08	12982.95
494.25	12912.74
494.43	13198.28
494.61	13057.85
494.79	13214.66
494.96	13343.39
495.14	13181.90
495.32	13502.55
495.49	13551.70
495.67	13603.19
495.85	13586.81
496.02	13844.27
496.20	13783.41
496.38	13799.80
496.55	13806.82
496.73	14111.09
496.91	14033.85
497.09	13944.91
497.26	14071.30
497.44	14101.73
497.62	14139.18
497.79	14401.32
497.97	13954.27
498.14	14448.13
498.32	14630.69
498.50	14618.99
498.67	14768.78
498.85	14820.27
499.03	14902.19
499.20	14878.79
499.38	14836.66
499.56	15089.43
499.73	14965.39
499.91	14944.32
500.08	15431.15
500.26	15044.96
500.44	15136.24
500.61	15543.50
500.79	15297.74
500.97	15461.58
501.14	15805.64
501.32	15936.71
501.49	15503.71
501.67	15686.27
501.84	15672.23
502.02	15651.16
502.20	15850.11
502.37	16006.92
502.55	15840.75
502.72	15889.90
502.90	16224.59
503.07	15857.13
503.25	16053.73
503.43	16116.93
503.60	16332.26
503.78	16079.48
503.95	16257.36
504.13	16636.53
504.30	16327.58
504.48	16547.59
504.65	16540.57
504.83	16510.14
505.01	16627.17
505.18	16999.31
505.36	17074.21
505.53	16982.93
505.71	16933.78
505.88	16727.81
506.06	16800.37
506.23	17224.00
506.41	17387.84
506.58	17479.12
506.76	17062.51
506.93	17348.05
507.11	17064.85
507.28	17329.33
507.46	17312.94
507.63	17256.77
507.81	17748.28
507.98	17561.04
508.16	17593.81
508.33	17696.79
508.50	17914.46
508.68	17783.39
508.85	17701.47
509.03	18043.19
509.20	17879.35
509.38	18031.49
509.55	18221.07
509.73	18223.41
509.90	18068.94
510.08	18033.83
510.25	18335.76
510.42	18211.71
510.60	18312.35
510.77	18614.28
510.95	18728.97
511.12	18412.99
511.30	18335.76
511.47	18717.26
511.64	18665.77
511.82	18953.66
511.99	18745.35
512.17	19063.66
512.34	18745.35
512.51	18864.72
512.69	19180.69
512.86	18941.96
513.04	19323.46
513.21	19381.98
513.38	19356.23
513.56	19295.38
513.73	19417.08
513.90	19185.37
514.08	19197.07
514.25	19286.01
514.43	19414.74
514.60	19384.32
514.77	19587.94
514.95	19613.69
515.12	19833.70
515.29	19601.99
515.47	19847.74
515.64	19936.68
515.81	19920.30
515.99	19822.00
516.16	20198.82
516.33	19924.98
516.51	20201.16
516.68	19889.87
516.85	19782.21
517.03	20130.95
517.20	20154.35
517.37	20517.14
517.54	20238.61
517.72	20240.95
517.89	20166.06
518.06	20341.60
518.24	20524.16
518.41	20379.04
518.58	20369.68
518.75	20514.80
518.93	20886.94
519.10	20727.78
519.27	20898.64
519.45	20542.88
519.62	20624.80
519.79	20615.44
519.96	20732.47
520.14	20805.02
520.31	20924.39
520.48	21146.74
520.65	20975.88
520.83	21474.42
521.00	20980.56
521.17	21355.05
521.34	21521.23
521.52	21451.01
521.69	21228.66
521.86	21661.66
522.03	21380.79
522.20	21542.29
522.38	21626.55
522.55	21572.72
522.72	21245.04
522.89	21869.97
523.07	21916.78
523.24	21923.80
523.41	22094.66
523.58	21673.36
523.75	21912.10
523.92	21837.20
524.10	21818.47
524.27	22319.35
524.44	22171.89
524.61	22448.08
524.78	22253.81
524.96	22235.09
525.13	22026.78
525.30	22162.53
525.47	22431.69
525.64	22387.22
525.81	22389.56
525.98	22473.82
526.16	22331.05
526.33	22593.19
526.50	22738.30
526.67	22546.38
526.84	22586.17
527.01	22434.03
527.18	22712.56
527.36	23014.49
527.53	22714.90
527.70	23253.22
527.87	23248.54
528.04	22775.75
528.21	23276.63
528.38	22714.90
528.55	23192.37
528.72	23136.20
528.89	23283.65
529.07	23145.56
529.24	23014.49
529.41	23716.65
529.58	23000.44
529.75	23190.03
529.92	22974.70
530.09	23122.15
530.26	23487.28
530.43	23150.24
530.60	23498.98
530.77	23508.34
530.94	23480.25
531.11	23538.77
531.28	23403.02
531.46	23756.44
531.63	23501.32
531.80	23700.26
531.97	23491.96
532.14	23775.16
532.31	23548.13
532.48	23939.00
532.65	23742.39
532.82	23850.06
532.99	23765.80
533.16	23557.49
533.33	24182.42
533.50	24229.23
533.67	24339.23
533.84	24063.05
534.01	24098.16
534.18	24144.97
534.35	23990.49
534.52	24196.46
534.69	24355.61
534.86	24093.47
535.03	24315.83
535.20	24294.76
535.37	24276.04
535.54	24704.35
535.71	24306.46
535.88	24336.89
536.05	24163.69
536.22	24580.31
536.38	24816.70
536.55	24702.01
536.72	24545.20
536.89	24276.04
537.06	24542.86
537.23	24837.76
537.40	24570.94
537.57	24744.14
537.74	24830.74
537.91	24896.28
538.08	25041.39
538.25	25074.16
538.42	24926.71
538.59	25064.80
538.75	24706.70
538.92	24662.22
539.09	24999.26
539.26	25055.43
539.43	25146.72
539.60	25518.86
539.77	25364.39
539.94	25422.90
540.11	25291.83
540.28	25343.32
540.44	25476.73
540.61	25010.96
540.78	25280.13
540.95	25420.56
541.12	25289.49
541.29	25240.34
541.46	25109.27
541.62	25277.79
541.79	25284.81
541.96	25352.68
542.13	24907.98
542.30	25633.55
542.47	25834.83
542.63	25832.49
542.80	25666.31
542.97	25745.89
543.14	26230.38
543.31	25823.13
543.48	26064.21
543.64	26202.30
543.81	25717.81
543.98	26347.41
544.15	26064.21
544.32	26375.50
544.48	26820.20
544.65	25930.80
544.82	26342.73
544.99	25773.98
545.16	26260.81
545.32	26501.89
545.49	26522.95
545.66	26796.79
545.83	26426.99
546.00	26574.44
546.16	26335.71
546.33	26302.94
546.50	26597.85
546.67	26511.25
546.83	26309.96
547.00	26536.99
547.17	26656.36
547.34	26469.12
547.50	26677.43
547.67	26941.91
547.84	26529.97
548.00	26731.26
548.17	26883.39
548.34	26852.97
548.51	26927.86
548.67	26831.90
548.84	26876.37
549.01	26948.93
549.18	26712.53
549.34	26984.04
549.51	27077.66
549.68	26747.64
549.84	27126.81
550.01	26623.59
550.18	26857.65
550.34	27292.99
550.51	27122.13
550.68	27269.58
550.84	26881.05
551.01	27147.87
551.18	27133.83
551.34	27152.55
551.51	26916.16
551.68	27615.98
551.84	27899.19
552.01	27140.85
552.18	27566.83
552.34	27342.14
552.51	27330.44
552.68	27285.97
552.84	27199.37
553.01	27517.68
553.18	27330.44
553.34	27754.07
553.51	27740.03
553.67	27379.59
553.84	27693.22
554.01	27796.20
554.17	27854.72
554.34	27601.94
554.51	27634.71
554.67	27761.09
554.84	27751.73
555.00	27557.47
555.17	27571.51
555.33	28114.52
555.50	27828.97
555.67	27903.87
555.83	27896.85
556.00	27791.52
556.16	28119.20
556.33	27711.94
556.50	27838.33
556.66	27852.38
556.83	28053.66
556.99	28287.71
557.16	28205.80
557.32	28180.05
557.49	28137.92
557.65	27924.93
557.82	27587.89
557.98	27999.83
558.15	28063.02
558.32	28105.15
558.48	28554.54
558.65	28238.56
558.81	28158.99
558.98	28383.68
559.14	27995.15
559.31	28093.45
559.47	28287.71
559.64	28224.52
559.80	28135.58
559.97	28414.10
560.13	28065.36
560.30	28620.07
560.46	28187.07
560.63	28519.43
560.79	28594.32
560.96	28587.30
561.12	28584.96
561.29	28311.12
561.45	28341.55
561.61	28620.07
561.78	28982.85
561.94	28652.84
562.11	28601.35
562.27	28219.84
562.44	28386.02
562.60	28463.25
562.77	28463.25
562.93	28280.69
563.10	28926.68
563.26	28444.53
563.42	28980.51
563.59	28524.11
563.75	28926.68
563.92	28952.43
564.08	28325.16
564.24	28290.06
564.41	28313.46
564.57	28584.96
564.74	28725.39
564.90	28788.59
565.07	28620.07
565.23	29191.16
565.39	28889.23
565.56	28933.70
565.72	28804.97
565.88	28631.77
566.05	28687.95
566.21	28744.12
566.38	28610.71
566.54	28538.15
566.70	28999.24
566.87	28907.96
567.03	29034.35
567.19	29275.42
567.36	29156.05
567.52	28772.21
567.68	28980.51
567.85	29146.69
568.01	28907.96
568.17	28814.34
568.34	29256.70
568.50	29289.46
568.66	29064.77
568.83	29404.15
568.99	28987.53
569.15	28692.63
569.32	28807.31
569.48	29006.26
569.64	29034.35
569.81	28989.88
569.97	28931.36
570.13	28992.22
570.30	29165.42
570.46	29134.99
570.62	28936.04
570.78	28652.84
570.95	29219.25
571.11	29153.71
571.27	28683.27
571.43	29120.95
571.60	29008.60
571.76	29160.73
571.92	29139.67
572.09	28945.41
572.25	29357.34
572.41	29598.41
572.57	29181.80
572.74	29296.49
572.90	29355.00
573.06	28797.95
573.22	28919.66
573.38	29237.97
573.55	29195.84
573.71	29633.52
573.87	29406.49
574.03	28900.94
574.20	29067.11
574.36	29378.40
574.52	29209.89
574.68	29263.72
574.84	28891.57
575.01	29078.82
575.17	29095.20
575.33	29237.97
575.49	29315.21
575.65	29404.15
575.82	29177.12
575.98	29359.68
576.14	29577.35
576.30	29514.16
576.46	29322.23
576.62	29120.95
576.79	29317.55
576.95	29188.82
577.11	29448.62
577.27	29490.75
577.43	29422.87
577.59	29039.03
577.75	29394.79
577.92	29280.10
578.08	29046.05
578.24	29090.52
578.40	29249.67
578.56	29460.32
578.72	29441.60
578.88	29797.36
579.04	29226.27
579.21	29713.10
579.37	29795.02
579.53	29170.10
579.69	28971.15
579.85	29207.55
580.01	29252.02
580.17	29308.19
580.33	29474.37
580.49	29633.52
580.65	29497.77
580.82	29483.73
580.98	29773.95
581.14	29600.76
581.30	29450.96
581.46	28950.09
581.62	29495.43
581.78	29078.82
581.94	29614.80
582.10	29495.43
582.26	29366.70
582.42	29652.25
582.58	29677.99
582.74	29596.07
582.90	29813.74
583.06	29462.66
583.22	29661.61
583.38	29469.69
583.54	29467.34
583.70	29254.36
583.86	29242.65
584.02	28999.24
584.18	29567.99
584.34	29598.41
584.50	29579.69
584.66	29521.18
584.82	29319.89
584.98	29589.05
585.14	29525.86
585.30	29158.39
585.46	29376.06
585.62	29507.13
585.78	29355.00
585.94	29490.75
586.10	29666.29
586.26	29472.03
586.42	29813.74
586.58	29642.88
586.74	29661.61
586.90	29551.60
587.06	29233.29
587.22	29640.54
587.38	29336.27
587.54	29846.51
587.70	29481.39
587.86	29607.78
588.02	30015.03
588.18	29724.80
588.34	29708.42
588.49	29621.82
588.65	29525.86
588.81	29656.93
588.97	29640.54
589.13	29685.01
589.29	29586.71
589.45	29806.72
589.61	29802.04
589.77	29757.57
589.93	29900.34
590.08	30008.01
590.24	30279.51
590.40	30249.08
590.56	29853.53
590.72	29947.15
590.88	29692.04
591.04	29530.54
591.20	30110.99
591.35	29902.68
591.51	30216.32
591.67	30153.12
591.83	29865.24
591.99	30150.78
592.15	29844.17
592.31	29883.96
592.46	29663.95
592.62	29795.02
592.78	29785.66
592.94	29905.02
593.10	30185.89
593.26	30054.82
593.41	30108.65
593.57	29844.17
593.73	29612.46
593.89	30103.97
594.05	29890.98
594.20	29591.39
594.36	30054.82
594.52	29890.98
594.68	29813.74
594.84	29666.29
594.99	29895.66
595.15	29839.49
595.31	30246.74
595.47	30150.78
595.62	30354.41
595.78	30092.27
595.94	30174.19
596.10	30089.93
596.25	29876.94
596.41	30326.32
596.57	30029.07
596.73	29752.89
596.88	30326.32
597.04	30108.65
597.20	30115.67
597.36	29736.51
597.51	30298.23
597.67	30300.58
597.83	30190.57
597.99	30338.02
598.14	29804.38
598.30	30408.24
598.46	30040.78
598.61	29937.79
598.77	30164.82
598.93	30284.19
599.09	30391.86
599.24	30403.56
599.40	30316.96
599.56	30328.66
599.71	29937.79
599.87	30110.99
600.03	30024.39
600.18	29996.31
600.34	30005.67
600.50	29734.17
600.65	29872.26
600.81	29867.58
600.97	30244.40
601.12	30366.11
601.28	30487.82
601.44	30433.99
601.59	30225.68
601.75	29764.59
601.91	30043.12
602.06	29935.45
602.22	30139.08
602.37	29977.58
602.53	30174.19
602.69	30085.25
602.84	29797.36
603.00	30080.56
603.16	30202.27
603.31	29860.55
603.47	30141.42
603.62	29907.37
603.78	29797.36
603.94	29680.33
604.09	29769.27
604.25	30015.03
604.40	29902.68
604.56	30045.46
604.71	30061.84
604.87	29900.34
605.03	30213.98
605.18	30141.42
605.34	30010.35
605.49	29963.54
605.65	29825.45
605.80	29692.04
605.96	29951.84
606.12	30000.99
606.27	30054.82
606.43	30052.48
606.58	29757.57
606.74	30305.26
606.89	29944.81
607.05	30118.01
607.20	30483.14
607.36	29759.91
607.51	29813.74
607.67	29951.84
607.82	29764.59
607.98	29509.47
608.13	30160.14
608.29	30171.85
608.44	29874.60
608.60	30211.64
608.75	29848.85
608.91	30342.70
609.06	29872.26
609.22	30146.10
609.37	29748.21
609.53	29614.80
609.68	29921.41
609.84	29717.78
609.99	29853.53
610.15	29933.11
610.30	29631.18
610.46	29640.54
610.61	29965.88
610.76	29869.92
610.92	29776.30
611.07	29837.15
611.23	29677.99
611.38	29441.60
611.54	29493.09
611.69	29385.43
611.84	29266.06
612.00	29462.66
612.15	29427.56
612.31	29614.80
612.46	29778.64
612.62	29364.36
612.77	29509.47
612.92	29738.85
613.08	29514.16
613.23	29427.56
613.39	29720.12
613.54	29364.36
613.69	29556.28
613.85	29326.91
614.00	29448.62
614.15	29593.73
614.31	29324.57
614.46	29542.24
614.62	29649.91
614.77	29495.43
614.92	29385.43
615.08	29106.90
615.23	29429.90
615.38	29296.49
615.54	29125.63
615.69	29390.11
615.84	28830.72
616.00	29677.99
616.15	28973.49
616.30	29841.83
616.46	29593.73
616.61	29539.90
616.76	29874.60
616.92	29460.32
617.07	29394.79
617.22	29144.35
617.37	29303.51
617.53	29392.45
617.68	29158.39
617.83	29324.57
617.99	28917.32
618.14	28793.27
618.29	29067.11
618.45	29235.63
618.60	28959.45
618.75	29212.23
618.90	29165.42
619.06	29078.82
619.21	29029.66
619.36	29385.43
619.51	28907.96
619.67	28594.32
619.82	28833.06
619.97	29039.03
620.12	28631.77
620.28	28643.48
620.43	28737.10
620.58	29406.49
620.73	28800.29
620.89	29102.22
621.04	28975.83
621.19	29305.85
621.34	28734.76
621.49	28755.82
621.65	28753.48
621.80	29170.10
621.95	28680.92
622.10	28807.31
622.25	28709.01
622.41	28694.97
622.56	28669.22
622.71	29074.13
622.86	28788.59
623.01	28868.17
623.16	28552.20
623.32	28437.51
623.47	28615.39
623.62	28575.60
623.77	28683.27
623.92	28568.58
624.07	28402.40
624.23	28783.91
624.38	28538.15
624.53	28489.00
624.68	28561.56
624.83	28779.23
624.98	28395.38
625.13	28456.23
625.29	28451.55
625.44	28278.35
625.59	28327.50
625.74	28374.31
625.89	28065.36
626.04	28360.27
626.19	28261.97
626.34	28315.80
626.49	28020.89
626.65	28065.36
626.80	28610.71
626.95	28226.86
627.10	28041.96
627.25	28215.16
627.40	28048.98
627.55	27931.95
627.70	27882.80
627.85	28016.21
628.00	28112.17
628.15	28107.49
628.30	28257.29
628.45	28081.75
628.60	27866.42
628.76	27828.97
628.91	28109.83
629.06	27754.07
629.21	27789.18
629.36	28065.36
629.51	27859.40
629.66	27913.23
629.81	27887.48
629.96	27988.13
630.11	27646.41
630.26	27569.17
630.41	27470.87
630.56	27388.95
630.71	28072.39
630.86	27749.39
631.01	27938.97
631.16	27976.42
631.31	27814.93
631.46	27632.36
631.61	27920.25
631.76	27440.44
631.91	27445.12
632.06	27463.85
632.21	27651.09
632.36	27721.30
632.51	27201.71
632.66	27826.63
632.81	27524.70
632.96	27449.80
633.10	27737.69
633.25	27632.36
633.40	27482.57
633.55	27782.16
633.70	27342.14
633.85	27260.22
634.00	27150.21
634.15	27194.68
634.30	27424.06
634.45	27218.09
634.60	26801.47
634.75	27391.29
634.90	27065.96
635.05	27374.91
635.19	27363.20
635.34	27491.93
635.49	27419.38
635.64	27110.43
635.79	27374.91
635.94	27054.25
636.09	27246.18
636.24	27058.93
636.39	26841.26
636.53	27201.71
636.68	26878.71
636.83	27089.36
636.98	27047.23
637.13	27253.20
637.28	27264.90
637.43	27138.51
637.57	26665.72
637.72	27108.08
637.87	26965.31
638.02	26909.14
638.17	26719.56
638.32	26747.64
638.46	26876.37
638.61	26658.70
638.76	26450.39
638.91	26661.04
639.06	26511.25
639.20	27091.70
639.35	27044.89
639.50	26766.37
639.65	27161.92
639.80	26960.63
639.94	26923.18
640.09	26824.88
640.24	26471.46
640.39	26644.66
640.54	26586.15
640.68	26302.94
640.83	26462.10
640.98	26436.35
641.13	26340.39
641.27	26740.62
641.42	26356.77
641.57	26742.96
641.72	26445.71
641.86	26370.82
642.01	26324.01
642.16	26160.17
642.31	26644.66
642.45	26256.13
642.60	25951.86
642.75	25848.88
642.90	26223.36
643.04	26199.96
643.19	26106.34
643.34	26600.19
643.48	26431.67
643.63	26438.69
643.78	26382.52
643.93	26199.96
644.07	26682.11
644.22	26096.97
644.37	26305.28
644.51	26197.62
644.66	26022.08
644.81	25926.11
644.95	26010.37
645.10	26267.83
645.25	25860.58
645.39	25984.63
645.54	26103.99
645.69	25846.54
645.83	26005.69
645.98	25989.31
646.13	26214.00
646.27	26139.10
646.42	25928.45
646.57	26204.64
646.71	25788.02
646.86	26288.90
647.00	25671.00
647.15	25944.84
647.30	25497.80
647.44	25802.07
647.59	25790.36
647.74	25699.08
647.88	25797.38
648.03	26204.64
648.17	25907.39
648.32	25731.85
648.47	25926.11
648.61	25862.92
648.76	25895.69
648.90	26209.32
649.05	25795.04
649.20	25781.00
649.34	25607.80
649.49	25401.83
649.63	25692.06
649.78	25291.83
649.92	25427.58
650.07	25474.39
650.21	25434.60
650.36	25296.51
650.51	25458.01
650.65	25488.43
650.80	25507.16
650.94	25654.61
651.09	25455.67
651.23	25259.06
651.38	25413.54
651.52	25418.22
651.67	25373.75
651.81	25654.61
651.96	25284.81
652.10	25043.73
652.25	25289.49
652.39	25598.44
652.54	25898.03
652.68	25432.26
652.83	25289.49
652.97	25745.89
653.12	25378.43
653.26	25003.94
653.41	25362.04
653.55	24854.15
653.70	25039.05
653.84	25106.93
653.99	24989.90
654.13	25263.74
654.27	25362.04
654.42	25420.56
654.56	25099.90
654.71	25186.50
654.85	25099.90
655.00	25474.39
655.14	24856.49
655.29	24947.77
655.43	25142.03
655.57	24753.51
655.72	24952.45
655.86	24727.76
656.01	25102.25
656.15	24907.98
656.30	24989.90
656.44	24912.66
656.58	24823.72
656.73	24716.06
656.87	24482.00
657.01	25160.76
657.16	24833.08
657.30	24994.58
657.45	24765.21
657.59	24727.76
657.73	24540.52
657.88	24503.07
658.02	24713.72
658.16	24346.25
658.31	24751.17
658.45	24388.38
658.60	24444.56
658.74	24336.89
658.88	24496.05
659.03	24325.19
659.17	24507.75
659.31	24194.12
659.46	24484.34
659.60	24711.38
659.74	24329.87
659.89	24517.11
660.03	24276.04
660.17	24208.16
660.32	24137.94
660.46	24273.70
660.60	24308.80
660.74	24121.56
660.89	24173.05
661.03	24088.79
661.17	24098.16
661.32	24128.58
661.46	24264.33
661.60	24037.30
661.74	24107.52
661.89	23903.89
662.03	23943.68
662.17	23922.62
662.31	23569.19
662.46	24254.97
662.60	23843.04
662.74	23690.90
662.88	23630.05
663.03	23208.75
663.17	23594.94
663.31	23281.31
663.45	23798.57
663.60	23531.75
663.74	23391.31
663.88	23515.36
664.02	23503.66
664.17	23721.33
664.31	23517.70
664.45	23468.55
664.59	23597.28
664.73	23606.64
664.88	23227.48
665.02	22885.76
665.16	23110.45
665.30	22895.12
665.44	23119.81
665.59	22946.61
665.73	23183.01
665.87	22986.40
666.01	23391.31
666.15	23255.56
666.29	23239.18
666.44	23019.17
666.58	22960.66
666.72	23473.23
666.86	22761.71
667.00	23197.05
667.14	22724.26
667.28	22548.72
667.43	22515.95
667.57	22448.08
667.71	22801.50
667.85	22480.85
667.99	22586.17
668.13	22696.17
668.27	22537.02
668.41	22450.42
668.56	22436.38
668.70	22614.26
668.84	22354.46
668.98	22654.05
669.12	22504.25
669.26	22499.57
669.40	22284.24
669.54	22235.09
669.68	22581.49
669.82	21895.71
669.96	21968.27
670.10	21785.71
670.25	21942.52
670.39	21781.03
670.53	21736.56
670.67	21741.24
670.81	21741.24
670.95	21930.82
671.09	22026.78
671.23	21907.41
671.37	21886.35
671.51	22071.25
671.65	22129.77
671.79	21649.96
671.93	21855.92
672.07	21954.22
672.21	21844.22
672.35	21598.46
672.49	21350.37
672.63	21202.91
672.77	21308.24
672.91	21205.25
673.05	21151.42
673.19	21268.45
673.33	21160.78
673.47	21125.68
673.61	21132.70
673.75	21184.19
673.89	21455.69
674.03	21207.59
674.17	20760.55
674.31	20971.20
674.45	20922.05
674.59	21298.88
674.73	20938.43
674.87	20732.47
675.01	20643.52
675.15	20886.94
675.29	20538.20
675.43	20369.68
675.56	20790.98
675.70	20458.62
675.84	20343.94
675.98	19878.17
676.12	20306.49
676.26	20690.34
676.40	20505.43
676.54	20381.38
676.68	20154.35
676.82	20025.62
676.96	20107.54
677.10	20056.05
677.23	20130.95
677.37	19824.34
677.51	19789.23
677.65	19590.28
677.79	19616.03
677.93	19433.47
678.07	19728.38
678.21	19440.49
678.34	19578.58
678.48	19435.81
678.62	19311.76
678.76	19506.02
678.90	19391.34
679.04	19054.30
679.18	19449.85
679.31	18860.04
679.45	18829.61
679.59	18848.33
679.73	18633.00
679.87	18508.96
680.00	18824.93
680.14	18541.72
680.28	18768.76
680.42	18738.33
680.56	18824.93
680.70	18565.13
680.83	18565.13
680.97	18537.04
681.11	18628.32
681.25	18349.80
681.39	18387.25
681.52	18506.62
681.66	18164.90
681.80	18167.24
681.94	17736.58
682.07	18090.00
682.21	18001.06
682.35	17619.55
682.49	17816.16
682.62	17614.87
682.76	17640.62
682.90	17776.37
683.04	17692.11
683.17	18057.23
683.31	17783.39
683.45	17858.29
683.59	17362.09
683.72	17652.32
683.86	17364.43
684.00	17415.93
684.13	17317.62
684.27	17305.92
684.41	17090.59
684.55	17081.23
684.68	16643.55
684.82	16681.00
684.96	16989.95
685.09	16751.21
685.23	17041.44
685.37	16872.92
685.50	16879.94
685.64	16758.24
685.78	16769.94
685.91	16856.54
686.05	16732.49
686.19	16617.80
686.32	16648.23
686.46	16372.05
686.60	16531.20
686.73	16273.74
686.87	16100.55
687.01	16198.85
687.14	15955.43
687.28	15915.64
687.42	15873.51
687.55	15971.82
687.69	15831.38
687.82	15770.53
687.96	15662.86
688.10	15726.06
688.23	15700.31
688.37	15644.14
688.50	15609.03
688.64	15681.59
688.78	15578.61
688.91	15655.84
689.05	15592.65
689.18	15431.15
689.32	15047.30
689.46	15515.41
689.59	15059.01
689.73	15131.56
689.86	14984.11
690.00	14815.59
690.13	15007.52
690.27	14810.91
690.41	15068.37
690.54	14583.88
690.68	14785.16
690.81	14881.13
690.95	14714.95
691.08	14813.25
691.22	14782.82
691.35	14480.89
691.49	14717.29
691.62	14352.16
691.76	14178.97
691.89	14417.70
692.03	14476.21
692.16	14080.66
692.30	13987.04
692.43	14108.75
692.57	14176.62
692.70	13998.74
692.84	13734.26
692.97	13947.25
693.11	13877.04
693.24	13830.23
693.38	13839.59
693.51	13825.54
693.65	13923.85
693.78	13474.46
693.92	13741.29
694.05	13305.95
694.19	13474.46
694.32	13738.94
694.45	13577.45
694.59	13200.62
694.72	13376.16
694.86	13029.76
694.99	12858.90
695.13	13071.89
695.26	13071.89
695.39	12863.58
695.53	13053.17
695.66	13067.21
695.80	12765.28
695.93	12837.84
696.07	12795.71
696.20	12809.75
696.33	12765.28
696.47	12683.36
696.60	12517.18
696.73	12727.83
696.87	12559.31
697.00	12535.91
697.14	12229.30
697.27	12264.41
697.40	12224.62
697.54	12299.52
697.67	12283.13
697.80	12100.57
697.94	12011.63
698.07	11873.54
698.21	11775.24
698.34	12100.57
698.47	11901.62
698.61	11871.20
698.74	11941.41
698.87	11693.32
699.01	11899.28
699.14	11616.08
699.27	11545.86
699.40	11709.70
699.54	11543.52
699.67	11372.66
699.80	11274.36
699.94	11396.07
700.07	11243.93
700.20	11143.29
700.34	11054.35
700.47	11194.78
700.60	11040.31
700.73	11229.89
700.87	10906.90
701.00	10789.87
701.13	10848.38
701.26	10747.74
701.40	10927.96
701.53	10885.83
701.66	10986.47
701.79	10658.80
701.93	10593.26
702.06	10640.08
702.19	10469.22
702.32	10478.58
702.46	10541.77
702.59	10331.12
702.72	10284.31
702.85	10485.60
702.99	10389.64
703.12	10150.90
703.25	9881.74
703.38	10317.08
703.51	10106.43
703.65	9991.75
703.78	10001.11
703.91	10076.01
704.04	10125.16
704.17	10054.94
704.31	9774.08
704.44	9858.34
704.57	9844.29
704.70	9554.07
704.83	9507.26
704.96	9657.05
705.10	9741.31
705.23	9371.50
>>>>>End Processed Spectral Data<<<<<
