SpectraSuite Data File
++++++++++++++++++++++++++++++++++++
Date: Fri Oct 18 13:58:25 GMT-05:00 2013
User: bianchi
Dark Spectrum Present: No
Reference Spectrum Present: No
Number of Sampled Component Spectra: 1
Spectrometers: USB2+H05261
Integration Time (usec): 50000 (USB2+H05261)
Spectra Averaged: 1 (USB2+H05261)
Boxcar Smoothing: 0 (USB2+H05261)
Correct for Electrical Dark: No (USB2+H05261)
Strobe/Lamp Enabled: No (USB2+H05261)
Correct for Detector Non-linearity: No (USB2+H05261)
Correct for Stray Light: No (USB2+H05261)
Number of Pixels in Processed Spectrum: 2048
>>>>>Begin Processed Spectral Data<<<<<
365.73	0.00
365.92	0.00
366.12	0.00
366.32	0.00
366.52	0.00
366.72	0.00
366.91	0.00
367.11	0.00
367.31	0.00
367.51	0.00
367.70	0.00
367.90	0.00
368.10	0.00
368.30	0.00
368.49	0.00
368.69	0.00
368.89	0.00
369.09	0.00
369.28	0.00
369.48	0.00
369.68	0.00
369.87	0.00
370.07	0.00
370.27	0.00
370.47	0.00
370.66	77.24
370.86	102.98
371.06	135.75
371.25	152.13
371.45	119.37
371.65	156.82
371.84	46.81
372.04	107.66
372.24	140.43
372.44	264.48
372.63	276.18
372.83	208.31
373.03	170.86
373.22	163.84
373.42	161.50
373.62	128.73
373.81	220.01
374.01	220.01
374.21	184.90
374.40	215.33
374.60	224.69
374.79	262.14
374.99	187.24
375.19	255.12
375.38	191.92
375.58	184.90
375.78	304.27
375.97	215.33
376.17	243.42
376.37	252.78
376.56	266.82
376.76	266.82
376.95	220.01
377.15	290.23
377.35	273.84
377.54	269.16
377.74	276.18
377.93	311.29
378.13	285.55
378.33	294.91
378.52	301.93
378.72	145.11
378.91	196.60
379.11	255.12
379.31	269.16
379.50	346.40
379.70	236.39
379.89	285.55
380.09	266.82
380.28	348.74
380.48	290.23
380.68	330.02
380.87	224.69
381.07	280.86
381.26	287.89
381.46	411.93
381.65	330.02
381.85	320.65
382.04	360.44
382.24	367.46
382.43	369.80
382.63	266.82
382.83	348.74
383.02	299.59
383.22	315.97
383.41	292.57
383.61	304.27
383.80	351.08
384.00	421.30
384.19	428.32
384.39	320.65
384.58	365.12
384.78	327.68
384.97	351.08
385.17	339.38
385.36	337.04
385.56	416.62
385.75	383.85
385.95	433.00
386.14	447.04
386.34	409.59
386.53	395.55
386.72	379.17
386.92	411.93
387.11	468.11
387.31	437.68
387.50	421.30
387.70	437.68
387.89	358.10
388.09	395.55
388.28	365.12
388.48	383.85
388.67	423.64
388.86	388.53
389.06	418.96
389.25	470.45
389.45	430.66
389.64	456.40
389.84	400.23
390.03	458.74
390.22	442.36
390.42	472.79
390.61	395.55
390.81	454.06
391.00	500.87
391.19	468.11
391.39	470.45
391.58	578.11
391.78	458.74
391.97	545.34
392.16	528.96
392.36	557.05
392.55	461.09
392.75	517.26
392.94	566.41
393.13	535.98
393.33	578.11
393.52	561.73
393.71	613.22
393.91	566.41
394.10	528.96
394.29	695.14
394.49	613.22
394.68	648.33
394.88	631.94
395.07	456.40
395.26	631.94
395.46	540.66
395.65	681.10
395.84	592.16
396.04	622.58
396.23	650.67
396.42	634.29
396.62	627.26
396.81	550.03
397.00	657.69
397.19	695.14
397.39	613.22
397.58	678.76
397.77	545.34
397.97	634.29
398.16	664.71
398.35	685.78
398.55	697.48
398.74	718.54
398.93	746.63
399.12	748.97
399.32	753.65
399.51	690.46
399.70	746.63
399.90	774.72
400.09	791.10
400.28	746.63
400.47	753.65
400.67	774.72
400.86	781.74
401.05	788.76
401.24	767.70
401.44	819.19
401.63	819.19
401.82	866.00
402.01	741.95
402.21	772.38
402.40	821.53
402.59	875.36
402.78	819.19
402.97	891.74
403.17	903.45
403.36	870.68
403.55	809.83
403.74	947.92
403.93	912.81
404.13	868.34
404.32	966.64
404.51	943.24
404.70	873.02
404.89	929.19
405.09	896.43
405.28	933.87
405.47	915.15
405.66	971.32
405.85	1043.88
406.05	952.60
406.24	959.62
406.43	1004.09
406.62	1046.22
406.81	999.41
407.00	1011.11
407.20	1001.75
407.39	1041.54
407.58	1050.90
407.77	1076.65
407.96	1069.62
408.15	1149.20
408.34	1036.86
408.54	1057.92
408.73	1069.62
408.92	1144.52
409.11	1095.37
409.30	1067.28
409.49	1069.62
409.68	1158.57
409.87	1048.56
410.07	1158.57
410.26	1186.65
410.45	1170.27
410.64	1151.54
410.83	1205.38
411.02	1167.93
411.21	1306.02
411.40	1179.63
411.59	1308.36
411.78	1233.46
411.98	1324.74
412.17	1373.89
412.36	1324.74
412.55	1287.29
412.74	1385.60
412.93	1371.55
413.12	1252.19
413.31	1369.21
413.50	1497.94
413.69	1334.11
413.88	1380.92
414.07	1448.79
414.26	1427.73
414.45	1434.75
414.64	1469.86
414.83	1404.32
415.02	1540.07
415.22	1500.28
415.41	1535.39
415.60	1638.38
415.79	1565.82
415.98	1579.86
416.17	1446.45
416.36	1504.96
416.55	1540.07
416.74	1598.59
416.93	1586.88
417.12	1736.68
417.31	1610.29
417.50	1694.55
417.69	1680.50
417.88	1764.76
418.07	1753.06
418.26	1701.57
418.45	1739.02
418.64	1823.28
418.83	1732.00
419.02	1748.38
419.21	1792.85
419.39	1785.83
419.58	1853.70
419.77	1842.00
419.96	1795.19
420.15	1891.15
420.34	1804.55
420.53	1816.26
420.72	1907.54
420.91	1788.17
421.10	1867.75
421.29	1886.47
421.48	1914.56
421.67	1921.58
421.86	1970.73
422.05	2024.56
422.24	1968.39
422.43	2010.52
422.61	1987.11
422.80	1982.43
422.99	2050.31
423.18	2036.27
423.37	1921.58
423.56	2001.16
423.75	2022.22
423.94	1928.60
424.13	1865.41
424.32	1874.77
424.50	1963.71
424.69	2008.18
424.88	2183.72
425.07	2017.54
425.26	2087.76
425.45	2099.46
425.64	1959.03
425.83	2148.61
426.01	2146.27
426.20	2090.10
426.39	2062.01
426.58	2024.56
426.77	2181.38
426.96	2122.87
427.15	2101.80
427.33	2174.36
427.52	2017.54
427.71	2136.91
427.90	2153.29
428.09	2054.99
428.28	2132.23
428.46	2094.78
428.65	2120.53
428.84	2307.77
429.03	2232.87
429.22	2115.84
429.40	2300.75
429.59	2207.13
429.78	2139.25
429.97	2143.93
430.16	2211.81
430.34	2134.57
430.53	2377.98
430.72	2256.28
430.91	2356.92
431.10	2162.66
431.28	2251.60
431.47	2443.52
431.66	2471.61
431.85	2387.35
432.03	2382.67
432.22	2427.14
432.41	2438.84
432.60	2455.22
432.79	2476.29
432.97	2502.03
433.16	2462.24
433.35	2394.37
433.54	2457.56
433.72	2607.36
433.91	2534.80
434.10	2457.56
434.28	2579.27
434.47	2506.71
434.66	2616.72
434.85	2574.59
435.03	2537.14
435.22	2635.44
435.41	2801.62
435.59	2555.86
435.78	2495.01
435.97	2665.87
436.16	2572.25
436.34	2663.53
436.53	2684.59
436.72	2689.28
436.90	2738.43
437.09	2766.51
437.28	2724.38
437.46	2855.45
437.65	2722.04
437.84	2675.23
438.02	2825.03
438.21	2635.44
438.40	2738.43
438.58	2841.41
438.77	2782.90
438.96	2878.86
439.14	2953.76
439.33	2892.90
439.52	2864.82
439.70	2897.58
439.89	2965.46
440.08	3014.61
440.26	3117.59
440.45	3028.65
440.63	3098.87
440.82	3126.96
441.01	3136.32
441.19	3155.04
441.38	3159.72
441.57	3190.15
441.75	3138.66
441.94	3248.66
442.12	3183.13
442.31	3389.10
442.50	3337.60
442.68	3236.96
442.87	3272.07
443.05	3260.37
443.24	3283.77
443.43	3361.01
443.61	3361.01
443.80	3445.27
443.98	3346.97
444.17	3218.24
444.35	3377.39
444.54	3426.54
444.73	3391.44
444.91	3541.23
445.10	3335.26
445.28	3351.65
445.47	3508.46
445.65	3386.76
445.84	3494.42
446.02	3503.78
446.21	3445.27
446.39	3499.10
446.58	3543.57
446.77	3440.59
446.95	3468.67
447.14	3503.78
447.32	3447.61
447.51	3468.67
447.69	3492.08
447.88	3721.45
448.06	3424.20
448.25	3419.52
448.43	3592.72
448.62	3494.42
448.80	3459.31
448.99	3618.47
449.17	3660.60
449.36	3461.65
449.54	3623.15
449.73	3754.22
449.91	3686.34
450.10	3754.22
450.28	3639.53
450.46	3688.68
450.65	3613.79
450.83	3747.20
451.02	3674.64
451.20	3749.54
451.39	3906.35
451.57	3808.05
451.76	3707.41
451.94	3723.79
452.13	3934.44
452.31	3852.52
452.49	3726.13
452.68	3922.74
452.86	3885.29
453.05	3845.50
453.23	3983.59
453.42	3894.65
453.60	3770.60
453.78	3791.67
453.97	3911.04
454.15	3812.73
454.34	3901.67
454.52	4077.21
454.70	3901.67
454.89	3922.74
455.07	4016.36
455.26	3960.19
455.44	4128.70
455.62	4025.72
455.81	4098.28
455.99	4177.86
456.17	4102.96
456.36	4184.88
456.54	4222.33
456.73	4322.97
456.91	4367.44
457.09	4264.46
457.28	4306.59
457.46	4395.53
457.64	4395.53
457.83	4208.28
458.01	4402.55
458.19	4470.42
458.38	4372.12
458.56	4351.06
458.74	4432.97
458.93	4374.46
459.11	4477.44
459.29	4400.21
459.48	4498.51
459.66	4432.97
459.84	4489.15
460.03	4442.34
460.21	4461.06
460.39	4374.46
460.57	4496.17
460.76	4514.89
460.94	4652.98
461.12	4507.87
461.31	4706.82
461.49	4554.68
461.67	4660.01
461.85	4791.08
462.04	4648.30
462.22	4706.82
462.40	4755.97
462.59	4615.54
462.77	4711.50
462.95	4805.12
463.13	4739.58
463.32	4781.71
463.50	4882.36
463.68	4887.04
463.86	4732.56
464.05	4798.10
464.23	4828.53
464.41	4863.63
464.59	4753.63
464.78	5001.72
464.96	5004.07
465.14	4849.59
465.32	4952.57
465.50	4933.85
465.69	4891.72
465.87	4971.30
466.05	4980.66
466.23	5067.26
466.41	5172.58
466.60	5151.52
466.78	4966.62
466.96	4835.55
467.14	5085.98
467.32	5036.83
467.51	5212.37
467.69	5062.58
467.87	5214.71
468.05	5125.77
468.23	5053.22
468.41	5081.30
468.60	5104.71
468.78	5153.86
468.96	5060.24
469.14	5214.71
469.32	5203.01
469.50	5132.79
469.69	5315.36
469.87	5380.89
470.05	5357.49
470.23	5228.76
470.41	5252.16
470.59	5413.66
470.77	5329.40
470.95	5465.15
471.14	5621.97
471.32	5390.25
471.50	5659.42
471.68	5584.52
471.86	5748.36
472.04	5518.98
472.22	5818.57
472.40	5703.89
472.58	5809.21
472.77	5830.27
472.95	5844.32
473.13	6050.28
473.31	5713.25
473.49	5778.78
473.67	5743.67
473.85	5795.17
474.03	5734.31
474.21	5905.17
474.39	6087.73
474.57	6005.81
474.75	6150.93
474.93	6134.54
475.12	6207.10
475.30	6071.35
475.48	6148.59
475.66	6181.35
475.84	6253.91
476.02	6429.45
476.20	6246.89
476.38	6305.40
476.56	6389.66
476.74	6588.61
476.92	6541.80
477.10	6436.47
477.28	6743.08
477.46	6614.35
477.64	6757.13
477.82	6785.21
478.00	6778.19
478.18	6817.98
478.36	6981.82
478.54	6988.84
478.72	7068.42
478.90	7094.16
479.08	7101.19
479.26	7225.23
479.44	7328.22
479.62	7412.48
479.80	7475.67
479.98	7293.11
480.16	7597.38
480.34	7630.15
480.52	7562.27
480.70	7611.42
480.88	7522.48
481.06	7824.41
481.24	7864.20
481.41	7810.37
481.59	7782.28
481.77	8002.29
481.95	8009.31
482.13	8131.02
482.31	8065.49
482.49	8215.28
482.67	8215.28
482.85	8131.02
483.03	8437.63
483.21	8685.73
483.39	8613.17
483.57	8613.17
483.74	8716.16
483.92	8678.71
484.10	8524.23
484.28	8711.47
484.46	8891.70
484.64	9247.46
484.82	8978.30
485.00	9109.36
485.18	9224.05
485.35	9287.25
485.53	9348.10
485.71	9540.02
485.89	9617.26
486.07	9430.02
486.25	9614.92
486.43	9446.40
486.61	9696.84
486.78	9919.19
486.96	9888.76
487.14	9902.81
487.32	10019.83
487.50	9998.77
487.68	10225.80
487.85	10155.58
488.03	10279.63
488.21	10553.48
488.39	10431.77
488.57	10499.64
488.75	10675.18
488.92	10530.07
489.10	10970.09
489.28	10878.81
489.46	11049.67
489.64	10993.50
489.81	11428.84
489.99	11358.62
490.17	11194.78
490.35	11803.32
490.53	11494.37
490.70	11487.35
490.88	11531.82
491.06	11875.88
491.24	11501.39
491.41	11698.00
491.59	11974.18
491.77	11929.71
491.95	12142.70
492.13	12051.42
492.30	12142.70
492.48	12189.51
492.66	12320.58
492.84	12168.45
493.01	12634.21
493.19	12620.17
493.37	12627.19
493.54	12800.39
493.72	12629.53
493.90	12833.16
494.08	12868.27
494.25	12978.27
494.43	13163.17
494.61	13273.18
494.79	13085.94
494.96	13219.35
495.14	13217.01
495.32	13256.79
495.49	13467.44
495.67	13652.34
495.85	13909.80
496.02	13872.36
496.20	13846.61
496.38	13853.63
496.55	13879.38
496.73	14099.39
496.91	14066.62
497.09	14176.62
497.26	14382.59
497.44	14443.45
497.62	14216.41
497.79	14476.21
497.97	14534.73
498.14	14513.66
498.32	14981.77
498.50	14714.95
498.67	14937.30
498.85	14801.55
499.03	14904.53
499.20	14750.06
499.38	15208.80
499.56	14944.32
499.73	15208.80
499.91	15234.55
500.08	15529.45
500.26	15197.10
500.44	15143.27
500.61	15382.00
500.79	15391.36
500.97	15585.63
501.14	15800.96
501.32	15831.38
501.49	15810.32
501.67	15768.19
501.84	15765.85
502.02	15719.04
502.20	16046.71
502.37	16112.25
502.55	16056.08
502.72	16112.25
502.90	15939.05
503.07	16013.95
503.25	16177.78
503.43	16259.70
503.60	16365.03
503.78	16767.60
503.95	16641.21
504.13	16620.14
504.30	16395.45
504.48	16315.87
504.65	16788.66
504.83	16791.00
505.01	16781.64
505.18	16718.45
505.36	16938.46
505.53	17216.98
505.71	16650.57
505.88	17060.16
506.06	17146.76
506.23	16987.61
506.41	17446.35
506.58	17467.42
506.76	17474.44
506.93	17338.69
507.11	17202.94
507.28	17664.02
507.46	17675.73
507.63	17610.19
507.81	17685.09
507.98	17647.64
508.16	17781.05
508.33	17675.73
508.50	17673.39
508.68	18104.04
508.85	17884.03
509.03	17685.09
509.20	18040.85
509.38	18286.61
509.55	18354.48
509.73	18361.50
509.90	18082.98
510.08	18394.27
510.25	18345.12
510.42	18412.99
510.60	18939.62
510.77	18637.69
510.95	18843.65
511.12	18614.28
511.30	18235.11
511.47	18902.17
511.64	18817.91
511.82	18970.04
511.99	18735.99
512.17	18953.66
512.34	18867.06
512.51	18892.80
512.69	18984.09
512.86	18941.96
513.04	19201.76
513.21	19513.05
513.38	19234.52
513.56	19346.87
513.73	19374.95
513.90	19489.64
514.08	19601.99
514.25	19587.94
514.43	19590.28
514.60	19817.32
514.77	19669.86
514.95	19878.17
515.12	19859.45
515.29	19585.60
515.47	19953.07
515.64	19955.41
515.81	20163.72
515.99	20299.47
516.16	20137.97
516.33	20173.08
516.51	20503.09
516.68	20212.87
516.85	20051.37
517.03	20357.98
517.20	20453.94
517.37	20255.00
517.54	20540.54
517.72	20339.26
517.89	20748.85
518.06	20278.40
518.24	20423.51
518.41	20603.74
518.58	20648.21
518.75	20915.03
518.93	20840.13
519.10	20634.16
519.27	21123.33
519.45	21078.86
519.62	20704.38
519.79	21214.62
519.96	20865.88
520.14	21200.57
520.31	20940.77
520.48	20910.35
520.65	21174.83
520.83	20800.34
521.00	21221.64
521.17	21223.98
521.34	21202.91
521.52	21497.82
521.69	21596.12
521.86	21858.26
522.03	21799.75
522.20	21696.77
522.38	21919.12
522.55	21439.31
522.72	21460.37
522.89	21914.44
523.07	21982.31
523.24	21647.61
523.41	22181.26
523.58	21991.67
523.75	21968.27
523.92	21900.39
524.10	22298.28
524.27	22183.60
524.44	21933.16
524.61	22111.04
524.78	22780.43
524.96	22522.98
525.13	22092.32
525.30	22059.55
525.47	22663.41
525.64	22480.85
525.81	22492.55
525.98	22455.10
526.16	22452.76
526.33	22452.76
526.50	22881.08
526.67	22546.38
526.84	22618.94
527.01	22841.29
527.18	22869.37
527.36	22689.15
527.53	22831.93
527.70	23131.51
527.87	23037.89
528.04	23058.96
528.21	22967.68
528.38	22862.35
528.55	23236.84
528.72	23126.83
528.89	23065.98
529.07	23503.66
529.24	23454.51
529.41	23246.20
529.58	23213.43
529.75	23311.74
529.92	23042.57
530.09	23501.32
530.26	23473.23
530.43	23644.09
530.60	23693.24
530.77	23601.96
530.94	23681.54
531.11	23281.31
531.28	23608.98
531.46	23726.01
531.63	23714.31
531.80	23857.08
531.97	24278.38
532.14	23737.71
532.31	23658.14
532.48	23894.53
532.65	24053.69
532.82	24109.86
532.99	23843.04
533.16	23721.33
533.33	24065.39
533.50	24189.44
533.67	24163.69
533.84	24053.69
534.01	23850.06
534.18	23946.02
534.35	24231.57
534.52	24240.93
534.69	24643.50
534.86	24706.70
535.03	24156.67
535.20	24762.87
535.37	24746.48
535.54	24304.12
535.71	24573.28
535.88	24615.41
536.05	24788.61
536.22	24837.76
536.38	24982.88
536.55	24702.01
536.72	24826.06
536.89	24776.91
537.06	24758.19
537.23	24758.19
537.40	24903.30
537.57	25137.35
537.74	25090.54
537.91	25357.36
538.08	25333.96
538.25	24753.51
538.42	24978.20
538.59	24959.47
538.75	25085.86
538.92	25099.90
539.09	25450.99
539.26	25242.68
539.43	25277.79
539.60	25607.80
539.77	25401.83
539.94	25591.42
540.11	25160.76
540.28	25514.18
540.44	25429.92
540.61	25418.22
540.78	25315.23
540.95	25425.24
541.12	25301.19
541.29	25694.40
541.46	25689.72
541.62	25928.45
541.79	25656.95
541.96	25158.42
542.13	25362.04
542.30	25575.03
542.47	26024.42
542.63	25986.97
542.80	25603.12
542.97	25989.31
543.14	26108.68
543.31	25977.61
543.48	26508.91
543.64	26181.23
543.81	26356.77
543.98	26464.44
544.15	26253.79
544.32	26356.77
544.48	26476.14
544.65	26246.77
544.82	26501.89
544.99	26340.39
545.16	26132.08
545.32	26565.08
545.49	26522.95
545.66	26630.62
545.83	26647.00
546.00	26419.97
546.16	26405.92
546.33	26441.03
546.50	26455.08
546.67	26483.16
546.83	26347.41
547.00	26675.09
547.17	26836.58
547.34	26546.36
547.50	26885.73
547.67	26867.01
547.84	26618.91
548.00	26874.03
548.17	26946.59
548.34	27089.36
548.51	27248.52
548.67	26752.32
548.84	27225.11
549.01	26939.57
549.18	27185.32
549.34	27023.83
549.51	26881.05
549.68	27072.98
549.84	27098.72
550.01	27021.48
550.18	26897.44
550.34	27264.90
550.51	27311.71
550.68	27182.98
550.84	27372.57
551.01	27459.16
551.18	27431.08
551.34	27328.10
551.51	27204.05
551.68	27594.92
551.84	27590.24
552.01	27814.93
552.18	27644.07
552.34	27187.66
552.51	27414.69
552.68	27527.04
552.84	27037.87
553.01	27311.71
553.18	27910.89
553.34	27803.22
553.51	27828.97
553.67	27747.05
553.84	27721.30
554.01	27903.87
554.17	27400.65
554.34	27948.34
554.51	27789.18
554.67	27894.50
554.84	27679.18
555.00	27803.22
555.17	28121.54
555.33	28056.00
555.50	27971.74
555.67	28208.14
555.83	27892.16
556.00	27990.47
556.16	28034.94
556.33	27948.34
556.50	28383.68
556.66	28067.70
556.83	27985.79
556.99	28346.23
557.16	28339.21
557.32	28332.18
557.49	28594.32
557.65	28184.73
557.82	28158.99
557.98	28229.20
558.15	28285.37
558.32	28411.76
558.48	28233.88
558.65	28568.58
558.81	28453.89
558.98	28507.72
559.14	28409.42
559.31	28243.24
559.47	28648.16
559.64	28591.98
559.80	28872.85
559.97	28694.97
560.13	28706.67
560.30	28589.64
560.46	28528.79
560.63	28402.40
560.79	28746.46
560.96	28622.41
561.12	28945.41
561.29	28631.77
561.45	28526.45
561.61	28690.29
561.78	28561.56
561.94	28891.57
562.11	28830.72
562.27	28687.95
562.44	28893.91
562.60	28793.27
562.77	28545.17
562.93	28821.36
563.10	28872.85
563.26	28842.42
563.42	29160.73
563.59	28664.54
563.75	28526.45
563.92	29027.32
564.08	28706.67
564.24	28758.16
564.41	28624.75
564.57	28734.76
564.74	28624.75
564.90	28765.18
565.07	29198.18
565.23	29109.24
565.39	29017.96
565.56	29053.07
565.72	28844.76
565.88	28690.29
566.05	28758.16
566.21	28929.02
566.38	28643.48
566.54	29043.71
566.70	29134.99
566.87	29305.85
567.03	28917.32
567.19	29394.79
567.36	29165.42
567.52	29165.42
567.68	29071.79
567.85	29024.98
568.01	29062.43
568.17	29511.81
568.34	28851.78
568.50	29434.58
568.66	29036.69
568.83	29509.47
568.99	29013.28
569.15	29256.70
569.32	29340.96
569.48	29057.75
569.64	29165.42
569.81	29371.38
569.97	29460.32
570.13	29104.56
570.30	29439.26
570.46	29322.23
570.62	29181.80
570.78	29067.11
570.95	28936.04
571.11	29062.43
571.27	28907.96
571.43	28875.19
571.60	29134.99
571.76	29139.67
571.92	29383.09
572.09	29209.89
572.25	29425.22
572.41	29242.65
572.57	29633.52
572.74	29544.58
572.90	29006.26
573.06	29268.40
573.22	29507.13
573.38	29226.27
573.55	29502.45
573.71	29617.14
573.87	29434.58
574.03	29685.01
574.20	29462.66
574.36	29287.12
574.52	29284.78
574.68	29546.92
574.84	29514.16
575.01	29436.92
575.17	29696.72
575.33	29610.12
575.49	29696.72
575.65	29457.98
575.82	29696.72
575.98	29586.71
576.14	29757.57
576.30	29326.91
576.46	29308.19
576.62	29289.46
576.79	29710.76
576.95	29385.43
577.11	29820.77
577.27	29914.39
577.43	29607.78
577.59	29268.40
577.75	29542.24
577.92	29486.07
578.08	29312.87
578.24	29415.85
578.40	29677.99
578.56	29504.79
578.72	29916.73
578.88	29996.31
579.04	29881.62
579.21	29415.85
579.37	29640.54
579.53	29556.28
579.69	29645.23
579.85	29820.77
580.01	29610.12
580.17	29291.80
580.33	29577.35
580.49	29256.70
580.65	29589.05
580.82	29673.31
580.98	29596.07
581.14	29736.51
581.30	29628.84
581.46	29804.38
581.62	29352.66
581.78	29326.91
581.94	29741.19
582.10	29383.09
582.26	29397.13
582.42	29862.90
582.58	29748.21
582.74	29628.84
582.90	29883.96
583.06	29603.10
583.22	29373.72
583.38	29661.61
583.54	29598.41
583.70	29582.03
583.86	29750.55
584.02	29645.23
584.18	30022.05
584.34	29928.43
584.50	29593.73
584.66	29970.56
584.82	29324.57
584.98	29703.74
585.14	29612.46
585.30	29479.05
585.46	29558.63
585.62	29441.60
585.78	29383.09
585.94	29853.53
586.10	29518.84
586.26	29771.61
586.42	30272.49
586.58	29558.63
586.74	29563.31
586.90	29668.63
587.06	29455.64
587.22	29907.37
587.38	29799.70
587.54	29975.24
587.70	29874.60
587.86	30197.59
588.02	30188.23
588.18	30101.63
588.34	29839.49
588.49	29621.82
588.65	29867.58
588.81	29933.11
588.97	29710.76
589.13	29741.19
589.29	29823.11
589.45	30314.62
589.61	30017.37
589.77	30302.92
589.93	30061.84
590.08	29837.15
590.24	30455.05
590.40	29944.81
590.56	30267.81
590.72	30015.03
590.88	29963.54
591.04	30033.75
591.20	30213.98
591.35	29851.19
591.51	30485.48
591.67	30499.52
591.83	30616.55
591.99	30359.09
592.15	30267.81
592.31	30178.87
592.46	30101.63
592.62	29893.32
592.78	30003.33
592.94	29926.09
593.10	30143.76
593.26	30277.17
593.41	30176.53
593.57	30274.83
593.73	30504.20
593.89	30146.10
594.05	30232.70
594.20	30286.53
594.36	30401.22
594.52	30260.79
594.68	29979.92
594.84	29937.79
594.99	30167.16
595.15	30155.46
595.31	30326.32
595.47	30096.95
595.62	30426.96
595.78	30141.42
595.94	30281.85
596.10	30433.99
596.25	29923.75
596.41	30279.51
596.57	29998.65
596.73	30068.86
596.88	30298.23
597.04	30375.47
597.20	30689.10
597.36	30801.45
597.51	30513.56
597.67	30263.13
597.83	30417.60
597.99	30059.50
598.14	30031.41
598.30	30246.74
598.46	30316.96
598.61	30309.94
598.77	30057.16
598.93	30698.47
599.09	30443.35
599.24	30864.64
599.40	30462.07
599.56	30312.28
599.71	30506.54
599.87	30260.79
600.03	30436.33
600.18	30213.98
600.34	30225.68
600.50	30258.45
600.65	30298.23
600.81	30476.12
600.97	30284.19
601.12	30609.53
601.28	31075.29
601.44	30312.28
601.59	30522.93
601.75	30094.61
601.91	30384.83
602.06	30424.62
602.22	30375.47
602.37	29942.47
602.53	30321.64
602.69	30349.73
602.84	30206.95
603.00	30476.12
603.16	30235.04
603.31	30139.08
603.47	30441.01
603.62	29738.85
603.78	30654.00
603.94	30228.02
604.09	29923.75
604.25	30092.27
604.40	29832.47
604.56	30029.07
604.71	30455.05
604.87	30539.31
605.03	30389.52
605.18	30445.69
605.34	30274.83
605.49	29785.66
605.65	30485.48
605.80	29834.81
605.96	29947.15
606.12	30022.05
606.27	30141.42
606.43	30192.91
606.58	30354.41
606.74	30251.42
606.89	30040.78
607.05	30321.64
607.20	30199.93
607.36	30436.33
607.51	30253.76
607.67	30377.81
607.82	30064.18
607.98	30188.23
608.13	29731.83
608.29	30160.14
608.44	30422.28
608.60	30113.33
608.75	30419.94
608.91	30082.91
609.06	30061.84
609.22	30094.61
609.37	29860.55
609.53	29982.26
609.68	30174.19
609.84	29867.58
609.99	29813.74
610.15	29996.31
610.30	30078.22
610.46	30000.99
610.61	30174.19
610.76	30029.07
610.92	30312.28
611.07	30148.44
611.23	29776.30
611.38	29511.81
611.54	29811.40
611.69	29649.91
611.84	29780.98
612.00	29699.06
612.15	29862.90
612.31	30349.73
612.46	29876.94
612.62	30178.87
612.77	29734.17
612.92	29862.90
613.08	29792.68
613.23	29605.44
613.39	29652.25
613.54	29401.81
613.69	29916.73
613.85	29270.74
614.00	29603.10
614.15	29696.72
614.31	29825.45
614.46	29893.32
614.62	29511.81
614.77	29762.25
614.92	29909.71
615.08	29399.47
615.23	29851.19
615.38	29839.49
615.54	29462.66
615.69	29706.08
615.84	29230.95
616.00	29549.26
616.15	29247.33
616.30	29441.60
616.46	29582.03
616.61	29593.73
616.76	29710.76
616.92	29371.38
617.07	29390.11
617.22	29254.36
617.37	29006.26
617.53	29743.53
617.68	29502.45
617.83	29462.66
617.99	29603.10
618.14	29352.66
618.29	29404.15
618.45	29240.31
618.60	28912.64
618.75	29296.49
618.90	28936.04
619.06	29331.59
619.21	29088.18
619.36	29163.08
619.51	29205.20
619.67	29130.31
619.82	28514.75
619.97	28779.23
620.12	29003.92
620.28	29263.72
620.43	29383.09
620.58	29001.58
620.73	29219.25
620.89	29481.39
621.04	29305.85
621.19	28971.15
621.34	28575.60
621.49	28856.46
621.65	28840.08
621.80	29392.45
621.95	28650.50
622.10	29179.46
622.25	28720.71
622.41	28655.18
622.56	28929.02
622.71	29432.24
622.86	28863.49
623.01	28926.68
623.16	28680.92
623.32	28652.84
623.47	28587.30
623.62	28730.08
623.77	28854.12
623.92	28828.38
624.07	28556.88
624.23	28545.17
624.38	28613.05
624.53	28510.07
624.68	28776.89
624.83	28912.64
624.98	29116.26
625.13	28650.50
625.29	28811.99
625.44	28456.23
625.59	28371.97
625.74	28348.57
625.89	28346.23
626.04	28163.67
626.19	28278.35
626.34	28334.53
626.49	28409.42
626.65	28276.01
626.80	28496.02
626.95	28758.16
627.10	28350.91
627.25	28276.01
627.40	28449.21
627.55	28128.56
627.70	28173.03
627.85	28390.70
628.00	28173.03
628.15	28329.84
628.30	28048.98
628.45	27948.34
628.60	28002.17
628.76	28137.92
628.91	28594.32
629.06	28053.66
629.21	28009.19
629.36	27850.03
629.51	27864.08
629.66	28205.80
629.81	27882.80
629.96	27938.97
630.11	27922.59
630.26	27934.29
630.41	27618.32
630.56	27892.16
630.71	27838.33
630.86	28025.57
631.01	27873.44
631.16	28027.92
631.31	27941.32
631.46	27693.22
631.61	28180.05
631.76	27782.16
631.91	27630.02
632.06	27292.99
632.21	27433.42
632.36	27976.42
632.51	27456.82
632.66	27683.86
632.81	27564.49
632.96	27489.59
633.10	27456.82
633.25	27637.05
633.40	27938.97
633.55	28053.66
633.70	27527.04
633.85	27311.71
634.00	27531.72
634.15	27246.18
634.30	27688.54
634.45	27288.31
634.60	27447.46
634.75	27679.18
634.90	27786.84
635.05	27716.62
635.19	27730.67
635.34	27531.72
635.49	27513.00
635.64	27590.24
635.79	27358.52
635.94	27875.78
636.09	27344.48
636.24	27070.64
636.39	27082.34
636.53	27243.84
636.68	27007.44
636.83	27002.76
636.98	27580.87
637.13	27140.85
637.28	27370.22
637.43	27122.13
637.57	27138.51
637.72	27047.23
637.87	27536.40
638.02	27047.23
638.17	26991.06
638.32	27051.91
638.46	26998.08
638.61	26749.98
638.76	26721.90
638.91	26855.31
639.06	27126.81
639.20	26941.91
639.35	27307.03
639.50	27220.43
639.65	27103.40
639.80	27187.66
639.94	27094.04
640.09	27087.02
640.24	26721.90
640.39	26724.24
640.54	26707.85
640.68	26590.83
640.83	26848.29
640.98	26225.70
641.13	26593.17
641.27	26766.37
641.42	26464.44
641.57	26766.37
641.72	26656.36
641.86	26562.74
642.01	26459.76
642.16	26768.71
642.31	26998.08
642.45	26668.06
642.60	26150.81
642.75	26314.64
642.90	26405.92
643.04	26356.77
643.19	26377.84
643.34	26436.35
643.48	26263.15
643.63	26560.40
643.78	26216.34
643.93	26590.83
644.07	26354.43
644.22	26738.28
644.37	26450.39
644.51	26228.04
644.66	26092.29
644.81	25977.61
644.95	26473.80
645.10	26183.57
645.25	26169.53
645.39	26263.15
645.54	26153.15
645.69	26129.74
645.83	26492.52
645.98	26382.52
646.13	26581.46
646.27	26429.33
646.42	25881.64
646.57	26361.45
646.71	25825.47
646.86	26103.99
647.00	26106.34
647.15	25944.84
647.30	25710.78
647.44	26019.74
647.59	25661.63
647.74	26265.49
647.88	25977.61
648.03	26183.57
648.17	25979.95
648.32	26277.19
648.47	26286.56
648.61	26258.47
648.76	25930.80
648.90	26089.95
649.05	25972.92
649.20	25874.62
649.34	25956.54
649.49	25598.44
649.63	25750.57
649.78	25537.59
649.92	25469.71
650.07	25825.47
650.21	25656.95
650.36	25788.02
650.51	25958.88
650.65	25834.83
650.80	25525.88
650.94	25656.95
651.09	25717.81
651.23	25432.26
651.38	25359.70
651.52	25404.17
651.67	25544.61
651.81	25788.02
651.96	24980.54
652.10	25455.67
652.25	25575.03
652.39	25979.95
652.54	25378.43
652.68	25783.34
652.83	25404.17
652.97	25666.31
653.12	25338.64
653.26	25149.06
653.41	25245.02
653.55	25223.95
653.70	24842.45
653.84	25345.66
653.99	25553.97
654.13	25298.85
654.27	25357.36
654.42	25240.34
654.56	25453.33
654.71	25340.98
654.85	25415.88
655.00	25474.39
655.14	25111.61
655.29	25202.89
655.43	25406.52
655.57	24985.22
655.72	24968.84
655.86	25179.48
656.01	25156.08
656.15	24936.07
656.30	24615.41
656.44	25151.40
656.58	24613.07
656.73	24889.26
656.87	24631.80
657.01	25025.01
657.16	24814.36
657.30	25120.97
657.45	24947.77
657.59	24987.56
657.73	24613.07
657.88	24638.82
658.02	24561.58
658.16	24643.50
658.31	24428.17
658.45	24774.57
658.60	24650.52
658.74	24437.53
658.88	25095.22
659.03	24758.19
659.17	24566.26
659.31	24538.18
659.46	24702.01
659.60	24959.47
659.74	24929.05
659.89	24135.60
660.03	24479.66
660.17	24379.02
660.32	24250.29
660.46	24503.07
660.60	24086.45
660.74	24219.86
660.89	24016.24
661.03	23990.49
661.17	24339.23
661.32	24360.30
661.46	24418.81
661.60	24219.86
661.74	24133.26
661.89	24556.90
662.03	24388.38
662.17	24112.20
662.31	23922.62
662.46	24119.22
662.60	23924.96
662.74	23718.99
662.88	23669.84
663.03	23676.86
663.17	23515.36
663.31	23508.34
663.45	23924.96
663.60	23655.79
663.74	23700.26
663.88	23585.58
664.02	23515.36
664.17	23964.75
664.31	23604.30
664.45	23728.35
664.59	23543.45
664.73	23435.78
664.88	23239.18
665.02	22953.63
665.16	23047.26
665.30	23080.02
665.44	23447.49
665.59	23520.04
665.73	22869.37
665.87	22951.29
666.01	23091.73
666.15	23220.45
666.29	23365.57
666.44	22967.68
666.58	22948.95
666.72	23145.56
666.86	22941.93
667.00	23058.96
667.14	23136.20
667.28	22874.06
667.43	22932.57
667.57	22993.42
667.71	22539.36
667.85	22508.93
667.99	22380.20
668.13	22642.34
668.27	22565.10
668.41	22604.89
668.56	22429.35
668.70	22775.75
668.84	22595.53
668.98	22317.01
669.12	22796.82
669.26	22658.73
669.40	22583.83
669.54	22515.95
669.68	22794.48
669.82	22071.25
669.96	22082.95
670.10	21982.31
670.25	22253.81
670.39	22185.94
670.53	22216.36
670.67	22101.68
670.81	22099.34
670.95	21991.67
671.09	22157.85
671.23	22183.60
671.37	22024.44
671.51	22134.45
671.65	21944.86
671.79	21631.23
671.93	22012.74
672.07	21752.94
672.21	21738.90
672.35	21493.14
672.49	21369.09
672.63	21668.68
672.77	21170.15
672.91	21502.50
673.05	21792.73
673.19	21212.28
673.33	21422.92
673.47	21371.43
673.61	21413.56
673.75	21551.65
673.89	21123.33
674.03	21228.66
674.17	21067.16
674.31	21018.01
674.45	20957.16
674.59	21289.51
674.73	21205.25
674.87	20863.54
675.01	20538.20
675.15	20692.68
675.29	20746.51
675.43	20746.51
675.56	20959.50
675.70	20734.81
675.84	20688.00
675.98	20037.33
676.12	20652.89
676.26	20854.17
676.40	20552.24
676.54	20585.01
676.68	20175.42
676.82	19899.23
676.96	19908.60
677.10	20245.63
677.23	19924.98
677.37	20095.84
677.51	19927.32
677.65	19999.88
677.79	19697.95
677.93	19461.55
678.07	19634.75
678.21	19761.14
678.34	19499.00
678.48	19618.37
678.62	19719.01
678.76	19257.93
678.90	19396.02
679.04	19271.97
679.18	19250.91
679.31	18953.66
679.45	19138.56
679.59	19124.52
679.73	18813.23
679.87	18827.27
680.00	18710.24
680.14	18810.89
680.28	19288.35
680.42	18876.42
680.56	18551.09
680.70	18902.17
680.83	19094.09
680.97	18553.43
681.11	18530.02
681.25	18525.34
681.39	18387.25
681.52	18576.83
681.66	18345.12
681.80	18235.11
681.94	18155.54
682.07	18232.77
682.21	18164.90
682.35	18265.54
682.49	18057.23
682.62	18019.78
682.76	18141.49
682.90	18059.57
683.04	17907.44
683.17	17776.37
683.31	17841.90
683.45	17666.36
683.59	17942.55
683.72	17893.40
683.86	17575.08
684.00	17685.09
684.13	17434.65
684.27	17216.98
684.41	17254.43
684.55	16879.94
684.68	17006.33
684.82	17191.23
684.96	16767.60
685.09	16952.50
685.23	17027.40
685.37	17011.01
685.50	17036.76
685.64	16732.49
685.78	16814.41
685.91	17006.33
686.05	16844.84
686.19	16758.24
686.32	16793.34
686.46	16175.44
686.60	16418.86
686.73	16322.90
686.87	16255.02
687.01	16271.40
687.14	16257.36
687.28	16198.85
687.42	15960.11
687.55	15962.45
687.69	16285.45
687.82	15852.45
687.96	16074.80
688.10	15775.21
688.23	15843.09
688.37	15552.86
688.50	15864.15
688.64	15700.31
688.78	15543.50
688.91	15679.25
689.05	15587.97
689.18	15337.53
689.32	15176.03
689.46	15108.16
689.59	15398.38
689.73	15185.40
689.86	15143.27
690.00	14937.30
690.13	15051.99
690.27	15080.07
690.41	15243.91
690.54	14827.29
690.68	14817.93
690.81	14998.15
690.95	14789.85
691.08	14682.18
691.22	14836.66
691.35	14719.63
691.49	14719.63
691.62	14768.78
691.76	14459.83
691.89	14129.81
692.03	14223.44
692.16	14389.61
692.30	14246.84
692.43	14305.35
692.57	13970.66
692.70	14188.33
692.84	13717.88
692.97	13977.68
693.11	13956.61
693.24	13942.57
693.38	13734.26
693.51	13647.66
693.65	13919.17
693.78	13654.69
693.92	14031.51
694.05	13570.43
694.19	13444.04
694.32	13399.57
694.45	13486.17
694.59	13247.43
694.72	13226.37
694.86	13170.19
694.99	13074.23
695.13	13081.25
695.26	13060.19
695.39	12877.63
695.53	13064.87
695.66	12924.44
695.80	12765.28
695.93	13107.00
696.07	13165.51
696.20	13071.89
696.33	12741.88
696.47	12599.10
696.60	12702.09
696.73	12329.94
696.87	12542.93
697.00	12538.25
697.14	12587.40
697.27	12308.88
697.40	12285.47
697.54	12161.42
697.67	12264.41
697.80	12065.46
697.94	11798.64
698.07	11864.18
698.21	11880.56
698.34	12135.68
698.47	11995.25
698.61	12028.01
698.74	12039.72
698.87	11969.50
699.01	11908.65
699.14	11658.21
699.27	11599.70
699.40	11576.29
699.54	11522.46
699.67	11604.38
699.80	11321.17
699.94	11449.90
700.07	11295.43
700.20	10991.16
700.34	11096.48
700.47	11311.81
700.60	11283.72
700.73	11166.70
700.87	11187.76
701.00	10869.45
701.13	11037.97
701.26	10895.19
701.40	11066.05
701.53	10944.34
701.66	10895.19
701.79	10621.35
701.93	10686.89
702.06	10525.39
702.19	10518.37
702.32	10642.42
702.46	10623.69
702.59	10452.83
702.72	10333.47
702.85	10242.18
702.99	10455.17
703.12	10218.78
703.25	10317.08
703.38	10183.67
703.51	10195.37
703.65	10129.84
703.78	10258.57
703.91	10031.54
704.04	10087.71
704.17	10033.88
704.31	10001.11
704.44	9928.55
704.57	9902.81
704.70	9774.08
704.83	9638.33
704.96	9635.99
705.10	9619.60
705.23	9486.19
>>>>>End Processed Spectral Data<<<<<
