SpectraSuite Data File
++++++++++++++++++++++++++++++++++++
Date: Fri Oct 18 13:58:18 GMT-05:00 2013
User: bianchi
Dark Spectrum Present: No
Reference Spectrum Present: No
Number of Sampled Component Spectra: 1
Spectrometers: USB2+H05261
Integration Time (usec): 50000 (USB2+H05261)
Spectra Averaged: 1 (USB2+H05261)
Boxcar Smoothing: 0 (USB2+H05261)
Correct for Electrical Dark: No (USB2+H05261)
Strobe/Lamp Enabled: No (USB2+H05261)
Correct for Detector Non-linearity: No (USB2+H05261)
Correct for Stray Light: No (USB2+H05261)
Number of Pixels in Processed Spectrum: 2048
>>>>>Begin Processed Spectral Data<<<<<
365.73	0.00
365.92	0.00
366.12	0.00
366.32	0.00
366.52	0.00
366.72	0.00
366.91	0.00
367.11	0.00
367.31	0.00
367.51	0.00
367.70	0.00
367.90	0.00
368.10	0.00
368.30	0.00
368.49	0.00
368.69	0.00
368.89	0.00
369.09	0.00
369.28	0.00
369.48	0.00
369.68	0.00
369.87	0.00
370.07	0.00
370.27	0.00
370.47	0.00
370.66	124.05
370.86	44.47
371.06	79.58
371.25	131.07
371.45	110.01
371.65	175.54
371.84	170.86
372.04	149.79
372.24	152.13
372.44	180.22
372.63	166.18
372.83	203.63
373.03	152.13
373.22	100.64
373.42	138.09
373.62	264.48
373.81	259.80
374.01	330.02
374.21	248.10
374.40	290.23
374.60	241.08
374.79	266.82
374.99	191.92
375.19	161.50
375.38	234.05
375.58	257.46
375.78	304.27
375.97	294.91
376.17	299.59
376.37	198.95
376.56	276.18
376.76	229.37
376.95	201.29
377.15	304.27
377.35	332.36
377.54	299.59
377.74	278.52
377.93	159.16
378.13	184.90
378.33	276.18
378.52	252.78
378.72	210.65
378.91	194.26
379.11	311.29
379.31	210.65
379.50	287.89
379.70	290.23
379.89	252.78
380.09	278.52
380.28	320.65
380.48	297.25
380.68	294.91
380.87	294.91
381.07	294.91
381.26	341.72
381.46	325.33
381.65	276.18
381.85	304.27
382.04	297.25
382.24	285.55
382.43	353.42
382.63	320.65
382.83	318.31
383.02	280.86
383.22	369.80
383.41	386.19
383.61	369.80
383.80	337.04
384.00	325.33
384.19	297.25
384.39	404.91
384.58	451.72
384.78	341.72
384.97	351.08
385.17	362.78
385.36	351.08
385.56	365.12
385.75	325.33
385.95	423.64
386.14	346.40
386.34	388.53
386.53	425.98
386.72	423.64
386.92	447.04
387.11	447.04
387.31	430.66
387.50	397.89
387.70	444.70
387.89	447.04
388.09	351.08
388.28	360.44
388.48	416.62
388.67	421.30
388.86	393.21
389.06	482.15
389.25	411.93
389.45	409.59
389.64	442.36
389.84	451.72
390.03	512.58
390.22	510.24
390.42	554.71
390.61	521.94
390.81	528.96
391.00	447.04
391.19	512.58
391.39	475.13
391.58	524.28
391.78	440.02
391.97	535.98
392.16	564.07
392.36	589.82
392.55	533.64
392.75	500.87
392.94	514.92
393.13	507.90
393.33	528.96
393.52	535.98
393.71	564.07
393.91	472.79
394.10	545.34
394.29	559.39
394.49	561.73
394.68	627.26
394.88	526.62
395.07	634.29
395.26	564.07
395.46	407.25
395.65	535.98
395.84	559.39
396.04	596.84
396.23	568.75
396.42	641.31
396.62	603.86
396.81	681.10
397.00	648.33
397.19	622.58
397.39	688.12
397.58	669.39
397.77	601.52
397.97	699.82
398.16	645.99
398.35	767.70
398.55	631.94
398.74	709.18
398.93	744.29
399.12	697.48
399.32	671.73
399.51	695.14
399.70	800.46
399.90	711.52
400.09	788.76
400.28	816.85
400.47	788.76
400.67	711.52
400.86	737.27
401.05	709.18
401.24	772.38
401.44	767.70
401.63	770.04
401.82	770.04
402.01	819.19
402.21	723.23
402.40	800.46
402.59	823.87
402.78	877.70
402.97	800.46
403.17	851.96
403.36	917.49
403.55	835.57
403.74	961.96
403.93	884.72
404.13	884.72
404.32	957.28
404.51	887.06
404.70	926.85
404.89	858.98
405.09	1001.75
405.28	985.37
405.47	896.43
405.66	976.00
405.85	926.85
406.05	903.45
406.24	994.73
406.43	1074.31
406.62	973.66
406.81	1011.11
407.00	966.64
407.20	973.66
407.39	1039.20
407.58	1083.67
407.77	940.90
407.96	1078.99
408.15	1088.35
408.34	1041.54
408.54	1069.62
408.73	1144.52
408.92	1067.28
409.11	1118.78
409.30	1107.07
409.49	1156.22
409.68	1172.61
409.87	1163.25
410.07	1097.71
410.26	1111.75
410.45	1114.10
410.64	1210.06
410.83	1224.10
411.02	1210.06
411.21	1210.06
411.40	1327.08
411.59	1130.48
411.78	1172.61
411.98	1221.76
412.17	1270.91
412.36	1289.64
412.55	1289.64
412.74	1376.24
412.93	1430.07
413.12	1193.67
413.31	1387.94
413.50	1350.49
413.69	1387.94
413.88	1394.96
414.07	1483.90
414.26	1432.41
414.45	1467.52
414.64	1413.68
414.83	1488.58
415.02	1535.39
415.22	1526.03
415.41	1458.15
415.60	1582.20
415.79	1481.56
415.98	1572.84
416.17	1549.43
416.36	1652.42
416.55	1605.61
416.74	1671.14
416.93	1757.74
417.12	1629.01
417.31	1652.42
417.50	1657.10
417.69	1650.08
417.88	1788.17
418.07	1664.12
418.26	1736.68
418.45	1710.93
418.64	1736.68
418.83	1799.87
419.02	1760.08
419.21	1795.19
419.39	1870.09
419.58	1720.29
419.77	1823.28
419.96	1849.02
420.15	1827.96
420.34	1748.38
420.53	1853.70
420.72	1912.22
420.91	1858.39
421.10	1870.09
421.29	2043.29
421.48	1959.03
421.67	1954.35
421.86	1879.45
422.05	1987.11
422.24	2005.84
422.43	1968.39
422.61	1942.64
422.80	1968.39
422.99	2033.93
423.18	1973.07
423.37	2003.50
423.56	1914.56
423.75	1975.41
423.94	1823.28
424.13	1877.11
424.32	1916.90
424.50	2031.58
424.69	2097.12
424.88	2033.93
425.07	1998.82
425.26	2024.56
425.45	2052.65
425.64	1975.41
425.83	2005.84
426.01	2069.03
426.20	1933.28
426.39	1998.82
426.58	2064.35
426.77	2087.76
426.96	2090.10
427.15	2045.63
427.33	2062.01
427.52	2122.87
427.71	2059.67
427.90	2073.71
428.09	2289.04
428.28	2134.57
428.46	2106.48
428.65	2038.61
428.84	2181.38
429.03	2284.36
429.22	2174.36
429.40	2293.72
429.59	2263.30
429.78	2216.49
429.97	2139.25
430.16	2174.36
430.34	2223.51
430.53	2286.70
430.72	2310.11
430.91	2291.38
431.10	2251.60
431.28	2303.09
431.47	2321.81
431.66	2345.22
431.85	2303.09
432.03	2480.97
432.22	2443.52
432.41	2410.75
432.60	2518.42
432.79	2352.24
432.97	2356.92
433.16	2576.93
433.35	2448.20
433.54	2462.24
433.72	2466.92
433.91	2555.86
434.10	2569.91
434.28	2434.16
434.47	2485.65
434.66	2637.78
434.85	2579.27
435.03	2593.31
435.22	2537.14
435.41	2602.68
435.59	2644.81
435.78	2612.04
435.97	2471.61
436.16	2518.42
436.34	2628.42
436.53	2654.17
436.72	2700.98
436.90	2607.36
437.09	2654.17
437.28	2600.34
437.46	2724.38
437.65	2803.96
437.84	2857.79
438.02	2771.19
438.21	2885.88
438.40	2719.70
438.58	2846.09
438.77	2862.48
438.96	2951.42
439.14	2874.18
439.33	2963.12
439.52	2902.26
439.70	2888.22
439.89	3042.70
440.08	3038.02
440.26	3038.02
440.45	3021.63
440.63	3047.38
440.82	3052.06
441.01	3014.61
441.19	3133.98
441.38	3176.11
441.57	3145.68
441.75	3164.40
441.94	3309.52
442.12	3323.56
442.31	3213.56
442.50	3248.66
442.68	3243.98
442.87	3183.13
443.05	3335.26
443.24	3314.20
443.43	3283.77
443.61	3496.76
443.80	3391.44
443.98	3447.61
444.17	3246.32
444.35	3332.92
444.54	3318.88
444.73	3531.87
444.91	3438.25
445.10	3342.28
445.28	3400.80
445.47	3295.47
445.65	3220.58
445.84	3412.50
446.02	3475.70
446.21	3349.31
446.39	3314.20
446.58	3480.38
446.77	3435.91
446.95	3456.97
447.14	3445.27
447.32	3588.04
447.51	3375.05
447.69	3353.99
447.88	3487.40
448.06	3559.95
448.25	3426.54
448.43	3466.33
448.62	3447.61
448.80	3410.16
448.99	3482.72
449.17	3536.55
449.36	3541.23
449.54	3646.55
449.73	3674.64
449.91	3662.94
450.10	3651.24
450.28	3705.07
450.46	3613.79
450.65	3672.30
450.83	3602.08
451.02	3826.78
451.20	3824.44
451.39	3721.45
451.57	3712.09
451.76	3662.94
451.94	3868.91
452.13	3925.08
452.31	3798.69
452.49	3658.26
452.68	3779.97
452.86	3819.75
453.05	3927.42
453.23	3878.27
453.42	3822.09
453.60	3744.86
453.78	3904.01
453.97	3871.25
454.15	3901.67
454.34	3983.59
454.52	4128.70
454.70	3822.09
454.89	4032.74
455.07	3962.53
455.26	4063.17
455.44	4035.08
455.62	4046.79
455.81	3983.59
455.99	4215.30
456.17	4023.38
456.36	4081.89
456.54	4177.86
456.73	4259.78
456.91	4227.01
457.09	4086.58
457.28	4170.83
457.46	4173.18
457.64	4259.78
457.83	4432.97
458.01	4203.60
458.19	4262.12
458.38	4367.44
458.56	4491.49
458.74	4421.27
458.93	4374.46
459.11	4369.78
459.29	4311.27
459.48	4425.95
459.66	4463.40
459.84	4440.00
460.03	4589.79
460.21	4564.04
460.39	4409.57
460.57	4435.32
460.76	4313.61
460.94	4557.02
461.12	4545.32
461.31	4599.15
461.49	4423.61
461.67	4557.02
461.85	4716.18
462.04	4636.60
462.22	4926.83
462.40	4648.30
462.59	4730.22
462.77	4638.94
462.95	4737.24
463.13	4622.56
463.32	4791.08
463.50	4819.16
463.68	4755.97
463.86	4720.86
464.05	4732.56
464.23	4795.76
464.41	4847.25
464.59	4765.33
464.78	4835.55
464.96	4954.91
465.14	4779.37
465.32	4950.23
465.50	5095.35
465.69	4863.63
465.87	4800.44
466.05	4929.17
466.23	4908.10
466.41	5027.47
466.60	5137.48
466.78	4990.02
466.96	5067.26
467.14	5057.90
467.32	5060.24
467.51	5118.75
467.69	4975.98
467.87	5128.11
468.05	5160.88
468.23	5006.41
468.41	5064.92
468.60	5090.67
468.78	5165.56
468.96	5156.20
469.14	5263.86
469.32	5296.63
469.50	5022.79
469.69	5287.27
469.87	5423.02
470.05	5348.12
470.23	5357.49
470.41	5296.63
470.59	5408.98
470.77	5561.11
470.95	5287.27
471.14	5526.00
471.32	5434.72
471.50	5504.94
471.68	5453.45
471.86	5628.99
472.04	5572.82
472.22	5619.63
472.40	5469.83
472.58	5715.59
472.77	5717.93
472.95	5734.31
473.13	5984.75
473.31	5713.25
473.49	5757.72
473.67	5905.17
473.85	5715.59
474.03	6054.97
474.21	5849.00
474.39	5963.68
474.57	6003.47
474.75	6094.76
474.93	6127.52
475.12	6099.44
475.30	6064.33
475.48	6010.50
475.66	6113.48
475.84	6183.70
476.02	6333.49
476.20	6354.55
476.38	6284.34
476.56	6356.90
476.74	6448.18
476.92	6494.99
477.10	6370.94
477.28	6740.74
477.46	6471.58
477.64	6637.76
477.82	6539.46
478.00	6817.98
478.18	6871.81
478.36	7045.01
478.54	7045.01
478.72	7215.87
478.90	7082.46
479.08	7124.59
479.26	7016.93
479.44	7211.19
479.62	7101.19
479.80	7323.54
479.98	7283.75
480.16	7527.16
480.34	7365.67
480.52	7564.61
480.70	7634.83
480.88	7400.77
481.06	7662.91
481.24	7541.21
481.41	7529.50
481.59	7824.41
481.77	7892.29
481.95	7978.89
482.13	8032.72
482.31	7964.84
482.49	8212.94
482.67	8149.75
482.85	8311.24
483.03	8336.99
483.21	8468.06
483.39	8507.85
483.57	8446.99
483.74	8755.94
483.92	8760.63
484.10	8451.67
484.28	8828.50
484.46	8887.01
484.64	9153.84
484.82	8772.33
485.00	8823.82
485.18	9011.06
485.35	9394.91
485.53	9221.71
485.71	9336.40
485.89	9432.36
486.07	9366.82
486.25	9544.70
486.43	9570.45
486.61	9488.53
486.78	9818.55
486.96	9675.77
487.14	9874.72
487.32	9937.91
487.50	10136.86
487.68	10221.12
487.85	10139.20
488.03	10455.17
488.21	10616.67
488.39	10403.68
488.57	10478.58
488.75	10576.88
488.92	10623.69
489.10	10740.72
489.28	10843.70
489.46	11094.14
489.64	10839.02
489.81	11377.34
489.99	11033.29
490.17	11143.29
490.35	11585.65
490.53	11461.60
490.70	11698.00
490.88	11562.25
491.06	11529.48
491.24	11758.85
491.41	11674.59
491.59	11585.65
491.77	11868.86
491.95	12053.76
492.13	11880.56
492.30	12182.49
492.48	12280.79
492.66	12091.21
492.84	12437.61
493.01	12393.14
493.19	12542.93
493.37	12631.87
493.54	12613.15
493.72	12762.94
493.90	12568.68
494.08	13158.49
494.25	13004.02
494.43	13013.38
494.61	13273.18
494.79	13179.56
494.96	13174.88
495.14	13146.79
495.32	13422.97
495.49	13444.04
495.67	13511.91
495.85	13605.53
496.02	13834.91
496.20	13898.10
496.38	13802.14
496.55	14075.98
496.73	13905.12
496.91	13958.96
497.09	14146.20
497.26	14422.38
497.44	14083.00
497.62	14143.86
497.79	14597.92
497.97	14506.64
498.14	14520.68
498.32	14705.59
498.50	14789.85
498.67	14733.67
498.85	14656.43
499.03	15096.46
499.20	15023.90
499.38	14785.16
499.56	15063.69
499.73	15063.69
499.91	15269.66
500.08	15236.89
500.26	15161.99
500.44	15300.08
500.61	15428.81
500.79	15243.91
500.97	15372.64
501.14	15707.34
501.32	15740.10
501.49	15569.24
501.67	15618.39
501.84	15800.96
502.02	15969.48
502.20	16070.12
502.37	15943.73
502.55	15913.30
502.72	15934.37
502.90	16123.95
503.07	16100.55
503.25	16051.39
503.43	16035.01
503.60	16348.64
503.78	16432.90
503.95	16451.63
504.13	16531.20
504.30	16622.48
504.48	16346.30
504.65	16823.77
504.83	16767.60
505.01	16882.28
505.18	16919.73
505.36	17039.10
505.53	16629.51
505.71	16961.86
505.88	17116.34
506.06	16690.36
506.23	17025.06
506.41	17193.58
506.58	17083.57
506.76	17069.53
506.93	17429.97
507.11	17380.82
507.28	17451.03
507.46	17460.40
507.63	17394.86
507.81	17453.37
507.98	17451.03
508.16	17589.13
508.33	17490.82
508.50	17600.83
508.68	17596.15
508.85	17991.70
509.03	17830.20
509.20	17991.70
509.38	18106.38
509.55	18115.75
509.73	17860.63
509.90	17958.93
510.08	18370.86
510.25	18375.55
510.42	18338.10
510.60	18427.04
510.77	18082.98
510.95	18780.46
511.12	18586.19
511.30	18525.34
511.47	18761.73
511.64	18583.85
511.82	18925.57
511.99	18766.42
512.17	18827.27
512.34	19070.68
512.51	19129.20
512.69	18977.06
512.86	19424.11
513.04	19117.50
513.21	19257.93
513.38	19281.33
513.56	19346.87
513.73	19110.47
513.90	19075.37
514.08	19391.34
514.25	19625.39
514.43	19463.90
514.60	19550.49
514.77	19508.37
514.95	19798.59
515.12	19477.94
515.29	19709.65
515.47	19524.75
515.64	19829.02
515.81	19580.92
515.99	19814.98
516.16	19946.05
516.33	20065.41
516.51	20147.33
516.68	20390.75
516.85	20196.48
517.03	20166.06
517.20	20252.66
517.37	20255.00
517.54	20121.59
517.72	20435.22
517.89	20334.57
518.06	20390.75
518.24	20423.51
518.41	20336.91
518.58	20437.56
518.75	20526.50
518.93	20966.52
519.10	20585.01
519.27	20863.54
519.45	20727.78
519.62	20732.47
519.79	20760.55
519.96	20723.10
520.14	20940.77
520.31	20915.03
520.48	20952.48
520.65	20926.73
520.83	21469.73
521.00	21214.62
521.17	21369.09
521.34	21191.21
521.52	21268.45
521.69	21542.29
521.86	21528.25
522.03	21525.91
522.20	21617.19
522.38	21376.11
522.55	21832.52
522.72	21621.87
522.89	21647.61
523.07	22146.15
523.24	21610.17
523.41	21825.50
523.58	21710.81
523.75	22129.77
523.92	21783.37
524.10	21986.99
524.27	22190.62
524.44	22024.44
524.61	22256.15
524.78	22501.91
524.96	22134.45
525.13	22305.31
525.30	22239.77
525.47	22267.86
525.64	22586.17
525.81	22443.40
525.98	22707.88
526.16	22513.61
526.33	22630.64
526.50	22740.64
526.67	22572.13
526.84	22733.62
527.01	22607.23
527.18	23002.78
527.36	22747.67
527.53	23019.17
527.70	23126.83
527.87	23225.14
528.04	22684.47
528.21	23089.38
528.38	22852.99
528.55	22874.06
528.72	23105.77
528.89	23129.17
529.07	22993.42
529.24	22675.11
529.41	23314.08
529.58	23232.16
529.75	23098.75
529.92	23449.83
530.09	23023.85
530.26	23239.18
530.43	23583.24
530.60	23580.90
530.77	23374.93
530.94	23433.44
531.11	23262.58
531.28	23484.94
531.46	23651.11
531.63	23721.33
531.80	23559.83
531.97	24016.24
532.14	23611.32
532.31	23531.75
532.48	23826.65
532.65	24144.97
532.82	23606.64
532.99	23992.83
533.16	23873.46
533.33	24203.48
533.50	24498.39
533.67	24170.71
533.84	24240.93
534.01	24201.14
534.18	23964.75
534.35	24496.05
534.52	24283.06
534.69	24369.66
534.86	24105.18
535.03	24079.43
535.20	24336.89
535.37	24315.83
535.54	24699.67
535.71	24456.26
535.88	24503.07
536.05	24376.68
536.22	24592.01
536.38	24861.17
536.55	24823.72
536.72	24610.73
536.89	24648.18
537.06	24734.78
537.23	24828.40
537.40	24620.10
537.57	24882.24
537.74	24676.27
537.91	24854.15
538.08	24889.26
538.25	24765.21
538.42	24744.14
538.59	25006.28
538.75	24718.40
538.92	25135.01
539.09	25207.57
539.26	25139.69
539.43	25296.51
539.60	25411.20
539.77	25226.29
539.94	25366.73
540.11	25085.86
540.28	25221.61
540.44	25465.03
540.61	25172.46
540.78	25373.75
540.95	25209.91
541.12	25362.04
541.29	25261.40
541.46	25422.90
541.62	25546.95
541.79	25474.39
541.96	25355.02
542.13	25621.84
542.30	25699.08
542.47	25886.32
542.63	25687.38
542.80	25806.75
542.97	26101.65
543.14	26260.81
543.31	26029.10
543.48	25891.01
543.64	26309.96
543.81	26312.30
543.98	26221.02
544.15	26232.72
544.32	26373.16
544.48	26405.92
544.65	26288.90
544.82	26068.89
544.99	25972.92
545.16	26256.13
545.32	26403.58
545.49	26551.04
545.66	26728.92
545.83	26494.86
546.00	26352.09
546.16	26522.95
546.33	26609.55
546.50	26057.18
546.67	26382.52
546.83	26204.64
547.00	26267.83
547.17	26808.50
547.34	26691.47
547.50	26682.11
547.67	27145.53
547.84	26796.79
548.00	27131.49
548.17	27047.23
548.34	26799.13
548.51	26604.87
548.67	27292.99
548.84	26724.24
549.01	27145.53
549.18	26897.44
549.34	26761.69
549.51	26757.00
549.68	27307.03
549.84	26986.38
550.01	27129.15
550.18	26787.43
550.34	27351.50
550.51	27384.27
550.68	27524.70
550.84	27213.41
551.01	27248.52
551.18	27248.52
551.34	27150.21
551.51	27213.41
551.68	27601.94
551.84	27459.16
552.01	26991.06
552.18	27936.63
552.34	27435.76
552.51	27601.94
552.68	27023.83
552.84	27576.19
553.01	27241.50
553.18	27227.45
553.34	27520.02
553.51	27744.71
553.67	27590.24
553.84	27955.36
554.01	27714.28
554.17	27957.70
554.34	27768.12
554.51	27812.59
554.67	27597.26
554.84	27784.50
555.00	27908.55
555.17	27431.08
555.33	27913.23
555.50	27934.29
555.67	28219.84
555.83	27999.83
556.00	27882.80
556.16	28013.87
556.33	27915.57
556.50	28039.62
556.66	28322.82
556.83	28219.84
556.99	28599.01
557.16	28444.53
557.32	28205.80
557.49	28397.72
557.65	28116.86
557.82	28084.09
557.98	28166.01
558.15	28369.63
558.32	28252.61
558.48	28268.99
558.65	28332.18
558.81	28760.50
558.98	28369.63
559.14	28554.54
559.31	28077.07
559.47	28444.53
559.64	28348.57
559.80	28491.34
559.97	28409.42
560.13	28065.36
560.30	28215.16
560.46	28746.46
560.63	28503.04
560.79	28615.39
560.96	28931.36
561.12	28589.64
561.29	28383.68
561.45	28367.29
561.61	28439.85
561.78	28734.76
561.94	28460.91
562.11	28500.70
562.27	28313.46
562.44	28800.29
562.60	28400.06
562.77	28676.24
562.93	28751.14
563.10	28891.57
563.26	28800.29
563.42	29172.44
563.59	28739.44
563.75	28971.15
563.92	29106.90
564.08	28840.08
564.24	28652.84
564.41	28685.61
564.57	28683.27
564.74	28697.31
564.90	28994.56
565.07	29170.10
565.23	28577.94
565.39	28854.12
565.56	29198.18
565.72	28802.63
565.88	28776.89
566.05	28769.86
566.21	28882.21
566.38	29057.75
566.54	29165.42
566.70	29275.42
566.87	29156.05
567.03	29186.48
567.19	29200.52
567.36	29174.78
567.52	29160.73
567.68	29083.50
567.85	28889.23
568.01	28907.96
568.17	29057.75
568.34	28964.13
568.50	29125.63
568.66	29230.95
568.83	29298.83
568.99	29102.22
569.15	29008.60
569.32	29116.26
569.48	29050.73
569.64	29076.48
569.81	29425.22
569.97	29137.33
570.13	29706.08
570.30	29083.50
570.46	29149.03
570.62	29202.86
570.78	29193.50
570.95	28706.67
571.11	29127.97
571.27	29184.14
571.43	29104.56
571.60	29394.79
571.76	29422.87
571.92	29446.28
572.09	29329.25
572.25	29509.47
572.41	29076.48
572.57	29441.60
572.74	29221.59
572.90	29319.89
573.06	28959.45
573.22	29338.62
573.38	29202.86
573.55	28987.53
573.71	29233.29
573.87	29567.99
574.03	29319.89
574.20	29558.63
574.36	29181.80
574.52	29053.07
574.68	29252.02
574.84	29179.46
575.01	29043.71
575.17	29979.92
575.33	29244.99
575.49	29074.13
575.65	29804.38
575.82	29780.98
575.98	29509.47
576.14	29521.18
576.30	29500.11
576.46	29153.71
576.62	29324.57
576.79	29256.70
576.95	29303.51
577.11	29668.63
577.27	29731.83
577.43	29434.58
577.59	29729.48
577.75	29525.86
577.92	29434.58
578.08	29371.38
578.24	29469.69
578.40	29661.61
578.56	28751.14
578.72	29329.25
578.88	29621.82
579.04	30031.41
579.21	29228.61
579.37	29912.05
579.53	29338.62
579.69	29219.25
579.85	29890.98
580.01	29333.93
580.17	29460.32
580.33	29750.55
580.49	29422.87
580.65	29486.07
580.82	29673.31
580.98	29708.42
581.14	29500.11
581.30	29837.15
581.46	29799.70
581.62	29355.00
581.78	29385.43
581.94	29745.87
582.10	29610.12
582.26	29975.24
582.42	29551.60
582.58	29521.18
582.74	29230.95
582.90	29565.65
583.06	29661.61
583.22	29472.03
583.38	29090.52
583.54	29387.77
583.70	29729.48
583.86	29778.64
584.02	29467.34
584.18	29813.74
584.34	30033.75
584.50	29666.29
584.66	29556.28
584.82	29109.24
584.98	29668.63
585.14	29567.99
585.30	28898.59
585.46	29376.06
585.62	29518.84
585.78	29617.14
585.94	29249.67
586.10	29741.19
586.26	29806.72
586.42	29773.95
586.58	29415.85
586.74	29790.34
586.90	29270.74
587.06	29254.36
587.22	29692.04
587.38	29610.12
587.54	29825.45
587.70	30305.26
587.86	29832.47
588.02	29933.11
588.18	30071.20
588.34	29659.27
588.49	29816.08
588.65	29954.18
588.81	29603.10
588.97	30176.53
589.13	30162.48
589.29	29455.64
589.45	30263.13
589.61	30132.06
589.77	29741.19
589.93	30169.51
590.08	29979.92
590.24	29977.58
590.40	30258.45
590.56	30174.19
590.72	29935.45
590.88	29605.44
591.04	29766.93
591.20	30204.61
591.35	30141.42
591.51	30237.38
591.67	30295.89
591.83	30356.75
591.99	30368.45
592.15	30445.69
592.31	30258.45
592.46	30092.27
592.62	29514.16
592.78	29710.76
592.94	29937.79
593.10	29986.94
593.26	30038.44
593.41	29926.09
593.57	30223.34
593.73	30085.25
593.89	30054.82
594.05	29853.53
594.20	30024.39
594.36	30054.82
594.52	29921.41
594.68	29867.58
594.84	29986.94
594.99	29989.28
595.15	30132.06
595.31	30300.58
595.47	30106.31
595.62	30532.29
595.78	29720.12
595.94	30110.99
596.10	30309.94
596.25	29752.89
596.41	30052.48
596.57	29975.24
596.73	30036.09
596.88	30040.78
597.04	30146.10
597.20	30403.56
597.36	30087.59
597.51	30494.84
597.67	30059.50
597.83	30038.44
597.99	30508.88
598.14	30190.57
598.30	30040.78
598.46	29860.55
598.61	30167.16
598.77	30342.70
598.93	30277.17
599.09	30031.41
599.24	30448.03
599.40	30433.99
599.56	30707.83
599.71	30199.93
599.87	30321.64
600.03	30354.41
600.18	30033.75
600.34	30391.86
600.50	30443.35
600.65	30293.55
600.81	30391.86
600.97	30478.46
601.12	30228.02
601.28	30085.25
601.44	30448.03
601.59	30607.19
601.75	30230.36
601.91	30190.57
602.06	30181.21
602.22	30047.80
602.37	30157.80
602.53	30426.96
602.69	30335.68
602.84	30363.77
603.00	30143.76
603.16	30190.57
603.31	30249.08
603.47	30485.48
603.62	30277.17
603.78	30092.27
603.94	30089.93
604.09	29984.60
604.25	29783.32
604.40	30174.19
604.56	30167.16
604.71	30333.34
604.87	30497.18
605.03	30380.15
605.18	30274.83
605.34	30293.55
605.49	29703.74
605.65	30377.81
605.80	29890.98
605.96	30183.55
606.12	30022.05
606.27	30333.34
606.43	29940.13
606.58	30057.16
606.74	30314.62
606.89	30504.20
607.05	29972.90
607.20	29993.97
607.36	29993.97
607.51	29958.86
607.67	29832.47
607.82	30115.67
607.98	30129.72
608.13	30141.42
608.29	30132.06
608.44	30288.87
608.60	30277.17
608.75	30438.67
608.91	30225.68
609.06	30122.69
609.22	30211.64
609.37	29780.98
609.53	29696.72
609.68	29694.38
609.84	29778.64
609.99	30160.14
610.15	30197.59
610.30	29853.53
610.46	29778.64
610.61	29558.63
610.76	30106.31
610.92	30132.06
611.07	29947.15
611.23	30080.56
611.38	29827.79
611.54	29755.23
611.69	29710.76
611.84	29450.96
612.00	29883.96
612.15	29998.65
612.31	29979.92
612.46	30054.82
612.62	30012.69
612.77	29682.67
612.92	30029.07
613.08	29621.82
613.23	29687.36
613.39	30003.33
613.54	29706.08
613.69	29876.94
613.85	29326.91
614.00	29731.83
614.15	29799.70
614.31	29359.68
614.46	29560.97
614.62	29565.65
614.77	29649.91
614.92	29724.80
615.08	29570.33
615.23	29933.11
615.38	29986.94
615.54	28961.79
615.69	29535.22
615.84	29308.19
616.00	29413.51
616.15	29198.18
616.30	29521.18
616.46	29298.83
616.61	29521.18
616.76	29504.79
616.92	29364.36
617.07	29645.23
617.22	29240.31
617.37	29390.11
617.53	29582.03
617.68	29418.19
617.83	29160.73
617.99	29240.31
618.14	29216.91
618.29	29549.26
618.45	29017.96
618.60	29340.96
618.75	29373.72
618.90	29385.43
619.06	29195.84
619.21	29095.20
619.36	29151.37
619.51	28919.66
619.67	28793.27
619.82	28868.17
619.97	29202.86
620.12	28891.57
620.28	28830.72
620.43	29130.31
620.58	28912.64
620.73	28898.59
620.89	29134.99
621.04	29535.22
621.19	28957.11
621.34	29015.62
621.49	28797.95
621.65	29174.78
621.80	29104.56
621.95	28727.74
622.10	28762.84
622.25	28896.25
622.41	28704.33
622.56	28624.75
622.71	29067.11
622.86	28739.44
623.01	28790.93
623.16	28999.24
623.32	28657.52
623.47	28596.67
623.62	29125.63
623.77	28662.20
623.92	28669.22
624.07	28526.45
624.23	28601.35
624.38	28790.93
624.53	28959.45
624.68	28760.50
624.83	28783.91
624.98	28851.78
625.13	28662.20
625.29	28652.84
625.44	28339.21
625.59	28446.87
625.74	28128.56
625.89	28444.53
626.04	27882.80
626.19	28737.10
626.34	28463.25
626.49	28226.86
626.65	28243.24
626.80	28276.01
626.95	28355.59
627.10	28655.18
627.25	28631.77
627.40	28421.13
627.55	28276.01
627.70	27981.10
627.85	28184.73
628.00	28002.17
628.15	28301.76
628.30	27850.03
628.45	28252.61
628.60	27494.27
628.76	28018.55
628.91	28053.66
629.06	28161.33
629.21	28107.49
629.36	28229.20
629.51	28128.56
629.66	28130.90
629.81	27852.38
629.96	28053.66
630.11	28151.96
630.26	28182.39
630.41	27859.40
630.56	27793.86
630.71	27887.48
630.86	27754.07
631.01	27758.75
631.16	28121.54
631.31	27704.92
631.46	27807.90
631.61	27915.57
631.76	28032.60
631.91	27311.71
632.06	28063.02
632.21	27501.29
632.36	27838.33
632.51	27550.45
632.66	27887.48
632.81	27365.54
632.96	27831.31
633.10	27484.91
633.25	27681.52
633.40	27683.86
633.55	27868.76
633.70	26934.88
633.85	27349.16
634.00	27161.92
634.15	27370.22
634.30	27363.20
634.45	27330.44
634.60	27489.59
634.75	27372.57
634.90	27447.46
635.05	27812.59
635.19	27709.60
635.34	27878.12
635.49	27466.19
635.64	27381.93
635.79	27365.54
635.94	27290.65
636.09	27402.99
636.24	27400.65
636.39	26874.03
636.53	27239.15
636.68	27220.43
636.83	27105.74
636.98	27302.35
637.13	27190.00
637.28	27398.31
637.43	27557.47
637.57	27604.28
637.72	26831.90
637.87	27417.04
638.02	26953.61
638.17	27072.98
638.32	27246.18
638.46	27124.47
638.61	26899.78
638.76	26375.50
638.91	26808.50
639.06	26810.84
639.20	26672.74
639.35	27103.40
639.50	27051.91
639.65	27337.46
639.80	26930.20
639.94	26714.87
640.09	26778.07
640.24	27248.52
640.39	26962.97
640.54	26387.20
640.68	26932.54
640.83	26726.58
640.98	26618.91
641.13	26122.72
641.27	26586.15
641.42	26831.90
641.57	26735.94
641.72	26754.66
641.86	26492.52
642.01	26593.17
642.16	26525.29
642.31	26534.65
642.45	26682.11
642.60	26272.51
642.75	26008.03
642.90	26422.31
643.04	26225.70
643.19	26417.63
643.34	26843.60
643.48	26555.72
643.63	26265.49
643.78	26534.65
643.93	26359.11
644.07	26331.03
644.22	26764.03
644.37	26368.48
644.51	26373.16
644.66	26033.78
644.81	26118.04
644.95	26160.17
645.10	26242.09
645.25	26085.27
645.39	26284.22
645.54	26019.74
645.69	25851.22
645.83	26256.13
645.98	26389.54
646.13	26071.23
646.27	26099.31
646.42	26167.19
646.57	25949.52
646.71	26113.36
646.86	26052.50
647.00	26092.29
647.15	26087.61
647.30	26059.52
647.44	25919.09
647.59	26141.44
647.74	25998.67
647.88	26096.97
648.03	25937.82
648.17	26218.68
648.32	26087.61
648.47	26319.32
648.61	26092.29
648.76	25972.92
648.90	26127.40
649.05	25879.30
649.20	25811.43
649.34	25671.00
649.49	25614.82
649.63	25579.71
649.78	25511.84
649.92	25610.14
650.07	25802.07
650.21	25720.15
650.36	25600.78
650.51	25322.26
650.65	25926.11
650.80	26169.53
650.94	25626.53
651.09	25324.60
651.23	25661.63
651.38	25397.15
651.52	25713.13
651.67	25420.56
651.81	25523.54
651.96	25460.35
652.10	25282.47
652.25	25678.02
652.39	25717.81
652.54	25390.13
652.68	25661.63
652.83	25493.12
652.97	25736.53
653.12	25638.23
653.26	25563.33
653.41	25411.20
653.55	25348.00
653.70	25277.79
653.84	25067.14
653.99	25324.60
654.13	25057.78
654.27	25195.87
654.42	25067.14
654.56	25174.80
654.71	25294.17
654.85	25017.99
655.00	25165.44
655.14	25350.34
655.29	24973.52
655.43	25326.94
655.57	24938.41
655.72	24788.61
655.86	25001.60
656.01	24868.19
656.15	24865.85
656.30	25109.27
656.44	25102.25
656.58	24795.64
656.73	24898.62
656.87	25188.85
657.01	24788.61
657.16	25057.78
657.30	25509.50
657.45	24711.38
657.59	25125.65
657.73	25095.22
657.88	24753.51
658.02	24563.92
658.16	24479.66
658.31	24491.37
658.45	24744.14
658.60	24795.64
658.74	24566.26
658.88	24765.21
659.03	24694.99
659.17	24840.11
659.31	24606.05
659.46	24809.68
659.60	24992.24
659.74	24854.15
659.89	24479.66
660.03	24575.62
660.17	24245.61
660.32	24088.79
660.46	24259.65
660.60	24271.36
660.74	23803.25
660.89	24025.60
661.03	23861.76
661.17	24056.03
661.32	24238.59
661.46	24453.92
661.60	24013.90
661.74	24198.80
661.89	23981.13
662.03	23864.10
662.17	23946.02
662.31	23873.46
662.46	23931.98
662.60	24053.69
662.74	24032.62
662.88	23679.20
663.03	23510.68
663.17	23742.39
663.31	23524.72
663.45	23700.26
663.60	23630.05
663.74	23737.71
663.88	23475.57
664.02	23513.02
664.17	23754.10
664.31	23515.36
664.45	23328.12
664.59	23728.35
664.73	23566.85
664.88	23428.76
665.02	23232.16
665.16	23384.29
665.30	23260.24
665.44	23204.07
665.59	23091.73
665.73	23391.31
665.87	23288.33
666.01	23257.90
666.15	23513.02
666.29	23094.07
666.44	23255.56
666.58	23098.75
666.72	22923.21
666.86	23080.02
667.00	22946.61
667.14	22909.16
667.28	23124.49
667.43	22852.99
667.57	22977.04
667.71	22883.42
667.85	22548.72
667.99	22647.02
668.13	22677.45
668.27	22963.00
668.41	22632.98
668.56	22389.56
668.70	22527.66
668.84	22693.83
668.98	22621.28
669.12	22637.66
669.26	22530.00
669.40	22480.85
669.54	22476.16
669.68	22295.94
669.82	22459.78
669.96	22108.70
670.10	21991.67
670.25	22279.56
670.39	22391.91
670.53	22026.78
670.67	21762.30
670.81	22235.09
670.95	21982.31
671.09	21986.99
671.23	21926.14
671.37	21902.73
671.51	22178.92
671.65	21951.88
671.79	21771.66
671.93	21715.49
672.07	22040.82
672.21	21891.03
672.35	21607.83
672.49	21429.94
672.63	21336.32
672.77	21600.80
672.91	21607.83
673.05	21305.90
673.19	21523.57
673.33	21542.29
673.47	21338.66
673.61	21511.86
673.75	21006.31
673.89	21242.70
674.03	21216.96
674.17	21099.93
674.31	21317.60
674.45	21069.50
674.59	20929.07
674.73	20910.35
674.87	20783.96
675.01	20709.06
675.15	20573.31
675.29	20882.26
675.43	20636.50
675.56	20805.02
675.70	20519.48
675.84	20449.26
675.98	20257.34
676.12	20851.83
676.26	20730.12
676.40	20596.71
676.54	20325.21
676.68	20332.23
676.82	20130.95
676.96	20262.02
677.10	20098.18
677.23	19651.14
677.37	20049.03
677.51	19927.32
677.65	19997.54
677.79	19854.76
677.93	19761.14
678.07	19831.36
678.21	19822.00
678.34	19541.13
678.48	19517.73
678.62	19679.22
678.76	19466.24
678.90	19157.28
679.04	19494.32
679.18	19276.65
679.31	19208.78
679.45	18923.23
679.59	18806.20
679.73	18904.51
679.87	18780.46
680.00	18867.06
680.14	18623.64
680.28	18958.34
680.42	18633.00
680.56	18815.57
680.70	18761.73
680.83	18993.45
680.97	18534.70
681.11	18810.89
681.25	18728.97
681.39	18291.29
681.52	18436.40
681.66	18373.21
681.80	18232.77
681.94	18284.26
682.07	18569.81
682.21	18445.76
682.35	18141.49
682.49	17893.40
682.62	17834.88
682.76	17919.14
682.90	18223.41
683.04	17846.58
683.17	18029.15
683.31	17865.31
683.45	17895.74
683.59	17610.19
683.72	17717.86
683.86	17458.06
684.00	17373.80
684.13	17420.61
684.27	17392.52
684.41	17209.96
684.55	17315.28
684.68	17046.12
684.82	16945.48
684.96	16823.77
685.09	17090.59
685.23	16793.34
685.37	16896.33
685.50	16915.05
685.64	16823.77
685.78	17011.01
685.91	17083.57
686.05	16849.52
686.19	16699.72
686.32	16863.56
686.46	16325.24
686.60	16430.56
686.73	16470.35
686.87	16156.72
687.01	16414.18
687.14	16362.69
687.28	16177.78
687.42	15990.54
687.55	16018.63
687.69	16126.29
687.82	15857.13
687.96	15798.62
688.10	15789.25
688.23	15908.62
688.37	15812.66
688.50	15901.60
688.64	15709.68
688.78	15807.98
688.91	15583.29
689.05	15475.62
689.18	15501.37
689.32	15365.62
689.46	15377.32
689.59	15594.99
689.73	14934.96
689.86	15332.85
690.00	15229.87
690.13	15059.01
690.27	15201.78
690.41	15126.88
690.54	15140.93
690.68	14731.33
690.81	14956.02
690.95	15147.95
691.08	14984.11
691.22	14672.82
691.35	14822.61
691.49	14710.27
691.62	14808.57
691.76	14513.66
691.89	14532.39
692.03	14448.13
692.16	14050.24
692.30	14185.99
692.43	13923.85
692.57	14328.76
692.70	14113.43
692.84	14277.27
692.97	13958.96
693.11	14043.21
693.24	13844.27
693.38	13699.16
693.51	13774.05
693.65	13813.84
693.78	13851.29
693.92	13731.92
694.05	13687.45
694.19	13479.15
694.32	13561.06
694.45	13364.46
694.59	13209.98
694.72	13287.22
694.86	13228.71
694.99	13259.13
695.13	13273.18
695.26	13018.06
695.39	12868.27
695.53	13015.72
695.66	12924.44
695.80	12875.29
695.93	12784.01
696.07	12966.57
696.20	12711.45
696.33	12739.54
696.47	12833.16
696.60	12762.94
696.73	12446.97
696.87	12453.99
697.00	12453.99
697.14	12283.13
697.27	12182.49
697.40	12219.94
697.54	12304.20
697.67	12006.95
697.80	11946.09
697.94	11967.16
698.07	11707.36
698.21	11637.14
698.34	11939.07
698.47	12116.95
698.61	12049.08
698.74	11929.71
698.87	11943.75
699.01	11824.39
699.14	11695.66
699.27	11676.93
699.40	11796.30
699.54	11344.58
699.67	11604.38
699.80	11515.44
699.94	11351.60
700.07	11274.36
700.20	11178.40
700.34	11215.85
700.47	11201.80
700.60	11089.46
700.73	11129.25
700.87	10771.15
701.00	11152.65
701.13	10785.19
701.26	10843.70
701.40	10977.11
701.53	11077.76
701.66	10885.83
701.79	10516.03
701.93	10691.57
702.06	10679.86
702.19	10541.77
702.32	10480.92
702.46	10225.80
702.59	10258.57
702.72	10237.50
702.85	10417.72
702.99	10256.23
703.12	10263.25
703.25	10232.82
703.38	10314.74
703.51	10008.13
703.65	10162.61
703.78	10338.15
703.91	10031.54
704.04	10204.74
704.17	10174.31
704.31	9867.70
704.44	10073.67
704.57	9764.72
704.70	9706.20
704.83	9682.80
704.96	9481.51
705.10	9678.12
705.23	9558.75
>>>>>End Processed Spectral Data<<<<<
