SpectraSuite Data File
++++++++++++++++++++++++++++++++++++
Date: Fri Oct 18 13:58:20 GMT-05:00 2013
User: bianchi
Dark Spectrum Present: No
Reference Spectrum Present: No
Number of Sampled Component Spectra: 1
Spectrometers: USB2+H05261
Integration Time (usec): 50000 (USB2+H05261)
Spectra Averaged: 1 (USB2+H05261)
Boxcar Smoothing: 0 (USB2+H05261)
Correct for Electrical Dark: No (USB2+H05261)
Strobe/Lamp Enabled: No (USB2+H05261)
Correct for Detector Non-linearity: No (USB2+H05261)
Correct for Stray Light: No (USB2+H05261)
Number of Pixels in Processed Spectrum: 2048
>>>>>Begin Processed Spectral Data<<<<<
365.73	14.04
365.92	14.04
366.12	14.04
366.32	0.00
366.52	0.00
366.72	0.00
366.91	0.00
367.11	0.00
367.31	0.00
367.51	0.00
367.70	0.00
367.90	0.00
368.10	0.00
368.30	0.00
368.49	0.00
368.69	0.00
368.89	0.00
369.09	0.00
369.28	0.00
369.48	0.00
369.68	0.00
369.87	0.00
370.07	0.00
370.27	0.00
370.47	0.00
370.66	63.19
370.86	105.32
371.06	114.69
371.25	163.84
371.45	114.69
371.65	180.22
371.84	175.54
372.04	112.35
372.24	140.43
372.44	255.12
372.63	238.73
372.83	222.35
373.03	234.05
373.22	198.95
373.42	215.33
373.62	212.99
373.81	217.67
374.01	308.95
374.21	149.79
374.40	241.08
374.60	170.86
374.79	236.39
374.99	222.35
375.19	238.73
375.38	238.73
375.58	285.55
375.78	259.80
375.97	283.20
376.17	271.50
376.37	318.31
376.56	276.18
376.76	257.46
376.95	238.73
377.15	245.76
377.35	252.78
377.54	229.37
377.74	266.82
377.93	313.63
378.13	315.97
378.33	290.23
378.52	372.15
378.72	229.37
378.91	346.40
379.11	252.78
379.31	278.52
379.50	297.25
379.70	351.08
379.89	252.78
380.09	344.06
380.28	276.18
380.48	325.33
380.68	229.37
380.87	348.74
381.07	346.40
381.26	311.29
381.46	320.65
381.65	287.89
381.85	339.38
382.04	332.36
382.24	313.63
382.43	428.32
382.63	376.83
382.83	374.49
383.02	313.63
383.22	404.91
383.41	315.97
383.61	442.36
383.80	407.25
384.00	400.23
384.19	355.76
384.39	339.38
384.58	383.85
384.78	440.02
384.97	367.46
385.17	461.09
385.36	365.12
385.56	374.49
385.75	386.19
385.95	423.64
386.14	418.96
386.34	409.59
386.53	276.18
386.72	437.68
386.92	381.51
387.11	442.36
387.31	437.68
387.50	433.00
387.70	404.91
387.89	393.21
388.09	458.74
388.28	482.15
388.48	430.66
388.67	425.98
388.86	447.04
389.06	461.09
389.25	519.60
389.45	444.70
389.64	500.87
389.84	465.77
390.03	475.13
390.22	482.15
390.42	475.13
390.61	500.87
390.81	543.00
391.00	489.17
391.19	512.58
391.39	470.45
391.58	578.11
391.78	496.19
391.97	465.77
392.16	491.51
392.36	629.60
392.55	599.18
392.75	517.26
392.94	582.79
393.13	613.22
393.33	566.41
393.52	561.73
393.71	561.73
393.91	657.69
394.10	566.41
394.29	571.09
394.49	566.41
394.68	596.84
394.88	500.87
395.07	615.56
395.26	557.05
395.46	587.47
395.65	550.03
395.84	645.99
396.04	606.20
396.23	664.71
396.42	706.84
396.62	587.47
396.81	657.69
397.00	674.07
397.19	643.65
397.39	699.82
397.58	657.69
397.77	613.22
397.97	692.80
398.16	671.73
398.35	697.48
398.55	765.36
398.74	655.35
398.93	695.14
399.12	713.86
399.32	725.57
399.51	723.23
399.70	777.06
399.90	755.99
400.09	681.10
400.28	730.25
400.47	746.63
400.67	748.97
400.86	807.48
401.05	725.57
401.24	795.78
401.44	746.63
401.63	828.55
401.82	856.64
402.01	748.97
402.21	844.93
402.40	856.64
402.59	961.96
402.78	884.72
402.97	828.55
403.17	889.40
403.36	823.87
403.55	877.70
403.74	877.70
403.93	884.72
404.13	983.02
404.32	954.94
404.51	880.04
404.70	858.98
404.89	945.58
405.09	943.24
405.28	912.81
405.47	936.21
405.66	997.07
405.85	1013.45
406.05	1034.52
406.24	1050.90
406.43	1027.50
406.62	1034.52
406.81	964.30
407.00	1067.28
407.20	1008.77
407.39	1062.60
407.58	1018.13
407.77	1046.22
407.96	1184.31
408.15	1039.20
408.34	985.37
408.54	1050.90
408.73	961.96
408.92	1078.99
409.11	1064.94
409.30	1060.26
409.49	1174.95
409.68	1118.78
409.87	1219.42
410.07	1132.82
410.26	1102.39
410.45	1231.12
410.64	1153.88
410.83	1184.31
411.02	1259.21
411.21	1221.76
411.40	1186.65
411.59	1287.29
411.78	1235.80
411.98	1284.95
412.17	1322.40
412.36	1203.04
412.55	1383.26
412.74	1320.06
412.93	1322.40
413.12	1364.53
413.31	1448.79
413.50	1490.92
413.69	1439.43
413.88	1528.37
414.07	1448.79
414.26	1427.73
414.45	1507.30
414.64	1516.67
414.83	1397.30
415.02	1514.33
415.22	1565.82
415.41	1563.48
415.60	1490.92
415.79	1568.16
415.98	1528.37
416.17	1561.14
416.36	1572.84
416.55	1666.46
416.74	1624.33
416.93	1514.33
417.12	1668.80
417.31	1657.10
417.50	1603.27
417.69	1652.42
417.88	1724.97
418.07	1724.97
418.26	1783.49
418.45	1755.40
418.64	1708.59
418.83	1706.25
419.02	1809.23
419.21	1785.83
419.39	1813.92
419.58	1741.36
419.77	1799.87
419.96	1867.75
420.15	1912.22
420.34	1865.41
420.53	1935.62
420.72	1881.79
420.91	1947.33
421.10	1987.11
421.29	1888.81
421.48	1954.35
421.67	2085.42
421.86	2015.20
422.05	1898.17
422.24	1963.71
422.43	1980.09
422.61	2045.63
422.80	1966.05
422.99	2019.88
423.18	1949.67
423.37	2150.95
423.56	2099.46
423.75	2052.65
423.94	1954.35
424.13	2038.61
424.32	1926.26
424.50	2050.31
424.69	2015.20
424.88	2106.48
425.07	1973.07
425.26	2017.54
425.45	1966.05
425.64	2005.84
425.83	2012.86
426.01	2045.63
426.20	2036.27
426.39	2015.20
426.58	2010.52
426.77	2005.84
426.96	1923.92
427.15	2104.14
427.33	2036.27
427.52	2125.21
427.71	2155.63
427.90	2038.61
428.09	2193.08
428.28	2251.60
428.46	2209.47
428.65	2087.76
428.84	2202.44
429.03	2204.78
429.22	2143.93
429.40	2277.34
429.59	2174.36
429.78	2064.35
429.97	2172.02
430.16	2223.51
430.34	2396.71
430.53	2300.75
430.72	2235.21
430.91	2165.00
431.10	2319.47
431.28	2335.85
431.47	2328.83
431.66	2553.52
431.85	2385.01
432.03	2326.49
432.22	2495.01
432.41	2335.85
432.60	2476.29
432.79	2480.97
432.97	2473.95
433.16	2509.05
433.35	2415.43
433.54	2532.46
433.72	2530.12
433.91	2520.76
434.10	2495.01
434.28	2583.95
434.47	2455.22
434.66	2497.35
434.85	2569.91
435.03	2551.18
435.22	2576.93
435.41	2576.93
435.59	2520.76
435.78	2569.91
435.97	2726.72
436.16	2677.57
436.34	2597.99
436.53	2689.28
436.72	2717.36
436.90	2665.87
437.09	2682.25
437.28	2689.28
437.46	2696.30
437.65	2686.94
437.84	2738.43
438.02	2738.43
438.21	2738.43
438.40	2672.89
438.58	2892.90
438.77	2782.90
438.96	2825.03
439.14	3063.76
439.33	2970.14
439.52	2818.00
439.70	2890.56
439.89	2995.89
440.08	3040.36
440.26	3059.08
440.45	2956.10
440.63	3063.76
440.82	3047.38
441.01	3049.72
441.19	3084.83
441.38	3098.87
441.57	3211.22
441.75	3148.02
441.94	3199.51
442.12	3110.57
442.31	3262.71
442.50	3208.87
442.68	3442.93
442.87	3272.07
443.05	3227.60
443.24	3449.95
443.43	3321.22
443.61	3403.14
443.80	3468.67
443.98	3335.26
444.17	3190.15
444.35	3424.20
444.54	3424.20
444.73	3344.63
444.91	3489.74
445.10	3468.67
445.28	3307.18
445.47	3307.18
445.65	3403.14
445.84	3386.76
446.02	3494.42
446.21	3372.71
446.39	3433.57
446.58	3520.17
446.77	3494.42
446.95	3309.52
447.14	3468.67
447.32	3566.98
447.51	3644.21
447.69	3489.74
447.88	3508.46
448.06	3475.70
448.25	3538.89
448.43	3520.17
448.62	3449.95
448.80	3559.95
448.99	3648.90
449.17	3581.02
449.36	3538.89
449.54	3737.84
449.73	3623.15
449.91	3616.13
450.10	3667.62
450.28	3681.66
450.46	3585.70
450.65	3721.45
450.83	3665.28
451.02	3805.71
451.20	3707.41
451.39	3700.39
451.57	3899.33
451.76	3674.64
451.94	3754.22
452.13	3969.55
452.31	3728.47
452.49	3882.95
452.68	3847.84
452.86	3875.93
453.05	3824.44
453.23	3868.91
453.42	3756.56
453.60	3871.25
453.78	3953.16
453.97	3978.91
454.15	3847.84
454.34	3833.80
454.52	4088.92
454.70	4032.74
454.89	4065.51
455.07	3997.64
455.26	3932.10
455.44	4093.60
455.62	4002.32
455.81	3985.93
455.99	4095.94
456.17	4067.85
456.36	4067.85
456.54	4238.71
456.73	4194.24
456.91	4327.65
457.09	4229.35
457.28	4294.88
457.46	4273.82
457.64	4243.39
457.83	4402.55
458.01	4285.52
458.19	4372.12
458.38	4285.52
458.56	4444.68
458.74	4472.76
458.93	4432.97
459.11	4365.10
459.29	4327.65
459.48	4425.95
459.66	4449.36
459.84	4655.33
460.03	4648.30
460.21	4442.34
460.39	4542.98
460.57	4533.62
460.76	4510.21
460.94	4634.26
461.12	4528.94
461.31	4568.73
461.49	4664.69
461.67	4671.71
461.85	4737.24
462.04	4730.22
462.22	4961.94
462.40	4685.75
462.59	4765.33
462.77	4667.03
462.95	4805.12
463.13	4786.40
463.32	4688.09
463.50	4772.35
463.68	4706.82
463.86	4905.76
464.05	4779.37
464.23	4856.61
464.41	4880.02
464.59	4786.40
464.78	4931.51
464.96	4950.23
465.14	4847.25
465.32	5013.43
465.50	5015.77
465.69	4929.17
465.87	4917.47
466.05	5046.20
466.23	4873.00
466.41	4849.59
466.60	5252.16
466.78	4889.38
466.96	4978.32
467.14	5036.83
467.32	5153.86
467.51	5011.09
467.69	4851.93
467.87	5053.22
468.05	5163.22
468.23	5181.95
468.41	5085.98
468.60	5212.37
468.78	5172.58
468.96	5273.23
469.14	5181.95
469.32	5238.12
469.50	5163.22
469.69	5479.19
469.87	5334.08
470.05	5472.17
470.23	5423.02
470.41	5380.89
470.59	5479.19
470.77	5329.40
470.95	5549.41
471.14	5610.26
471.32	5502.60
471.50	5638.35
471.68	5518.98
471.86	5696.86
472.04	5582.18
472.22	5820.91
472.40	5636.01
472.58	5750.70
472.77	5863.04
472.95	5813.89
473.13	5809.21
473.31	5703.89
473.49	5921.56
473.67	5753.04
473.85	5830.27
474.03	6150.93
474.21	6043.26
474.39	6106.46
474.57	6106.46
474.75	6036.24
474.93	6080.71
475.12	6003.47
475.30	6141.57
475.48	6155.61
475.66	6143.91
475.84	6396.68
476.02	6389.66
476.20	6422.43
476.38	6373.28
476.56	6471.58
476.74	6651.80
476.92	6340.51
477.10	6410.73
477.28	6640.10
477.46	6682.23
477.64	6719.68
477.82	6796.92
478.00	6829.68
478.18	7009.90
478.36	7023.95
478.54	7040.33
478.72	6932.67
478.90	7122.25
479.08	7185.44
479.26	7358.64
479.44	7290.77
479.62	7398.43
479.80	7417.16
479.98	7515.46
480.16	7368.01
480.34	7379.71
480.52	7681.64
480.70	7550.57
480.88	7798.66
481.06	7686.32
481.24	7655.89
481.41	7861.86
481.59	7953.14
481.77	7941.44
481.95	7999.95
482.13	7988.25
482.31	8051.44
482.49	8044.42
482.67	8152.09
482.85	8339.33
483.03	8475.08
483.21	8329.97
483.39	8533.59
483.57	8393.16
483.74	8566.36
483.92	8718.50
484.10	8603.81
484.28	8709.13
484.46	9057.87
484.64	9249.80
484.82	8858.93
485.00	9090.64
485.18	9151.49
485.35	9322.35
485.53	9348.10
485.71	9408.95
485.89	9612.58
486.07	9413.63
486.25	9621.94
486.43	9827.91
486.61	9694.50
486.78	9710.88
486.96	10120.48
487.14	10157.92
487.32	10146.22
487.50	10052.60
487.68	10380.28
487.85	10422.41
488.03	10324.10
488.21	10644.76
488.39	10511.35
488.57	10656.46
488.75	10733.70
488.92	10771.15
489.10	10904.56
489.28	10883.49
489.46	11173.72
489.64	10759.44
489.81	11171.38
489.99	11433.52
490.17	11309.47
490.35	11693.32
490.53	11541.18
490.70	11529.48
490.88	11648.85
491.06	11580.97
491.24	11482.67
491.41	11910.99
491.59	12163.76
491.77	11819.71
491.95	12056.10
492.13	12011.63
492.30	12147.38
492.48	12100.57
492.66	12355.69
492.84	12367.39
493.01	12423.56
493.19	12463.35
493.37	12484.42
493.54	12704.43
493.72	12849.54
493.90	12760.60
494.08	12805.07
494.25	12681.02
494.43	13399.57
494.61	13291.90
494.79	13263.82
494.96	13041.46
495.14	13287.22
495.32	13507.23
495.49	13315.31
495.67	13575.11
495.85	13898.10
496.02	13881.72
496.20	14085.34
496.38	13802.14
496.55	14071.30
496.73	14174.28
496.91	14113.43
497.09	14253.86
497.26	14408.34
497.44	14015.13
497.62	14139.18
497.79	14635.37
497.97	14492.60
498.14	14806.23
498.32	14789.85
498.50	14668.14
498.67	14963.04
498.85	15007.52
499.03	15030.92
499.20	14958.36
499.38	14991.13
499.56	15087.09
499.73	15028.58
499.91	15328.17
500.08	15421.79
500.26	15080.07
500.44	15396.04
500.61	15644.14
500.79	15693.29
500.97	15506.05
501.14	15948.41
501.32	15866.49
501.49	15803.30
501.67	15742.44
501.84	15943.73
502.02	15737.76
502.20	16002.24
502.37	16039.69
502.55	15932.03
502.72	16042.03
502.90	16273.74
503.07	16348.64
503.25	16360.34
503.43	16222.25
503.60	16430.56
503.78	16570.99
503.95	16365.03
504.13	16847.18
504.30	16524.18
504.48	16657.59
504.65	16610.78
504.83	17125.70
505.01	16636.53
505.18	16837.81
505.36	17062.51
505.53	17144.42
505.71	16971.22
505.88	17053.14
506.06	17067.19
506.23	17348.05
506.41	17149.11
506.58	17216.98
506.76	17628.92
506.93	17638.28
507.11	17371.46
507.28	17539.97
507.46	17607.85
507.63	17640.62
507.81	17795.09
507.98	17476.78
508.16	17715.51
508.33	17570.40
508.50	17668.70
508.68	17750.62
508.85	18286.61
509.03	18136.81
509.20	18459.81
509.38	18267.88
509.55	18380.23
509.73	18143.83
509.90	18181.28
510.08	18436.40
510.25	18370.86
510.42	18647.05
510.60	18686.84
510.77	18520.66
510.95	18836.63
511.12	18714.92
511.30	18724.29
511.47	18684.50
511.64	18759.39
511.82	18845.99
511.99	19063.66
512.17	19096.43
512.34	19248.57
512.51	19129.20
512.69	18967.70
512.86	19365.59
513.04	19358.57
513.21	19351.55
513.38	19290.70
513.56	19630.07
513.73	19386.66
513.90	19386.66
514.08	19583.26
514.25	19728.38
514.43	19702.63
514.60	19695.61
514.77	19707.31
514.95	19974.13
515.12	19630.07
515.29	19775.19
515.47	19576.24
515.64	20114.56
515.81	19913.28
515.99	20355.64
516.16	20098.18
516.33	20259.68
516.51	20236.27
516.68	20334.57
516.85	20322.87
517.03	20205.84
517.20	20482.03
517.37	20587.35
517.54	20615.44
517.72	20643.52
517.89	20610.76
518.06	20746.51
518.24	20723.10
518.41	20575.65
518.58	20676.29
518.75	20575.65
518.93	21228.66
519.10	20856.51
519.27	21039.08
519.45	21001.63
519.62	20762.89
519.79	20882.26
519.96	21001.63
520.14	21158.44
520.31	21186.53
520.48	21146.74
520.65	20863.54
520.83	21270.79
521.00	21256.75
521.17	21268.45
521.34	21598.46
521.52	21465.05
521.69	21654.64
521.86	21535.27
522.03	21766.98
522.20	21572.72
522.38	21841.88
522.55	21979.97
522.72	21813.79
522.89	21855.92
523.07	22373.18
523.24	22211.68
523.41	22153.17
523.58	21888.69
523.75	22410.63
523.92	22075.93
524.10	22347.44
524.27	22284.24
524.44	22469.14
524.61	22408.29
524.78	22368.50
524.96	22207.00
525.13	22162.53
525.30	22499.57
525.47	22576.81
525.64	22513.61
525.81	22579.15
525.98	22593.19
526.16	22728.94
526.33	22473.82
526.50	22761.71
526.67	22412.97
526.84	22745.33
527.01	22586.17
527.18	22792.14
527.36	23136.20
527.53	23192.37
527.70	23494.30
527.87	23337.48
528.04	23166.62
528.21	22792.14
528.38	23131.51
528.55	23087.04
528.72	23267.27
528.89	23370.25
529.07	23440.47
529.24	23271.95
529.41	23192.37
529.58	23414.72
529.75	23276.63
529.92	23630.05
530.09	23737.71
530.26	23573.88
530.43	23690.90
530.60	23396.00
530.77	23833.68
530.94	23674.52
531.11	23594.94
531.28	23791.55
531.46	23878.15
531.63	23896.87
531.80	23943.68
531.97	23733.03
532.14	23978.79
532.31	23939.00
532.48	23702.61
532.65	24353.27
532.82	24084.11
532.99	23931.98
533.16	24056.03
533.33	24702.01
533.50	24273.70
533.67	24575.62
533.84	24081.77
534.01	24482.00
534.18	24044.32
534.35	24247.95
534.52	24343.91
534.69	24393.06
534.86	24643.50
535.03	24952.45
535.20	24879.89
535.37	24676.27
535.54	24919.68
535.71	24430.51
535.88	24907.98
536.05	24697.33
536.22	24751.17
536.38	25048.41
536.55	25223.95
536.72	25001.60
536.89	24666.91
537.06	24816.70
537.23	24772.23
537.40	25095.22
537.57	24992.24
537.74	25003.94
537.91	25397.15
538.08	25369.07
538.25	25149.06
538.42	25116.29
538.59	25312.89
538.75	25048.41
538.92	25345.66
539.09	25221.61
539.26	25628.87
539.43	25535.24
539.60	25507.16
539.77	25415.88
539.94	25415.88
540.11	25357.36
540.28	25223.95
540.44	25450.99
540.61	25565.67
540.78	25766.96
540.95	25483.75
541.12	25628.87
541.29	25900.37
541.46	25701.42
541.62	25458.01
541.79	25888.67
541.96	25378.43
542.13	25834.83
542.30	25783.34
542.47	25977.61
542.63	26272.51
542.80	26164.85
542.97	25912.07
543.14	26171.87
543.31	26239.75
543.48	26162.51
543.64	26579.12
543.81	26443.37
543.98	26340.39
544.15	26874.03
544.32	26590.83
544.48	26700.83
544.65	26279.54
544.82	26536.99
544.99	26309.96
545.16	26218.68
545.32	26511.25
545.49	26525.29
545.66	26890.41
545.83	26703.17
546.00	26955.95
546.16	26583.80
546.33	26897.44
546.50	26321.66
546.67	26799.13
546.83	26256.13
547.00	26548.70
547.17	26656.36
547.34	26944.25
547.50	27164.26
547.67	26927.86
547.84	27122.13
548.00	27009.78
548.17	27054.25
548.34	26827.22
548.51	27620.66
548.67	27213.41
548.84	27204.05
549.01	27314.05
549.18	26728.92
549.34	27550.45
549.51	26972.33
549.68	27307.03
549.84	26948.93
550.01	27627.68
550.18	27065.96
550.34	27388.95
550.51	27470.87
550.68	27615.98
550.84	27152.55
551.01	27674.49
551.18	27402.99
551.34	27402.99
551.51	27520.02
551.68	27239.15
551.84	27578.53
552.01	27611.30
552.18	27941.32
552.34	27391.29
552.51	27791.52
552.68	27274.26
552.84	27857.06
553.01	27915.57
553.18	27592.58
553.34	28002.17
553.51	27910.89
553.67	28283.03
553.84	28135.58
554.01	27543.42
554.17	27967.06
554.34	27693.22
554.51	27426.40
554.67	27875.78
554.84	28009.19
555.00	28095.79
555.17	28100.47
555.33	28439.85
555.50	27887.48
555.67	28107.49
555.83	27791.52
556.00	28142.60
556.16	28587.30
556.33	28112.17
556.50	28048.98
556.66	28254.95
556.83	28254.95
556.99	28369.63
557.16	28486.66
557.32	28301.76
557.49	28524.11
557.65	27873.44
557.82	28081.75
557.98	28341.55
558.15	28357.93
558.32	28779.23
558.48	28343.89
558.65	28669.22
558.81	28573.26
558.98	28393.04
559.14	28723.05
559.31	28386.02
559.47	28161.33
559.64	28243.24
559.80	28779.23
559.97	28584.96
560.13	28430.49
560.30	28594.32
560.46	28896.25
560.63	28914.98
560.79	28826.04
560.96	28610.71
561.12	28467.94
561.29	28381.34
561.45	28390.70
561.61	28718.37
561.78	28762.84
561.94	28844.76
562.11	28870.51
562.27	28723.05
562.44	28709.01
562.60	28795.61
562.77	28762.84
562.93	28816.68
563.10	29326.91
563.26	29233.29
563.42	29247.33
563.59	28830.72
563.75	29022.64
563.92	28868.17
564.08	28458.57
564.24	28931.36
564.41	28837.74
564.57	28739.44
564.74	28734.76
564.90	28776.89
565.07	28776.89
565.23	29184.14
565.39	29163.08
565.56	29259.04
565.72	29050.73
565.88	28980.51
566.05	29125.63
566.21	29254.36
566.38	29399.47
566.54	28957.11
566.70	29305.85
566.87	29570.33
567.03	29202.86
567.19	29343.30
567.36	29252.02
567.52	28849.44
567.68	29359.68
567.85	28945.41
568.01	28910.30
568.17	29296.49
568.34	28985.19
568.50	29008.60
568.66	29113.92
568.83	29542.24
568.99	29418.19
569.15	29465.00
569.32	29331.59
569.48	29184.14
569.64	29364.36
569.81	29521.18
569.97	29149.03
570.13	29570.33
570.30	29184.14
570.46	29612.46
570.62	29324.57
570.78	29289.46
570.95	28926.68
571.11	29289.46
571.27	29483.73
571.43	29165.42
571.60	29551.60
571.76	29539.90
571.92	28975.83
572.09	29914.39
572.25	29411.17
572.41	29259.04
572.57	29184.14
572.74	29355.00
572.90	29324.57
573.06	29340.96
573.22	29296.49
573.38	29523.52
573.55	29350.32
573.71	29476.71
573.87	29633.52
574.03	29436.92
574.20	29640.54
574.36	29434.58
574.52	29532.88
574.68	29563.31
574.84	29575.01
575.01	29532.88
575.17	29675.65
575.33	29586.71
575.49	29743.53
575.65	29900.34
575.82	29546.92
575.98	29582.03
576.14	29792.68
576.30	29806.72
576.46	29001.58
576.62	29282.44
576.79	29645.23
576.95	29434.58
577.11	29734.17
577.27	29427.56
577.43	29890.98
577.59	29942.47
577.75	29797.36
577.92	29401.81
578.08	29670.97
578.24	29516.50
578.40	29546.92
578.56	29750.55
578.72	30101.63
578.88	29961.20
579.04	30099.29
579.21	29738.85
579.37	29848.85
579.53	29750.55
579.69	29315.21
579.85	29736.51
580.01	29804.38
580.17	29207.55
580.33	29439.26
580.49	29078.82
580.65	30015.03
580.82	29998.65
580.98	29633.52
581.14	29621.82
581.30	29802.04
581.46	29986.94
581.62	29682.67
581.78	29408.83
581.94	29724.80
582.10	29394.79
582.26	29816.08
582.42	29930.77
582.58	30010.35
582.74	30075.88
582.90	30019.71
583.06	29905.02
583.22	29928.43
583.38	29790.34
583.54	29556.28
583.70	29773.95
583.86	29439.26
584.02	29607.78
584.18	29790.34
584.34	29790.34
584.50	29874.60
584.66	29610.12
584.82	29724.80
584.98	30047.80
585.14	29905.02
585.30	29310.53
585.46	29820.77
585.62	29881.62
585.78	30075.88
585.94	29680.33
586.10	29944.81
586.26	29956.52
586.42	30017.37
586.58	30230.36
586.74	29874.60
586.90	30015.03
587.06	29441.60
587.22	29916.73
587.38	29804.38
587.54	29963.54
587.70	29998.65
587.86	30195.25
588.02	29792.68
588.18	30139.08
588.34	29780.98
588.49	29706.08
588.65	29710.76
588.81	29888.64
588.97	29825.45
589.13	29954.18
589.29	30031.41
589.45	29951.84
589.61	30125.04
589.77	30539.31
589.93	30232.70
590.08	29881.62
590.24	30167.16
590.40	30073.54
590.56	29902.68
590.72	30326.32
590.88	30106.31
591.04	30443.35
591.20	30473.78
591.35	30326.32
591.51	30483.14
591.67	30590.80
591.83	30588.46
591.99	30450.37
592.15	30307.60
592.31	29956.52
592.46	30352.07
592.62	30174.19
592.78	29975.24
592.94	30408.24
593.10	30228.02
593.26	30525.27
593.41	30342.70
593.57	30277.17
593.73	30340.36
593.89	30543.99
594.05	30377.81
594.20	30197.59
594.36	30237.38
594.52	30239.72
594.68	29937.79
594.84	30384.83
594.99	30426.96
595.15	30190.57
595.31	30436.33
595.47	30670.38
595.62	30410.58
595.78	30321.64
595.94	30190.57
596.10	30403.56
596.25	30213.98
596.41	30075.88
596.57	30422.28
596.73	30321.64
596.88	30284.19
597.04	30356.75
597.20	30429.30
597.36	30476.12
597.51	30527.61
597.67	30328.66
597.83	30375.47
597.99	30225.68
598.14	30319.30
598.30	30146.10
598.46	30118.01
598.61	30396.54
598.77	30525.27
598.93	30487.82
599.09	30654.00
599.24	30761.66
599.40	30438.67
599.56	30520.59
599.71	30424.62
599.87	30305.26
600.03	30380.15
600.18	30698.47
600.34	30078.22
600.50	30520.59
600.65	30649.32
600.81	30382.49
600.97	30630.59
601.12	30394.20
601.28	30424.62
601.44	30661.02
601.59	30675.06
601.75	30473.78
601.91	30565.06
602.06	30305.26
602.22	30300.58
602.37	30125.04
602.53	30237.38
602.69	30661.02
602.84	30529.95
603.00	30864.64
603.16	30625.91
603.31	30609.53
603.47	30462.07
603.62	30307.60
603.78	30426.96
603.94	30349.73
604.09	30335.68
604.25	30071.20
604.40	30199.93
604.56	30387.18
604.71	30675.06
604.87	30487.82
605.03	30445.69
605.18	30307.60
605.34	30129.72
605.49	30368.45
605.65	30209.29
605.80	30499.52
605.96	30277.17
606.12	30368.45
606.27	30115.67
606.43	30181.21
606.58	30424.62
606.74	30604.84
606.89	30096.95
607.05	30216.32
607.20	30635.27
607.36	30515.90
607.51	30183.55
607.67	29853.53
607.82	30216.32
607.98	30174.19
608.13	30115.67
608.29	30232.70
608.44	30551.01
608.60	30429.30
608.75	30361.43
608.91	30174.19
609.06	29743.53
609.22	30309.94
609.37	29862.90
609.53	30122.69
609.68	30015.03
609.84	30108.65
609.99	30150.78
610.15	29942.47
610.30	29986.94
610.46	29771.61
610.61	30237.38
610.76	30281.85
610.92	30274.83
611.07	29853.53
611.23	29689.70
611.38	29645.23
611.54	30122.69
611.69	29715.44
611.84	29668.63
612.00	30260.79
612.15	30061.84
612.31	30277.17
612.46	29954.18
612.62	29954.18
612.77	30141.42
612.92	30506.54
613.08	29919.07
613.23	29858.21
613.39	29647.57
613.54	29394.79
613.69	29907.37
613.85	29830.13
614.00	29848.85
614.15	30024.39
614.31	29710.76
614.46	30352.07
614.62	29741.19
614.77	29682.67
614.92	29722.46
615.08	29748.21
615.23	30038.44
615.38	30019.71
615.54	29172.44
615.69	29645.23
615.84	29490.75
616.00	30003.33
616.15	29268.40
616.30	29645.23
616.46	29898.00
616.61	29984.60
616.76	29886.30
616.92	29303.51
617.07	29570.33
617.22	29364.36
617.37	29607.78
617.53	29383.09
617.68	29378.40
617.83	29308.19
617.99	29355.00
618.14	29682.67
618.29	29350.32
618.45	29172.44
618.60	29413.51
618.75	29249.67
618.90	29565.65
619.06	29741.19
619.21	29111.58
619.36	29392.45
619.51	29242.65
619.67	29226.27
619.82	29134.99
619.97	29579.69
620.12	29266.06
620.28	28989.88
620.43	29446.28
620.58	29324.57
620.73	29364.36
620.89	29303.51
621.04	29296.49
621.19	29263.72
621.34	29261.38
621.49	29202.86
621.65	28858.81
621.80	29055.41
621.95	29172.44
622.10	29188.82
622.25	29029.66
622.41	28889.23
622.56	28945.41
622.71	29240.31
622.86	29322.23
623.01	28968.81
623.16	28779.23
623.32	28741.78
623.47	28804.97
623.62	28723.05
623.77	28809.65
623.92	28891.57
624.07	28744.12
624.23	28816.68
624.38	28875.19
624.53	28800.29
624.68	28896.25
624.83	28566.24
624.98	28973.49
625.13	28797.95
625.29	28804.97
625.44	28811.99
625.59	28615.39
625.74	28795.61
625.89	28430.49
626.04	28793.27
626.19	28589.64
626.34	28371.97
626.49	28367.29
626.65	28662.20
626.80	28676.24
626.95	28659.86
627.10	28690.29
627.25	28474.96
627.40	28187.07
627.55	28535.81
627.70	28343.89
627.85	28531.13
628.00	28048.98
628.15	27967.06
628.30	28505.38
628.45	28416.44
628.60	28189.41
628.76	28315.80
628.91	28584.96
629.06	28280.69
629.21	28369.63
629.36	28290.06
629.51	28112.17
629.66	28407.08
629.81	28177.71
629.96	28156.64
630.11	27992.81
630.26	28273.67
630.41	28229.20
630.56	28231.54
630.71	27676.83
630.86	28283.03
631.01	28257.29
631.16	28247.93
631.31	28194.09
631.46	28156.64
631.61	28212.82
631.76	28077.07
631.91	27531.72
632.06	27824.29
632.21	27821.95
632.36	28390.70
632.51	27885.14
632.66	27922.59
632.81	27681.52
632.96	27995.15
633.10	27751.73
633.25	28142.60
633.40	27805.56
633.55	27693.22
633.70	27456.82
633.85	27337.46
634.00	27180.64
634.15	27796.20
634.30	27634.71
634.45	27314.05
634.60	27496.61
634.75	27805.56
634.90	27569.17
635.05	27733.01
635.19	27728.33
635.34	27882.80
635.49	27473.21
635.64	27487.25
635.79	27477.89
635.94	27840.67
636.09	27742.37
636.24	27838.33
636.39	27351.50
636.53	27318.73
636.68	27377.25
636.83	27379.59
636.98	27318.73
637.13	27414.69
637.28	27552.79
637.43	27513.00
637.57	27676.83
637.72	27494.27
637.87	27026.17
638.02	27145.53
638.17	27220.43
638.32	26742.96
638.46	27140.85
638.61	26579.12
638.76	27129.15
638.91	27080.00
639.06	26801.47
639.20	27180.64
639.35	27192.34
639.50	27021.48
639.65	27197.02
639.80	27510.66
639.94	27105.74
640.09	26958.29
640.24	26927.86
640.39	26731.26
640.54	26721.90
640.68	26913.82
640.83	26768.71
640.98	26909.14
641.13	26464.44
641.27	26913.82
641.42	26691.47
641.57	26621.25
641.72	27208.73
641.86	26757.00
642.01	26445.71
642.16	26848.29
642.31	26628.27
642.45	26647.00
642.60	26644.66
642.75	26562.74
642.90	26583.80
643.04	26520.61
643.19	26532.31
643.34	26623.59
643.48	26773.39
643.63	26703.17
643.78	26597.85
643.93	26677.43
644.07	26621.25
644.22	26764.03
644.37	26588.49
644.51	26696.15
644.66	26553.38
644.81	26389.54
644.95	26565.08
645.10	26511.25
645.25	26209.32
645.39	26347.41
645.54	26677.43
645.69	26658.70
645.83	26206.98
645.98	26529.97
646.13	26424.65
646.27	26111.02
646.42	26253.79
646.57	26536.99
646.71	26214.00
646.86	26089.95
647.00	26253.79
647.15	25912.07
647.30	26036.12
647.44	26302.94
647.59	26162.51
647.74	25570.35
647.88	25982.29
648.03	26052.50
648.17	26354.43
648.32	26178.89
648.47	26115.70
648.61	26197.62
648.76	26464.44
648.90	26099.31
649.05	25860.58
649.20	25895.69
649.34	25975.27
649.49	25738.87
649.63	25881.64
649.78	25958.88
649.92	25570.35
650.07	25905.05
650.21	25914.41
650.36	25900.37
650.51	26022.08
650.65	25947.18
650.80	25940.16
650.94	25834.83
651.09	26080.59
651.23	25734.19
651.38	25652.27
651.52	25418.22
651.67	25610.14
651.81	25509.50
651.96	25429.92
652.10	25851.22
652.25	25619.50
652.39	25940.16
652.54	25930.80
652.68	25582.06
652.83	25916.75
652.97	25923.77
653.12	25149.06
653.26	25963.56
653.41	25748.23
653.55	25633.55
653.70	25589.08
653.84	25340.98
653.99	25329.28
654.13	25600.78
654.27	25209.91
654.42	25418.22
654.56	25326.94
654.71	25600.78
654.85	25240.34
655.00	25631.21
655.14	25460.35
655.29	25106.93
655.43	25413.54
655.57	25046.07
655.72	25130.33
655.86	25397.15
656.01	25268.42
656.15	25268.42
656.30	25191.19
656.44	25111.61
656.58	25181.82
656.73	25441.62
656.87	25008.62
657.01	25088.20
657.16	25144.38
657.30	25266.08
657.45	24863.51
657.59	25001.60
657.73	24971.18
657.88	25118.63
658.02	24769.89
658.16	24409.45
658.31	24510.09
658.45	25067.14
658.60	24861.17
658.74	24762.87
658.88	25036.71
659.03	24837.76
659.17	24800.32
659.31	24879.89
659.46	24781.59
659.60	24758.19
659.74	24556.90
659.89	24456.26
660.03	24285.40
660.17	25060.12
660.32	24245.61
660.46	24205.82
660.60	24350.93
660.74	24463.28
660.89	24545.20
661.03	23824.31
661.17	24566.26
661.32	24297.10
661.46	24285.40
661.60	24189.44
661.74	24376.68
661.89	24374.34
662.03	24088.79
662.17	24121.56
662.31	23957.72
662.46	24301.78
662.60	23971.77
662.74	24175.39
662.88	24020.92
663.03	24088.79
663.17	23688.56
663.31	23407.70
663.45	23520.04
663.60	23592.60
663.74	24013.90
663.88	24142.63
664.02	23805.59
664.17	23737.71
664.31	23398.34
664.45	23789.20
664.59	23522.38
664.73	23803.25
664.88	24004.53
665.02	23264.92
665.16	23365.57
665.30	23356.21
665.44	23173.64
665.59	23672.18
665.73	23108.11
665.87	23049.60
666.01	23040.23
666.15	23175.98
666.29	23365.57
666.44	23201.73
666.58	23180.67
666.72	23360.89
666.86	22995.76
667.00	23314.08
667.14	23075.34
667.28	22829.59
667.43	23005.13
667.57	22986.40
667.71	22848.31
667.85	23019.17
667.99	22913.84
668.13	22494.89
668.27	22724.26
668.41	22534.68
668.56	22616.60
668.70	22717.24
668.84	23115.13
668.98	22677.45
669.12	22890.44
669.26	22506.59
669.40	22417.65
669.54	22607.23
669.68	22628.30
669.82	22251.47
669.96	22305.31
670.10	22225.73
670.25	22235.09
670.39	22134.45
670.53	21984.65
670.67	21818.47
670.81	22097.00
670.95	22298.28
671.09	22118.06
671.23	22216.36
671.37	21984.65
671.51	21996.35
671.65	22141.47
671.79	21958.91
671.93	21886.35
672.07	21898.05
672.21	21839.54
672.35	21528.25
672.49	21635.91
672.63	21795.07
672.77	21750.60
672.91	21324.62
673.05	21947.20
673.19	21448.67
673.33	21689.74
673.47	21434.63
673.61	21333.98
673.75	21219.30
673.89	21308.24
674.03	21387.82
674.17	21418.24
674.31	21223.98
674.45	21238.02
674.59	21331.64
674.73	21231.00
674.87	21465.05
675.01	20910.35
675.15	20666.93
675.29	20627.14
675.43	20772.25
675.56	20826.09
675.70	21074.18
675.84	20615.44
675.98	19908.60
676.12	20540.54
676.26	20971.20
676.40	20762.89
676.54	20563.95
676.68	20250.32
676.82	19850.08
676.96	20528.84
677.10	20222.23
677.23	20212.87
677.37	19962.43
677.51	20020.94
677.65	20116.90
677.79	19833.70
677.93	19789.23
678.07	19768.16
678.21	19765.82
678.34	20032.65
678.48	19440.49
678.62	19702.63
678.76	19702.63
678.90	19641.78
679.04	19765.82
679.18	19342.19
679.31	19473.26
679.45	19309.42
679.59	18792.16
679.73	19091.75
679.87	18970.04
680.00	18780.46
680.14	19028.56
680.28	18686.84
680.42	18817.91
680.56	18848.33
680.70	18881.10
680.83	19063.66
680.97	18574.49
681.11	18841.31
681.25	18597.90
681.39	18719.60
681.52	18487.89
681.66	18434.06
681.80	18497.25
681.94	18188.30
682.07	18427.04
682.21	18202.35
682.35	17919.14
682.49	18015.10
682.62	18120.43
682.76	17998.72
682.90	18129.79
683.04	17909.78
683.17	17907.44
683.31	17912.12
683.45	18249.16
683.59	17802.11
683.72	17937.87
683.86	17476.78
684.00	17551.68
684.13	17481.46
684.27	17366.78
684.41	17439.33
684.55	17099.95
684.68	17273.15
684.82	17015.69
684.96	17294.22
685.09	17336.35
685.23	17025.06
685.37	17235.70
685.50	16954.84
685.64	17022.72
685.78	17001.65
685.91	16919.73
686.05	16821.43
686.19	16809.73
686.32	16699.72
686.46	16528.86
686.60	16294.81
686.73	16615.46
686.87	16493.76
687.01	16395.45
687.14	16322.90
687.28	16287.79
687.42	16177.78
687.55	16004.58
687.69	16201.19
687.82	15868.83
687.96	15932.03
688.10	15995.22
688.23	16098.20
688.37	15723.72
688.50	15758.83
688.64	15955.43
688.78	15784.57
688.91	15559.88
689.05	15637.12
689.18	15370.30
689.32	15246.25
689.46	15274.34
689.59	15370.30
689.73	15295.40
689.86	15019.22
690.00	14888.15
690.13	15398.38
690.27	14920.92
690.41	15234.55
690.54	15248.59
690.68	15035.60
690.81	15012.20
690.95	14977.09
691.08	14874.10
691.22	14726.65
691.35	14794.53
691.49	14787.50
691.62	14665.80
691.76	14569.83
691.89	14494.94
692.03	14459.83
692.16	14228.12
692.30	14218.75
692.43	14134.50
692.57	14171.94
692.70	14052.58
692.84	14146.20
692.97	13996.40
693.11	13886.40
693.24	13973.00
693.38	13951.93
693.51	14022.15
693.65	13879.38
693.78	13654.69
693.92	13799.80
694.05	13612.56
694.19	13715.54
694.32	13481.49
694.45	13437.02
694.59	13261.48
694.72	13224.03
694.86	13092.96
694.99	12982.95
695.13	13191.26
695.26	13153.81
695.39	12912.74
695.53	13109.34
695.66	12975.93
695.80	13034.44
695.93	13013.38
696.07	12931.46
696.20	12961.89
696.33	12931.46
696.47	12734.85
696.60	12688.04
696.73	12734.85
696.87	12657.62
697.00	12627.19
697.14	12571.02
697.27	12428.24
697.40	12168.45
697.54	12168.45
697.67	12168.45
697.80	12084.19
697.94	12028.01
698.07	12152.06
698.21	12135.68
698.34	12042.06
698.47	12332.28
698.61	11885.24
698.74	12070.14
698.87	11974.18
699.01	11669.91
699.14	11716.72
699.27	11520.12
699.40	11665.23
699.54	11662.89
699.67	11555.22
699.80	11466.28
699.94	11634.80
700.07	11524.80
700.20	11302.45
700.34	11208.83
700.47	11173.72
700.60	11126.91
700.73	11138.61
700.87	11314.15
701.00	11061.37
701.13	11103.50
701.26	11042.65
701.40	10960.73
701.53	11019.24
701.66	11049.67
701.79	10750.08
701.93	10698.59
702.06	10721.99
702.19	10850.72
702.32	10548.79
702.46	10431.77
702.59	10406.02
702.72	10286.65
702.85	10483.26
702.99	10347.51
703.12	10326.44
703.25	10408.36
703.38	10200.05
703.51	10080.69
703.65	10303.04
703.78	10157.92
703.91	10242.18
704.04	10059.62
704.17	10003.45
704.31	10118.14
704.44	9951.96
704.57	9949.62
704.70	9825.57
704.83	9865.36
704.96	9834.93
705.10	9614.92
705.23	9673.43
>>>>>End Processed Spectral Data<<<<<
