SpectraSuite Data File
++++++++++++++++++++++++++++++++++++
Date: Fri Oct 18 13:58:27 GMT-05:00 2013
User: bianchi
Dark Spectrum Present: No
Reference Spectrum Present: No
Number of Sampled Component Spectra: 1
Spectrometers: USB2+H05261
Integration Time (usec): 50000 (USB2+H05261)
Spectra Averaged: 1 (USB2+H05261)
Boxcar Smoothing: 0 (USB2+H05261)
Correct for Electrical Dark: No (USB2+H05261)
Strobe/Lamp Enabled: No (USB2+H05261)
Correct for Detector Non-linearity: No (USB2+H05261)
Correct for Stray Light: No (USB2+H05261)
Number of Pixels in Processed Spectrum: 2048
>>>>>Begin Processed Spectral Data<<<<<
365.73	0.00
365.92	0.00
366.12	0.00
366.32	0.00
366.52	0.00
366.72	0.00
366.91	0.00
367.11	0.00
367.31	0.00
367.51	0.00
367.70	0.00
367.90	0.00
368.10	0.00
368.30	0.00
368.49	0.00
368.69	0.00
368.89	0.00
369.09	0.00
369.28	0.00
369.48	0.00
369.68	0.00
369.87	0.00
370.07	0.00
370.27	0.00
370.47	0.00
370.66	58.51
370.86	117.03
371.06	86.60
371.25	114.69
371.45	161.50
371.65	205.97
371.84	147.45
372.04	119.37
372.24	159.16
372.44	161.50
372.63	182.56
372.83	255.12
373.03	201.29
373.22	145.11
373.42	224.69
373.62	220.01
373.81	241.08
374.01	189.58
374.21	248.10
374.40	245.76
374.60	259.80
374.79	205.97
374.99	243.42
375.19	220.01
375.38	236.39
375.58	318.31
375.78	252.78
375.97	325.33
376.17	255.12
376.37	259.80
376.56	236.39
376.76	294.91
376.95	180.22
377.15	339.38
377.35	287.89
377.54	327.68
377.74	257.46
377.93	294.91
378.13	306.61
378.33	283.20
378.52	276.18
378.72	201.29
378.91	217.67
379.11	353.42
379.31	257.46
379.50	285.55
379.70	313.63
379.89	285.55
380.09	283.20
380.28	259.80
380.48	348.74
380.68	283.20
380.87	376.83
381.07	327.68
381.26	306.61
381.46	320.65
381.65	353.42
381.85	285.55
382.04	283.20
382.24	271.50
382.43	344.06
382.63	297.25
382.83	365.12
383.02	325.33
383.22	362.78
383.41	290.23
383.61	276.18
383.80	369.80
384.00	376.83
384.19	334.70
384.39	372.15
384.58	353.42
384.78	393.21
384.97	304.27
385.17	348.74
385.36	339.38
385.56	379.17
385.75	425.98
385.95	360.44
386.14	400.23
386.34	381.51
386.53	400.23
386.72	362.78
386.92	433.00
387.11	414.27
387.31	388.53
387.50	395.55
387.70	313.63
387.89	430.66
388.09	416.62
388.28	437.68
388.48	383.85
388.67	416.62
388.86	435.34
389.06	381.51
389.25	484.49
389.45	390.87
389.64	346.40
389.84	482.15
390.03	496.19
390.22	440.02
390.42	491.51
390.61	519.60
390.81	414.27
391.00	533.64
391.19	500.87
391.39	521.94
391.58	589.82
391.78	564.07
391.97	550.03
392.16	447.04
392.36	589.82
392.55	538.32
392.75	603.86
392.94	603.86
393.13	531.30
393.33	512.58
393.52	547.69
393.71	601.52
393.91	610.88
394.10	550.03
394.29	585.13
394.49	526.62
394.68	634.29
394.88	489.17
395.07	613.22
395.26	538.32
395.46	554.71
395.65	526.62
395.84	564.07
396.04	709.18
396.23	608.54
396.42	669.39
396.62	629.60
396.81	638.97
397.00	547.69
397.19	711.52
397.39	645.99
397.58	645.99
397.77	690.46
397.97	650.67
398.16	676.41
398.35	744.29
398.55	706.84
398.74	664.71
398.93	751.31
399.12	704.50
399.32	730.25
399.51	690.46
399.70	772.38
399.90	746.63
400.09	800.46
400.28	777.06
400.47	755.99
400.67	755.99
400.86	784.08
401.05	788.76
401.24	793.44
401.44	884.72
401.63	880.04
401.82	807.48
402.01	734.93
402.21	854.30
402.40	828.55
402.59	837.91
402.78	758.33
402.97	823.87
403.17	791.10
403.36	866.00
403.55	854.30
403.74	828.55
403.93	861.32
404.13	866.00
404.32	924.51
404.51	961.96
404.70	950.26
404.89	802.80
405.09	978.34
405.28	898.77
405.47	945.58
405.66	933.87
405.85	884.72
406.05	901.11
406.24	1011.11
406.43	966.64
406.62	997.07
406.81	1109.41
407.00	961.96
407.20	992.39
407.39	994.73
407.58	994.73
407.77	1048.56
407.96	1109.41
408.15	1029.84
408.34	1046.22
408.54	1114.10
408.73	954.94
408.92	1088.35
409.11	1151.54
409.30	1137.50
409.49	1020.47
409.68	1149.20
409.87	1123.46
410.07	1207.72
410.26	1100.05
410.45	1125.80
410.64	1104.73
410.83	1128.14
411.02	1163.25
411.21	1219.42
411.40	1193.67
411.59	1135.16
411.78	1261.55
411.98	1226.44
412.17	1198.35
412.36	1294.32
412.55	1233.46
412.74	1266.23
412.93	1291.98
413.12	1336.45
413.31	1378.58
413.50	1364.53
413.69	1376.24
413.88	1362.19
414.07	1420.71
414.26	1324.74
414.45	1411.34
414.64	1409.00
414.83	1481.56
415.02	1540.07
415.22	1547.09
415.41	1614.97
415.60	1603.27
415.79	1547.09
415.98	1610.29
416.17	1572.84
416.36	1591.56
416.55	1544.75
416.74	1659.44
416.93	1603.27
417.12	1621.99
417.31	1643.06
417.50	1643.06
417.69	1732.00
417.88	1689.87
418.07	1701.57
418.26	1680.50
418.45	1703.91
418.64	1788.17
418.83	1732.00
419.02	1778.81
419.21	1755.40
419.39	1802.21
419.58	1834.98
419.77	1820.94
419.96	1790.51
420.15	1898.17
420.34	1858.39
420.53	1891.15
420.72	1893.49
420.91	1830.30
421.10	1902.86
421.29	1923.92
421.48	1837.32
421.67	1902.86
421.86	1905.20
422.05	1923.92
422.24	1982.43
422.43	1942.64
422.61	1975.41
422.80	2012.86
422.99	2059.67
423.18	1977.75
423.37	2076.06
423.56	1884.13
423.75	2050.31
423.94	1919.24
424.13	1905.20
424.32	1942.64
424.50	2052.65
424.69	2104.14
424.88	2099.46
425.07	1942.64
425.26	1853.70
425.45	1970.73
425.64	2050.31
425.83	2001.16
426.01	1928.60
426.20	2008.18
426.39	2036.27
426.58	2033.93
426.77	1973.07
426.96	2036.27
427.15	2127.55
427.33	2059.67
427.52	2085.42
427.71	2045.63
427.90	2167.34
428.09	2115.84
428.28	2143.93
428.46	2197.76
428.65	2157.97
428.84	2317.13
429.03	2195.42
429.22	2134.57
429.40	2134.57
429.59	2209.47
429.78	2176.70
429.97	2092.44
430.16	2183.72
430.34	2260.96
430.53	2190.74
430.72	2317.13
430.91	2382.67
431.10	2246.91
431.28	2293.72
431.47	2286.70
431.66	2450.54
431.85	2291.38
432.03	2525.44
432.22	2394.37
432.41	2232.87
432.60	2291.38
432.79	2462.24
432.97	2408.41
433.16	2392.03
433.35	2487.99
433.54	2546.50
433.72	2553.52
433.91	2403.73
434.10	2429.48
434.28	2576.93
434.47	2602.68
434.66	2534.80
434.85	2612.04
435.03	2492.67
435.22	2466.92
435.41	2640.12
435.59	2541.82
435.78	2640.12
435.97	2562.89
436.16	2509.05
436.34	2593.31
436.53	2637.78
436.72	2607.36
436.90	2670.55
437.09	2602.68
437.28	2532.46
437.46	2686.94
437.65	2801.62
437.84	2745.45
438.02	2750.13
438.21	2778.22
438.40	2846.09
438.58	2773.53
438.77	2850.77
438.96	2860.13
439.14	2832.05
439.33	2923.33
439.52	2883.54
439.70	2904.60
439.89	2949.08
440.08	2986.52
440.26	2986.52
440.45	2883.54
440.63	3007.59
440.82	3061.42
441.01	3105.89
441.19	3019.29
441.38	3201.85
441.57	3192.49
441.75	3136.32
441.94	3243.98
442.12	3122.27
442.31	3269.73
442.50	3286.11
442.68	3368.03
442.87	3290.79
443.05	3365.69
443.24	3316.54
443.43	3307.18
443.61	3325.90
443.80	3473.36
443.98	3344.63
444.17	3288.45
444.35	3452.29
444.54	3452.29
444.73	3391.44
444.91	3393.78
445.10	3389.10
445.28	3531.87
445.47	3417.18
445.65	3400.80
445.84	3335.26
446.02	3344.63
446.21	3377.39
446.39	3471.01
446.58	3417.18
446.77	3492.08
446.95	3316.54
447.14	3431.23
447.32	3478.04
447.51	3400.80
447.69	3440.59
447.88	3555.27
448.06	3400.80
448.25	3482.72
448.43	3499.10
448.62	3482.72
448.80	3480.38
448.99	3524.85
449.17	3466.33
449.36	3501.44
449.54	3557.61
449.73	3634.85
449.91	3740.18
450.10	3733.15
450.28	3672.30
450.46	3716.77
450.65	3581.02
450.83	3688.68
451.02	3616.13
451.20	3847.84
451.39	3634.85
451.57	3740.18
451.76	3763.58
451.94	3740.18
452.13	3772.94
452.31	3749.54
452.49	3676.98
452.68	3831.46
452.86	3665.28
453.05	3901.67
453.23	3941.46
453.42	3782.31
453.60	3735.50
453.78	3974.23
453.97	3786.99
454.15	3861.88
454.34	3899.33
454.52	4032.74
454.70	3901.67
454.89	3850.18
455.07	3852.52
455.26	3953.16
455.44	4156.79
455.62	4044.45
455.81	3995.29
455.99	4032.74
456.17	4208.28
456.36	4133.39
456.54	4156.79
456.73	4072.53
456.91	4320.63
457.09	4386.16
457.28	4217.65
457.46	4170.83
457.64	4212.96
457.83	4325.31
458.01	4262.12
458.19	4215.30
458.38	4327.65
458.56	4351.06
458.74	4304.25
458.93	4435.32
459.11	4430.63
459.29	4360.42
459.48	4376.80
459.66	4493.83
459.84	4645.96
460.03	4528.94
460.21	4531.28
460.39	4573.41
460.57	4519.57
460.76	4589.79
460.94	4554.68
461.12	4601.49
461.31	4723.20
461.49	4683.41
461.67	4500.85
461.85	4683.41
462.04	4594.47
462.22	4746.61
462.40	4779.37
462.59	4690.43
462.77	4697.46
462.95	4578.09
463.13	4685.75
463.32	4753.63
463.50	4781.71
463.68	4716.18
463.86	4713.84
464.05	4720.86
464.23	4816.82
464.41	4807.46
464.59	4762.99
464.78	4830.87
464.96	4849.59
465.14	4786.40
465.32	4945.55
465.50	4812.14
465.69	4945.55
465.87	4751.29
466.05	5022.79
466.23	4957.25
466.41	5013.43
466.60	4966.62
466.78	4868.31
466.96	4940.87
467.14	4917.47
467.32	5195.99
467.51	5282.59
467.69	5100.03
467.87	5107.05
468.05	5245.14
468.23	5149.18
468.41	5181.95
468.60	5259.18
468.78	5310.68
468.96	5128.11
469.14	5083.64
469.32	5137.48
469.50	5144.50
469.69	5322.38
469.87	5252.16
470.05	5448.77
470.23	5444.09
470.41	5392.59
470.59	5551.75
470.77	5289.61
470.95	5366.85
471.14	5628.99
471.32	5352.81
471.50	5476.85
471.68	5542.39
471.86	5650.05
472.04	5549.41
472.22	5724.95
472.40	5547.07
472.58	5727.29
472.77	5696.86
472.95	5783.46
473.13	5804.53
473.31	5877.09
473.49	5872.40
473.67	5886.45
473.85	5757.72
474.03	6071.35
474.21	5900.49
474.39	5975.39
474.57	6061.99
474.75	6073.69
474.93	6085.39
475.12	6263.27
475.30	6146.25
475.48	5970.71
475.66	6141.57
475.84	6186.04
476.02	6373.28
476.20	6361.58
476.38	6413.07
476.56	6534.78
476.74	6399.02
476.92	6282.00
477.10	6511.37
477.28	6628.40
477.46	6574.56
477.64	6686.91
477.82	6597.97
478.00	6817.98
478.18	6829.68
478.36	6949.05
478.54	7026.29
478.72	6913.94
478.90	6979.48
479.08	7220.55
479.26	7098.84
479.44	7087.14
479.62	7323.54
479.80	7279.07
479.98	7452.27
480.16	7604.40
480.34	7428.86
480.52	7372.69
480.70	7513.12
480.88	7562.27
481.06	7644.19
481.24	7597.38
481.41	7634.83
481.59	7962.50
481.77	7925.05
481.95	8060.80
482.13	8051.44
482.31	7906.33
482.49	8004.63
482.67	8203.58
482.85	8414.23
483.03	8376.78
483.21	8500.83
483.39	8503.17
483.57	8299.54
483.74	8388.48
483.92	8521.89
484.10	8578.06
484.28	8840.20
484.46	9071.92
484.64	9193.62
484.82	8868.29
485.00	9071.92
485.18	9296.61
485.35	9158.52
485.53	9210.01
485.71	9394.91
485.89	9664.07
486.07	9392.57
486.25	9254.48
486.43	9584.49
486.61	9708.54
486.78	9731.95
486.96	9982.38
487.14	9848.97
487.32	10024.51
487.50	9949.62
487.68	10033.88
487.85	10106.43
488.03	10228.14
488.21	10434.11
488.39	10431.77
488.57	10586.24
488.75	10597.95
488.92	10878.81
489.10	10824.98
489.28	10803.91
489.46	10801.57
489.64	10965.41
489.81	11178.40
489.99	10895.19
490.17	11213.51
490.35	11330.53
490.53	11365.64
490.70	11442.88
490.88	11499.05
491.06	11669.91
491.24	11435.86
491.41	11702.68
491.59	11896.94
491.77	11915.67
491.95	11955.46
492.13	12091.21
492.30	12273.77
492.48	12016.31
492.66	11946.09
492.84	12226.96
493.01	12189.51
493.19	12320.58
493.37	12507.82
493.54	12547.61
493.72	12697.41
493.90	12423.56
494.08	12865.92
494.25	12945.50
494.43	13111.68
494.61	13088.28
494.79	13366.80
494.96	13167.85
495.14	13411.27
495.32	13425.31
495.49	13511.91
495.67	13561.06
495.85	13671.07
496.02	13394.89
496.20	13820.86
496.38	13837.25
496.55	13813.84
496.73	14033.85
496.91	13998.74
497.09	14162.58
497.26	14169.60
497.44	14043.21
497.62	14141.52
497.79	14216.41
497.97	14274.93
498.14	14345.14
498.32	14597.92
498.50	14516.00
498.67	14707.93
498.85	14602.60
499.03	14869.42
499.20	14724.31
499.38	14911.55
499.56	14794.53
499.73	15178.37
499.91	15108.16
500.08	15274.34
500.26	15138.58
500.44	15000.49
500.61	15213.48
500.79	15325.83
500.97	15300.08
501.14	15662.86
501.32	15784.57
501.49	15566.90
501.67	15513.07
501.84	15723.72
502.02	15950.75
502.20	16219.91
502.37	15829.04
502.55	15941.39
502.72	16091.18
502.90	15688.61
503.07	15810.32
503.25	15995.22
503.43	16194.17
503.60	16053.73
503.78	16358.00
503.95	16458.65
504.13	16507.80
504.30	16341.62
504.48	16390.77
504.65	16545.25
504.83	16940.80
505.01	16816.75
505.18	17039.10
505.36	16819.09
505.53	16800.37
505.71	16704.40
505.88	16886.97
506.06	16662.27
506.23	17167.83
506.41	16889.31
506.58	17240.39
506.76	16938.46
506.93	17341.03
507.11	17453.37
507.28	17240.39
507.46	17195.92
507.63	17427.63
507.81	17813.82
507.98	17591.47
508.16	17565.72
508.33	17750.62
508.50	17600.83
508.68	17689.77
508.85	17848.93
509.03	17685.09
509.20	17853.61
509.38	18192.98
509.55	18307.67
509.73	18153.20
509.90	18214.05
510.08	18176.60
510.25	18153.20
510.42	18307.67
510.60	18391.93
510.77	18525.34
510.95	18576.83
511.12	18324.05
511.30	18504.28
511.47	18476.19
511.64	18785.14
511.82	18820.25
511.99	18876.42
512.17	18923.23
512.34	18853.02
512.51	19019.19
512.69	18867.06
512.86	19021.53
513.04	18937.27
513.21	19218.14
513.38	19332.82
513.56	19253.25
513.73	19243.88
513.90	19164.31
514.08	19309.42
514.25	19311.76
514.43	19789.23
514.60	19332.82
514.77	19604.33
514.95	19803.27
515.12	19262.61
515.29	19693.27
515.47	19747.10
515.64	19609.01
515.81	19639.44
515.99	19873.49
516.16	19962.43
516.33	20109.88
516.51	20140.31
516.68	20198.82
516.85	20018.60
517.03	19899.23
517.20	20411.81
517.37	20327.55
517.54	20119.24
517.72	20276.06
517.89	20109.88
518.06	20184.78
518.24	20706.72
518.41	20390.75
518.58	20577.99
518.75	20404.79
518.93	20283.08
519.10	20460.96
519.27	20542.88
519.45	20748.85
519.62	20521.82
519.79	20959.50
519.96	20893.96
520.14	20929.07
520.31	20741.83
520.48	20908.01
520.65	20982.90
520.83	21432.29
521.00	20987.58
521.17	20896.30
521.34	21172.49
521.52	21305.90
521.69	21233.34
521.86	21593.78
522.03	21462.71
522.20	21219.30
522.38	21575.06
522.55	21507.18
522.72	21884.01
522.89	21673.36
523.07	21584.42
523.24	21834.86
523.41	21963.59
523.58	21654.64
523.75	22195.30
523.92	21912.10
524.10	21923.80
524.27	22003.38
524.44	22108.70
524.61	22548.72
524.78	22260.84
524.96	21977.63
525.13	22235.09
525.30	22141.47
525.47	22438.72
525.64	21979.97
525.81	22427.01
525.98	22717.24
526.16	22459.78
526.33	22544.04
526.50	22544.04
526.67	22782.77
526.84	22623.62
527.01	22595.53
527.18	22565.10
527.36	22857.67
527.53	22754.69
527.70	22955.97
527.87	22785.12
528.04	22827.24
528.21	22726.60
528.38	22867.03
528.55	22855.33
528.72	22541.70
528.89	23335.14
529.07	23012.15
529.24	22892.78
529.41	23330.46
529.58	23365.57
529.75	23295.35
529.92	23009.81
530.09	23302.37
530.26	23384.29
530.43	23342.16
530.60	23180.67
530.77	23063.64
530.94	23529.41
531.11	23555.15
531.28	23424.08
531.46	23330.46
531.63	23414.72
531.80	23623.03
531.97	23704.95
532.14	23887.51
532.31	23836.02
532.48	23908.57
532.65	23662.82
532.82	23508.34
532.99	23852.40
533.16	23477.91
533.33	24114.54
533.50	24004.53
533.67	23730.69
533.84	23772.82
534.01	24044.32
534.18	23939.00
534.35	24364.98
534.52	23957.72
534.69	24194.12
534.86	24474.98
535.03	24285.40
535.20	24109.86
535.37	24276.04
535.54	24168.37
535.71	24418.81
535.88	24264.33
536.05	24556.90
536.22	24709.04
536.38	24346.25
536.55	24474.98
536.72	24772.23
536.89	24552.22
537.06	24414.13
537.23	24833.08
537.40	24542.86
537.57	24877.55
537.74	24915.00
537.91	24882.24
538.08	24912.66
538.25	24854.15
538.42	24856.49
538.59	25020.33
538.75	24734.78
538.92	24814.36
539.09	25001.60
539.26	25310.55
539.43	25165.44
539.60	25270.76
539.77	24716.06
539.94	25160.76
540.11	25259.06
540.28	25181.82
540.44	25109.27
540.61	25252.04
540.78	25317.57
540.95	25252.04
541.12	25221.61
541.29	25214.59
541.46	25387.79
541.62	25352.68
541.79	25479.07
541.96	25226.29
542.13	25429.92
542.30	25383.11
542.47	25788.02
542.63	25612.48
542.80	25675.68
542.97	25963.56
543.14	25860.58
543.31	25713.13
543.48	25652.27
543.64	26199.96
543.81	26206.98
543.98	26185.91
544.15	26036.12
544.32	26359.11
544.48	26607.21
544.65	26106.34
544.82	26384.86
544.99	26038.46
545.16	26206.98
545.32	25989.31
545.49	26356.77
545.66	26536.99
545.83	26206.98
546.00	26316.98
546.16	25781.00
546.33	26253.79
546.50	26199.96
546.67	26466.78
546.83	26092.29
547.00	26506.57
547.17	26483.16
547.34	26597.85
547.50	26185.91
547.67	26906.80
547.84	26726.58
548.00	26675.09
548.17	27115.11
548.34	26867.01
548.51	26902.12
548.67	26497.20
548.84	26672.74
549.01	26546.36
549.18	26965.31
549.34	26796.79
549.51	26930.20
549.68	26693.81
549.84	26651.68
550.01	26916.16
550.18	26852.97
550.34	27009.78
550.51	26986.38
550.68	27152.55
550.84	26960.63
551.01	27108.08
551.18	26864.67
551.34	27040.21
551.51	27227.45
551.68	27197.02
551.84	27241.50
552.01	27562.15
552.18	27234.47
552.34	26768.71
552.51	27524.70
552.68	27129.15
552.84	27454.48
553.01	27433.42
553.18	27438.10
553.34	27548.11
553.51	27765.78
553.67	27742.37
553.84	27655.77
554.01	27882.80
554.17	27889.82
554.34	27353.84
554.51	27765.78
554.67	28037.28
554.84	27541.08
555.00	27536.40
555.17	27798.54
555.33	27995.15
555.50	27896.85
555.67	27779.82
555.83	27747.05
556.00	27594.92
556.16	27974.08
556.33	27880.46
556.50	27424.06
556.66	28056.00
556.83	27756.41
556.99	27924.93
557.16	27983.44
557.32	27667.47
557.49	28081.75
557.65	27817.27
557.82	27864.08
557.98	27798.54
558.15	28147.28
558.32	28521.77
558.48	27927.27
558.65	28048.98
558.81	28240.90
558.98	28278.35
559.14	27899.19
559.31	28285.37
559.47	28222.18
559.64	28048.98
559.80	28367.29
559.97	28788.59
560.13	28318.14
560.30	28158.99
560.46	28362.61
560.63	28285.37
560.79	28456.23
560.96	28271.33
561.12	28386.02
561.29	27988.13
561.45	28112.17
561.61	28381.34
561.78	28711.35
561.94	28238.56
562.11	28795.61
562.27	28767.52
562.44	28266.65
562.60	28690.29
562.77	28634.11
562.93	28734.76
563.10	28718.37
563.26	28329.84
563.42	29034.35
563.59	28327.50
563.75	28261.97
563.92	28589.64
564.08	28706.67
564.24	28627.09
564.41	28666.88
564.57	28919.66
564.74	28533.47
564.90	28706.67
565.07	28655.18
565.23	28503.04
565.39	28374.31
565.56	29076.48
565.72	28627.09
565.88	28678.58
566.05	28479.64
566.21	28596.67
566.38	28819.02
566.54	28570.92
566.70	28957.11
566.87	28795.61
567.03	28931.36
567.19	29106.90
567.36	29181.80
567.52	28922.00
567.68	28669.22
567.85	28931.36
568.01	29081.16
568.17	28776.89
568.34	28690.29
568.50	28893.91
568.66	28964.13
568.83	29015.62
568.99	29088.18
569.15	29167.76
569.32	29118.60
569.48	28503.04
569.64	28912.64
569.81	29343.30
569.97	29113.92
570.13	29104.56
570.30	28882.21
570.46	29142.01
570.62	28870.51
570.78	28673.90
570.95	28952.43
571.11	28800.29
571.27	28477.30
571.43	29097.54
571.60	29184.14
571.76	29205.20
571.92	29436.92
572.09	29015.62
572.25	29273.08
572.41	29277.76
572.57	29200.52
572.74	29575.01
572.90	28673.90
573.06	28910.30
573.22	29284.78
573.38	29102.22
573.55	28882.21
573.71	29436.92
573.87	29329.25
574.03	28919.66
574.20	28863.49
574.36	29230.95
574.52	29336.27
574.68	28823.70
574.84	29619.48
575.01	29355.00
575.17	29064.77
575.33	29139.67
575.49	29329.25
575.65	28891.57
575.82	29088.18
575.98	29127.97
576.14	29266.06
576.30	29160.73
576.46	29130.31
576.62	29071.79
576.79	29139.67
576.95	29441.60
577.11	29282.44
577.27	29600.76
577.43	29443.94
577.59	29500.11
577.75	29158.39
577.92	29223.93
578.08	28835.40
578.24	29099.88
578.40	29160.73
578.56	29504.79
578.72	29399.47
578.88	29750.55
579.04	29228.61
579.21	29139.67
579.37	29303.51
579.53	29324.57
579.69	29497.77
579.85	29046.05
580.01	29202.86
580.17	29102.22
580.33	28748.80
580.49	29191.16
580.65	29722.46
580.82	29429.90
580.98	29567.99
581.14	29289.46
581.30	29479.05
581.46	29024.98
581.62	29205.20
581.78	29408.83
581.94	29252.02
582.10	29301.17
582.26	29392.45
582.42	29415.85
582.58	29488.41
582.74	29453.30
582.90	29195.84
583.06	29312.87
583.22	29439.26
583.38	29411.17
583.54	29434.58
583.70	29125.63
583.86	29167.76
584.02	29153.71
584.18	29104.56
584.34	29851.19
584.50	29298.83
584.66	29383.09
584.82	29242.65
584.98	29144.35
585.14	29584.37
585.30	29542.24
585.46	29439.26
585.62	29235.63
585.78	29378.40
585.94	29195.84
586.10	29252.02
586.26	29670.97
586.42	29663.95
586.58	29472.03
586.74	29355.00
586.90	29200.52
587.06	29659.27
587.22	29486.07
587.38	29399.47
587.54	29467.34
587.70	29589.05
587.86	30103.97
588.02	29853.53
588.18	29773.95
588.34	29706.08
588.49	29221.59
588.65	29422.87
588.81	29263.72
588.97	29771.61
589.13	29432.24
589.29	29621.82
589.45	29228.61
589.61	29556.28
589.77	29979.92
589.93	29872.26
590.08	29895.66
590.24	30008.01
590.40	29687.36
590.56	29951.84
590.72	29656.93
590.88	29497.77
591.04	29525.86
591.20	29813.74
591.35	29706.08
591.51	30291.21
591.67	29727.14
591.83	30022.05
591.99	30073.54
592.15	29642.88
592.31	29996.31
592.46	29507.13
592.62	29858.21
592.78	29635.86
592.94	29865.24
593.10	30106.31
593.26	29865.24
593.41	29617.14
593.57	29324.57
593.73	30064.18
593.89	29993.97
594.05	29729.48
594.20	29893.32
594.36	30155.46
594.52	29579.69
594.68	29570.33
594.84	29656.93
594.99	29799.70
595.15	29663.95
595.31	29886.30
595.47	29750.55
595.62	30146.10
595.78	30066.52
595.94	29813.74
596.10	29886.30
596.25	29776.30
596.41	29736.51
596.57	29453.30
596.73	29879.28
596.88	29692.04
597.04	30015.03
597.20	29715.44
597.36	30272.49
597.51	30288.87
597.67	29993.97
597.83	29706.08
597.99	30335.68
598.14	29544.58
598.30	30237.38
598.46	29921.41
598.61	30000.99
598.77	29652.25
598.93	30335.68
599.09	29804.38
599.24	30045.46
599.40	30263.13
599.56	30174.19
599.71	30345.05
599.87	29577.35
600.03	29813.74
600.18	29722.46
600.34	30008.01
600.50	29750.55
600.65	29989.28
600.81	30113.33
600.97	30342.70
601.12	30347.39
601.28	30302.92
601.44	30277.17
601.59	30302.92
601.75	30005.67
601.91	30323.98
602.06	29886.30
602.22	30169.51
602.37	29673.31
602.53	29860.55
602.69	30326.32
602.84	30190.57
603.00	30143.76
603.16	30003.33
603.31	29886.30
603.47	30148.44
603.62	30239.72
603.78	30071.20
603.94	30092.27
604.09	30391.86
604.25	30120.35
604.40	29874.60
604.56	30118.01
604.71	30073.54
604.87	29764.59
605.03	30143.76
605.18	30160.14
605.34	29968.22
605.49	29912.05
605.65	29986.94
605.80	29696.72
605.96	29893.32
606.12	29940.13
606.27	29886.30
606.43	29890.98
606.58	30277.17
606.74	29621.82
606.89	29902.68
607.05	30462.07
607.20	30101.63
607.36	29481.39
607.51	29722.46
607.67	29593.73
607.82	29771.61
607.98	30057.16
608.13	30005.67
608.29	29570.33
608.44	29743.53
608.60	29486.07
608.75	29907.37
608.91	30265.47
609.06	29888.64
609.22	30342.70
609.37	29284.78
609.53	29605.44
609.68	29565.65
609.84	29589.05
609.99	29647.57
610.15	29567.99
610.30	29715.44
610.46	29448.62
610.61	29486.07
610.76	29844.17
610.92	29708.42
611.07	29504.79
611.23	29888.64
611.38	29336.27
611.54	29415.85
611.69	29450.96
611.84	29575.01
612.00	29457.98
612.15	29668.63
612.31	29879.28
612.46	29572.67
612.62	29916.73
612.77	29329.25
612.92	29596.07
613.08	29247.33
613.23	29486.07
613.39	29572.67
613.54	29619.48
613.69	29256.70
613.85	29380.74
614.00	29359.68
614.15	29811.40
614.31	29467.34
614.46	29738.85
614.62	29357.34
614.77	29315.21
614.92	29680.33
615.08	29127.97
615.23	29235.63
615.38	29462.66
615.54	28783.91
615.69	29521.18
615.84	28842.42
616.00	29003.92
616.15	29371.38
616.30	29209.89
616.46	29142.01
616.61	29158.39
616.76	29523.52
616.92	29308.19
617.07	29048.39
617.22	29259.04
617.37	28856.46
617.53	29032.00
617.68	29362.02
617.83	29097.54
617.99	29076.48
618.14	29174.78
618.29	29088.18
618.45	29303.51
618.60	28884.55
618.75	28996.90
618.90	28929.02
619.06	29315.21
619.21	28769.86
619.36	29460.32
619.51	28882.21
619.67	28802.63
619.82	28844.76
619.97	28809.65
620.12	28666.88
620.28	28435.17
620.43	29001.58
620.58	28907.96
620.73	28952.43
620.89	28875.19
621.04	28926.68
621.19	28718.37
621.34	28709.01
621.49	28587.30
621.65	28437.51
621.80	28690.29
621.95	28641.14
622.10	28584.96
622.25	29041.37
622.41	28545.17
622.56	28388.36
622.71	28627.09
622.86	28620.07
623.01	28692.63
623.16	28500.70
623.32	28257.29
623.47	28348.57
623.62	28526.45
623.77	28606.03
623.92	28559.22
624.07	28102.81
624.23	28259.63
624.38	28027.92
624.53	28479.64
624.68	28528.79
624.83	28683.27
624.98	28449.21
625.13	28453.89
625.29	28610.71
625.44	28624.75
625.59	28252.61
625.74	28341.55
625.89	28140.26
626.04	28102.81
626.19	28126.22
626.34	28215.16
626.49	28109.83
626.65	27800.88
626.80	28533.47
626.95	27957.70
627.10	27931.95
627.25	27983.44
627.40	27931.95
627.55	27913.23
627.70	27590.24
627.85	27775.14
628.00	27789.18
628.15	28051.32
628.30	27501.29
628.45	28187.07
628.60	27791.52
628.76	27618.32
628.91	27861.74
629.06	27690.88
629.21	27765.78
629.36	28273.67
629.51	28058.34
629.66	27976.42
629.81	27791.52
629.96	27431.08
630.11	27707.26
630.26	27793.86
630.41	27733.01
630.56	27807.90
630.71	27648.75
630.86	27733.01
631.01	27711.94
631.16	27704.92
631.31	27342.14
631.46	27580.87
631.61	27974.08
631.76	27527.04
631.91	27302.35
632.06	27672.15
632.21	27470.87
632.36	27325.75
632.51	27431.08
632.66	27323.41
632.81	27199.37
632.96	27754.07
633.10	27370.22
633.25	27136.17
633.40	27536.40
633.55	27494.27
633.70	27201.71
633.85	26885.73
634.00	26785.09
634.15	27447.46
634.30	27108.08
634.45	27229.79
634.60	27101.06
634.75	27569.17
634.90	27030.85
635.05	27424.06
635.19	27124.47
635.34	27049.57
635.49	27381.93
635.64	27201.71
635.79	27440.44
635.94	26946.59
636.09	27229.79
636.24	26824.88
636.39	26932.54
636.53	26878.71
636.68	26504.23
636.83	26888.07
636.98	27363.20
637.13	26916.16
637.28	26930.20
637.43	26656.36
637.57	26897.44
637.72	26852.97
637.87	26958.29
638.02	26904.46
638.17	26864.67
638.32	26354.43
638.46	26689.13
638.61	26569.76
638.76	26300.60
638.91	26728.92
639.06	26810.84
639.20	26668.06
639.35	26850.63
639.50	26698.49
639.65	27220.43
639.80	26855.31
639.94	26787.43
640.09	27005.10
640.24	26527.63
640.39	26532.31
640.54	26352.09
640.68	26466.78
640.83	26649.34
640.98	26195.28
641.13	26120.38
641.27	26415.29
641.42	26572.10
641.57	26263.15
641.72	26555.72
641.86	25989.31
642.01	26188.25
642.16	26799.13
642.31	26183.57
642.45	26473.80
642.60	26026.76
642.75	26001.01
642.90	25935.48
643.04	26082.93
643.19	26335.71
643.34	26176.55
643.48	26300.60
643.63	26644.66
643.78	26153.15
643.93	26155.49
644.07	26288.90
644.22	26288.90
644.37	26115.70
644.51	26223.36
644.66	25652.27
644.81	25961.22
644.95	25998.67
645.10	25649.93
645.25	25979.95
645.39	25694.40
645.54	26174.21
645.69	25982.29
645.83	25762.28
645.98	26038.46
646.13	25970.58
646.27	25893.35
646.42	26244.43
646.57	25944.84
646.71	25818.45
646.86	26190.59
647.00	25940.16
647.15	25986.97
647.30	25979.95
647.44	25436.94
647.59	25717.81
647.74	26125.06
647.88	25785.68
648.03	25979.95
648.17	25577.37
648.32	26139.10
648.47	25663.97
648.61	25722.49
648.76	25703.76
648.90	25876.96
649.05	25977.61
649.20	25654.61
649.34	25638.23
649.49	25490.77
649.63	25553.97
649.78	25649.93
649.92	25303.53
650.07	25692.06
650.21	25329.28
650.36	25584.40
650.51	25429.92
650.65	25502.48
650.80	25390.13
650.94	25507.16
651.09	25083.52
651.23	25263.74
651.38	25191.19
651.52	25373.75
651.67	25163.10
651.81	25450.99
651.96	25535.24
652.10	25273.10
652.25	25010.96
652.39	25502.48
652.54	25422.90
652.68	25441.62
652.83	25139.69
652.97	25827.81
653.12	25411.20
653.26	24929.05
653.41	25069.48
653.55	25149.06
653.70	24833.08
653.84	25132.67
653.99	25305.87
654.13	25106.93
654.27	24938.41
654.42	25106.93
654.56	25074.16
654.71	25149.06
654.85	25118.63
655.00	24863.51
655.14	24760.53
655.29	25057.78
655.43	25135.01
655.57	24814.36
655.72	24800.32
655.86	24905.64
656.01	24659.88
656.15	24936.07
656.30	25036.71
656.44	24706.70
656.58	24482.00
656.73	24797.98
656.87	24631.80
657.01	24655.20
657.16	24547.54
657.30	24889.26
657.45	24772.23
657.59	24872.87
657.73	24580.31
657.88	24423.49
658.02	24311.14
658.16	24666.91
658.31	24269.01
658.45	24381.36
658.60	24231.57
658.74	24379.02
658.88	24599.03
659.03	24247.95
659.17	24379.02
659.31	24547.54
659.46	24329.87
659.60	24489.03
659.74	24297.10
659.89	24254.97
660.03	24182.42
660.17	24016.24
660.32	23775.16
660.46	23740.05
660.60	23859.42
660.74	23672.18
660.89	23934.32
661.03	23810.27
661.17	23995.17
661.32	23583.24
661.46	23866.44
661.60	24079.43
661.74	23875.80
661.89	24020.92
662.03	24151.99
662.17	23943.68
662.31	23784.52
662.46	24072.41
662.60	23833.68
662.74	23845.38
662.88	23496.64
663.03	23550.47
663.17	23583.24
663.31	23164.28
663.45	23051.94
663.60	23358.55
663.74	23023.85
663.88	23084.70
664.02	23222.80
664.17	23417.06
664.31	23243.86
664.45	23489.62
664.59	23157.26
664.73	23353.87
664.88	23021.51
665.02	22920.87
665.16	23077.68
665.30	23026.19
665.44	22789.80
665.59	22705.54
665.73	22604.89
665.87	22850.65
666.01	22841.29
666.15	22902.14
666.29	22602.55
666.44	22822.56
666.58	22817.88
666.72	22576.81
666.86	23063.64
667.00	22843.63
667.14	22684.47
667.28	22621.28
667.43	22602.55
667.57	22658.73
667.71	22298.28
667.85	22417.65
667.99	22621.28
668.13	22370.84
668.27	22080.61
668.41	22733.62
668.56	22216.36
668.70	22560.42
668.84	22317.01
668.98	22328.71
669.12	22141.47
669.26	22445.74
669.40	22040.82
669.54	22366.16
669.68	22132.11
669.82	21853.58
669.96	21867.63
670.10	21919.12
670.25	21902.73
670.39	22366.16
670.53	21862.94
670.67	21549.31
670.81	21844.22
670.95	22099.34
671.09	21895.71
671.23	22040.82
671.37	22185.94
671.51	21673.36
671.65	21935.50
671.79	21954.22
671.93	21621.87
672.07	21673.36
672.21	21261.43
672.35	21366.75
672.49	21120.99
672.63	21661.66
672.77	21104.61
672.91	20966.52
673.05	21195.89
673.19	20973.54
673.33	21097.59
673.47	21099.93
673.61	21341.00
673.75	20950.14
673.89	20924.39
674.03	21048.44
674.17	21069.50
674.31	21013.33
674.45	20854.17
674.59	20823.75
674.73	20767.57
674.87	20842.47
675.01	20908.01
675.15	20599.05
675.29	20435.22
675.43	20231.59
675.56	20255.00
675.70	20350.96
675.84	20407.13
675.98	20058.39
676.12	20386.07
676.26	20748.85
676.40	20037.33
676.54	20327.55
676.68	20428.20
676.82	19833.70
676.96	20009.24
677.10	19913.28
677.23	19609.01
677.37	19578.58
677.51	19520.07
677.65	19822.00
677.79	19454.53
677.93	19286.01
678.07	19459.21
678.21	19466.24
678.34	19211.12
678.48	19372.61
678.62	19232.18
678.76	19246.23
678.90	19117.50
679.04	19056.64
679.18	19145.58
679.31	18693.86
679.45	18869.40
679.59	18871.74
679.73	19030.90
679.87	18668.11
680.00	18630.66
680.14	18590.88
680.28	18871.74
680.42	18422.36
680.56	18214.05
680.70	18888.12
680.83	18448.10
680.97	18405.97
681.11	18513.64
681.25	18349.80
681.39	18548.75
681.52	18326.39
681.66	18082.98
681.80	17830.20
681.94	18111.07
682.07	18157.88
682.21	17865.31
682.35	17619.55
682.49	17675.73
682.62	17806.80
682.76	17905.10
682.90	17804.46
683.04	17720.20
683.17	17839.56
683.31	17923.82
683.45	17558.70
683.59	17575.08
683.72	17415.93
683.86	17252.09
684.00	17472.10
684.13	17364.43
684.27	17209.96
684.41	17156.13
684.55	16908.03
684.68	17102.29
684.82	16823.77
684.96	16821.43
685.09	16793.34
685.23	16727.81
685.37	16723.13
685.50	16737.17
685.64	16435.24
685.78	16819.09
685.91	16807.39
686.05	16652.91
686.19	16582.70
686.32	16219.91
686.46	16257.36
686.60	16208.21
686.73	16432.90
686.87	16175.44
687.01	16109.91
687.14	16053.73
687.28	15920.32
687.42	15850.11
687.55	15826.70
687.69	15793.94
687.82	15768.19
687.96	15552.86
688.10	15609.03
688.23	15522.43
688.37	15545.84
688.50	15665.21
688.64	15749.46
688.78	15286.04
688.91	15396.04
689.05	15323.49
689.18	15183.06
689.32	15009.86
689.46	15136.24
689.59	15239.23
689.73	15066.03
689.86	14824.95
690.00	15009.86
690.13	14927.94
690.27	15190.08
690.41	14927.94
690.54	15136.24
690.68	14927.94
690.81	14544.09
690.95	14857.72
691.08	14600.26
691.22	14539.41
691.35	14551.11
691.49	14457.49
691.62	14532.39
691.76	14190.67
691.89	14303.01
692.03	14033.85
692.16	13954.27
692.30	13980.02
692.43	14073.64
692.57	13912.14
692.70	13790.44
692.84	13837.25
692.97	13811.50
693.11	14092.37
693.24	13635.96
693.38	13530.64
693.51	13504.89
693.65	13617.24
693.78	13729.58
693.92	13696.82
694.05	13474.46
694.19	13371.48
694.32	13364.46
694.45	13415.95
694.59	13170.19
694.72	12973.59
694.86	12854.22
694.99	12690.38
695.13	12964.23
695.26	12952.52
695.39	12779.32
695.53	12847.20
695.66	12933.80
695.80	12809.75
695.93	13170.19
696.07	12748.90
696.20	12730.17
696.33	12741.88
696.47	12606.13
696.60	12641.23
696.73	12276.11
696.87	12421.22
697.00	12397.82
697.14	12159.08
697.27	12166.10
697.40	12187.17
697.54	11910.99
697.67	12079.50
697.80	12013.97
697.94	11981.20
698.07	11800.98
698.21	11571.61
698.34	12147.38
698.47	11936.73
698.61	11793.96
698.74	11894.60
698.87	11808.00
699.01	11789.28
699.14	11557.57
699.27	11433.52
699.40	11403.09
699.54	11559.91
699.67	11382.03
699.80	11194.78
699.94	11166.70
700.07	11356.28
700.20	11059.03
700.34	11030.94
700.47	11143.29
700.60	10995.84
700.73	11218.19
700.87	10977.11
701.00	10890.51
701.13	10806.25
701.26	10839.02
701.40	10862.43
701.53	10817.96
701.66	10712.63
701.79	10799.23
701.93	10651.78
702.06	10569.86
702.19	10424.75
702.32	10410.70
702.46	10277.29
702.59	10160.27
702.72	10214.10
702.85	10307.72
702.99	10078.35
703.12	10085.37
703.25	10260.91
703.38	9888.76
703.51	9994.09
703.65	10045.58
703.78	10033.88
703.91	10125.16
704.04	9958.98
704.17	10134.52
704.31	9856.00
704.44	9811.53
704.57	9762.37
704.70	9664.07
704.83	9511.94
704.96	9427.68
705.10	9411.29
705.23	9378.53
>>>>>End Processed Spectral Data<<<<<
