SpectraSuite Data File
++++++++++++++++++++++++++++++++++++
Date: Fri Oct 18 13:58:00 GMT-05:00 2013
User: bianchi
Dark Spectrum Present: No
Reference Spectrum Present: No
Number of Sampled Component Spectra: 1
Spectrometers: USB2+H05261
Integration Time (usec): 50000 (USB2+H05261)
Spectra Averaged: 1 (USB2+H05261)
Boxcar Smoothing: 0 (USB2+H05261)
Correct for Electrical Dark: No (USB2+H05261)
Strobe/Lamp Enabled: No (USB2+H05261)
Correct for Detector Non-linearity: No (USB2+H05261)
Correct for Stray Light: No (USB2+H05261)
Number of Pixels in Processed Spectrum: 2048
>>>>>Begin Processed Spectral Data<<<<<
365.73	0.00
365.92	0.00
366.12	0.00
366.32	0.00
366.52	0.00
366.72	0.00
366.91	0.00
367.11	0.00
367.31	0.00
367.51	0.00
367.70	0.00
367.90	0.00
368.10	0.00
368.30	0.00
368.49	0.00
368.69	0.00
368.89	0.00
369.09	0.00
369.28	0.00
369.48	0.00
369.68	0.00
369.87	0.00
370.07	0.00
370.27	0.00
370.47	0.00
370.66	74.90
370.86	140.43
371.06	74.90
371.25	105.32
371.45	98.30
371.65	107.66
371.84	163.84
372.04	161.50
372.24	135.75
372.44	131.07
372.63	196.60
372.83	224.69
373.03	187.24
373.22	140.43
373.42	194.26
373.62	220.01
373.81	250.44
374.01	243.42
374.21	245.76
374.40	257.46
374.60	386.19
374.79	238.73
374.99	217.67
375.19	191.92
375.38	198.95
375.58	259.80
375.78	257.46
375.97	280.86
376.17	271.50
376.37	271.50
376.56	266.82
376.76	280.86
376.95	189.58
377.15	280.86
377.35	227.03
377.54	318.31
377.74	187.24
377.93	278.52
378.13	224.69
378.33	248.10
378.52	245.76
378.72	269.16
378.91	201.29
379.11	229.37
379.31	315.97
379.50	287.89
379.70	304.27
379.89	250.44
380.09	301.93
380.28	276.18
380.48	320.65
380.68	313.63
380.87	332.36
381.07	252.78
381.26	334.70
381.46	344.06
381.65	250.44
381.85	269.16
382.04	322.99
382.24	313.63
382.43	430.66
382.63	337.04
382.83	330.02
383.02	414.27
383.22	362.78
383.41	262.14
383.61	376.83
383.80	353.42
384.00	341.72
384.19	367.46
384.39	353.42
384.58	372.15
384.78	362.78
384.97	468.11
385.17	348.74
385.36	421.30
385.56	395.55
385.75	383.85
385.95	444.70
386.14	449.38
386.34	360.44
386.53	362.78
386.72	416.62
386.92	311.29
387.11	428.32
387.31	358.10
387.50	348.74
387.70	381.51
387.89	397.89
388.09	468.11
388.28	418.96
388.48	561.73
388.67	444.70
388.86	470.45
389.06	451.72
389.25	528.96
389.45	400.23
389.64	433.00
389.84	496.19
390.03	484.49
390.22	475.13
390.42	507.90
390.61	388.53
390.81	479.81
391.00	498.53
391.19	526.62
391.39	540.66
391.58	505.56
391.78	514.92
391.97	503.22
392.16	528.96
392.36	489.17
392.55	580.45
392.75	533.64
392.94	557.05
393.13	547.69
393.33	512.58
393.52	514.92
393.71	557.05
393.91	564.07
394.10	550.03
394.29	615.56
394.49	571.09
394.68	603.86
394.88	622.58
395.07	578.11
395.26	564.07
395.46	596.84
395.65	629.60
395.84	599.18
396.04	688.12
396.23	685.78
396.42	641.31
396.62	606.20
396.81	669.39
397.00	767.70
397.19	643.65
397.39	683.44
397.58	688.12
397.77	683.44
397.97	603.86
398.16	636.63
398.35	622.58
398.55	674.07
398.74	744.29
398.93	690.46
399.12	648.33
399.32	671.73
399.51	732.59
399.70	772.38
399.90	688.12
400.09	739.61
400.28	779.40
400.47	805.14
400.67	786.42
400.86	718.54
401.05	840.25
401.24	856.64
401.44	798.12
401.63	800.46
401.82	725.57
402.01	795.78
402.21	816.85
402.40	868.34
402.59	887.06
402.78	814.51
402.97	833.23
403.17	882.38
403.36	898.77
403.55	894.08
403.74	922.17
403.93	940.90
404.13	880.04
404.32	814.51
404.51	908.13
404.70	945.58
404.89	882.38
405.09	833.23
405.28	971.32
405.47	945.58
405.66	922.17
405.85	987.71
406.05	889.40
406.24	1020.47
406.43	1029.84
406.62	1015.79
406.81	1025.15
407.00	1076.65
407.20	997.07
407.39	1060.26
407.58	1081.33
407.77	1102.39
407.96	1107.07
408.15	1095.37
408.34	1060.26
408.54	1069.62
408.73	1184.31
408.92	1078.99
409.11	1116.44
409.30	1055.58
409.49	1142.18
409.68	1132.82
409.87	1144.52
410.07	1156.22
410.26	1116.44
410.45	1139.84
410.64	1242.82
410.83	1245.16
411.02	1254.53
411.21	1310.70
411.40	1121.12
411.59	1247.51
411.78	1193.67
411.98	1181.97
412.17	1158.57
412.36	1200.69
412.55	1310.70
412.74	1301.34
412.93	1315.38
413.12	1327.08
413.31	1378.58
413.50	1390.28
413.69	1310.70
413.88	1439.43
414.07	1394.96
414.26	1507.30
414.45	1441.77
414.64	1364.53
414.83	1385.60
415.02	1544.75
415.22	1432.41
415.41	1626.67
415.60	1551.78
415.79	1542.41
415.98	1490.92
416.17	1540.07
416.36	1629.01
416.55	1516.67
416.74	1636.03
416.93	1668.80
417.12	1713.27
417.31	1743.70
417.50	1645.40
417.69	1736.68
417.88	1706.25
418.07	1680.50
418.26	1797.53
418.45	1732.00
418.64	1776.47
418.83	1788.17
419.02	1767.10
419.21	1675.82
419.39	1851.36
419.58	1753.06
419.77	1736.68
419.96	1781.15
420.15	1832.64
420.34	1898.17
420.53	1860.73
420.72	1895.83
420.91	2017.54
421.10	1909.88
421.29	1944.99
421.48	1923.92
421.67	1914.56
421.86	1907.54
422.05	2052.65
422.24	1930.94
422.43	1989.46
422.61	1947.33
422.80	1898.17
422.99	1982.43
423.18	1895.83
423.37	2054.99
423.56	2113.50
423.75	2036.27
423.94	1961.37
424.13	1884.13
424.32	1823.28
424.50	1970.73
424.69	2001.16
424.88	2092.44
425.07	2001.16
425.26	1933.28
425.45	2118.18
425.64	2022.22
425.83	1907.54
426.01	2108.82
426.20	2047.97
426.39	2031.58
426.58	1968.39
426.77	2062.01
426.96	2064.35
427.15	2087.76
427.33	2157.97
427.52	2120.53
427.71	2148.61
427.90	2022.22
428.09	2094.78
428.28	2087.76
428.46	2101.80
428.65	2062.01
428.84	2314.79
429.03	2214.15
429.22	2239.89
429.40	2232.87
429.59	2267.98
429.78	2223.51
429.97	2155.63
430.16	2183.72
430.34	2263.30
430.53	2321.81
430.72	2312.45
430.91	2375.64
431.10	2399.05
431.28	2380.32
431.47	2328.83
431.66	2349.90
431.85	2396.71
432.03	2387.35
432.22	2450.54
432.41	2429.48
432.60	2359.26
432.79	2401.39
432.97	2443.52
433.16	2574.59
433.35	2438.84
433.54	2424.80
433.72	2530.12
433.91	2403.73
434.10	2525.44
434.28	2616.72
434.47	2473.95
434.66	2579.27
434.85	2548.84
435.03	2502.03
435.22	2576.93
435.41	2658.85
435.59	2593.31
435.78	2607.36
435.97	2644.81
436.16	2614.38
436.34	2626.08
436.53	2733.75
436.72	2841.41
436.90	2572.25
437.09	2644.81
437.28	2722.04
437.46	2724.38
437.65	2808.64
437.84	2778.22
438.02	2757.15
438.21	2719.70
438.40	2698.64
438.58	2946.73
438.77	2860.13
438.96	2815.66
439.14	2974.82
439.33	2885.88
439.52	2937.37
439.70	2850.77
439.89	2995.89
440.08	2867.16
440.26	3047.38
440.45	2946.73
440.63	3075.46
440.82	3178.45
441.01	3068.44
441.19	2995.89
441.38	3026.31
441.57	3169.09
441.75	3234.62
441.94	3370.37
442.12	3201.85
442.31	3375.05
442.50	3262.71
442.68	3274.41
442.87	3358.67
443.05	3351.65
443.24	3445.27
443.43	3286.11
443.61	3417.18
443.80	3478.04
443.98	3363.35
444.17	3363.35
444.35	3375.05
444.54	3428.88
444.73	3417.18
444.91	3403.14
445.10	3407.82
445.28	3522.51
445.47	3339.94
445.65	3463.99
445.84	3337.60
446.02	3386.76
446.21	3428.88
446.39	3414.84
446.58	3538.89
446.77	3431.23
446.95	3353.99
447.14	3433.57
447.32	3473.36
447.51	3545.91
447.69	3452.29
447.88	3403.14
448.06	3442.93
448.25	3456.97
448.43	3648.90
448.62	3555.27
448.80	3499.10
448.99	3602.08
449.17	3389.10
449.36	3501.44
449.54	3606.77
449.73	3597.40
449.91	3674.64
450.10	3550.59
450.28	3763.58
450.46	3775.28
450.65	3658.26
450.83	3845.50
451.02	3791.67
451.20	3786.99
451.39	3660.60
451.57	3559.95
451.76	3819.75
451.94	3866.56
452.13	3815.07
452.31	3768.26
452.49	3714.43
452.68	3836.14
452.86	3737.84
453.05	3826.78
453.23	3971.89
453.42	3812.73
453.60	3908.69
453.78	3899.33
453.97	3822.09
454.15	3927.42
454.34	3997.64
454.52	4035.08
454.70	3955.51
454.89	4018.70
455.07	4056.15
455.26	4063.17
455.44	4049.13
455.62	4100.62
455.81	4051.47
455.99	4102.96
456.17	4156.79
456.36	4086.58
456.54	4236.37
456.73	4140.41
456.91	4280.84
457.09	4341.69
457.28	4308.93
457.46	4369.78
457.64	4229.35
457.83	4400.21
458.01	4257.43
458.19	4353.40
458.38	4241.05
458.56	4470.42
458.74	4414.25
458.93	4308.93
459.11	4322.97
459.29	4493.83
459.48	4601.49
459.66	4414.25
459.84	4624.90
460.03	4608.51
460.21	4528.94
460.39	4461.06
460.57	4411.91
460.76	4440.00
460.94	4652.98
461.12	4592.13
461.31	4599.15
461.49	4519.57
461.67	4535.96
461.85	4683.41
462.04	4592.13
462.22	5097.69
462.40	4720.86
462.59	4685.75
462.77	4828.53
462.95	4734.90
463.13	4723.20
463.32	4734.90
463.50	4821.50
463.68	4760.65
463.86	4699.80
464.05	4676.39
464.23	4692.77
464.41	4844.91
464.59	4798.10
464.78	4821.50
464.96	4793.42
465.14	4912.78
465.32	4884.70
465.50	4915.12
465.69	4873.00
465.87	5139.82
466.05	4954.91
466.23	4999.38
466.41	4894.06
466.60	5174.92
466.78	5015.77
466.96	5083.64
467.14	4994.70
467.32	4915.12
467.51	5198.33
467.69	5074.28
467.87	5022.79
468.05	5167.90
468.23	5146.84
468.41	5076.62
468.60	5034.49
468.78	5268.55
468.96	5123.43
469.14	5399.62
469.32	5310.68
469.50	5111.73
469.69	5210.03
469.87	5240.46
470.05	5427.70
470.23	5313.02
470.41	5469.83
470.59	5273.23
470.77	5219.39
470.95	5430.04
471.14	5591.54
471.32	5355.15
471.50	5593.88
471.68	5582.18
471.86	5523.66
472.04	5671.12
472.22	5640.69
472.40	5638.35
472.58	5710.91
472.77	5678.14
472.95	5825.59
473.13	5928.58
473.31	5741.33
473.49	5713.25
473.67	5879.43
473.85	5888.79
474.03	5975.39
474.21	5839.64
474.39	5994.11
474.57	6139.23
474.75	6448.18
474.93	6047.94
475.12	6064.33
475.30	6090.07
475.48	6085.39
475.66	6282.00
475.84	6164.97
476.02	6455.20
476.20	6232.85
476.38	6251.57
476.56	6600.31
476.74	6516.05
476.92	6431.79
477.10	6509.03
477.28	6604.99
477.46	6614.35
477.64	6693.93
477.82	6672.87
478.00	6918.62
478.18	6906.92
478.36	6834.36
478.54	6740.74
478.72	6965.43
478.90	6988.84
479.08	7098.84
479.26	7276.73
479.44	7351.62
479.62	7328.22
479.80	7428.86
479.98	7363.33
480.16	7405.46
480.34	7543.55
480.52	7665.25
480.70	7609.08
480.88	7585.68
481.06	7733.13
481.24	7749.51
481.41	7559.93
481.59	8049.10
481.77	7859.52
481.95	8105.28
482.13	7939.10
482.31	7932.08
482.49	8416.57
482.67	8259.75
482.85	8369.76
483.03	8383.80
483.21	8531.25
483.39	8444.65
483.57	8521.89
483.74	8746.58
483.92	8489.12
484.10	8671.68
484.28	8959.57
484.46	9144.47
484.64	9235.75
484.82	8835.52
485.00	8980.64
485.18	9102.34
485.35	9528.32
485.53	9549.39
485.71	9469.81
485.89	9703.86
486.07	9455.76
486.25	9727.27
486.43	9650.03
486.61	9820.89
486.78	9525.98
486.96	9650.03
487.14	10108.77
487.32	10052.60
487.50	9949.62
487.68	10237.50
487.85	10286.65
488.03	10434.11
488.21	10413.04
488.39	10569.86
488.57	10406.02
488.75	10476.24
488.92	10874.13
489.10	10913.92
489.28	10890.51
489.46	11185.42
489.64	10839.02
489.81	11154.99
489.99	11232.23
490.17	11283.72
490.35	11194.78
490.53	11290.74
490.70	11510.75
490.88	11520.12
491.06	11583.31
491.24	11695.66
491.41	11747.15
491.59	11808.00
491.77	11859.49
491.95	12039.72
492.13	12290.15
492.30	12123.98
492.48	12336.96
492.66	12194.19
492.84	12128.66
493.01	12479.74
493.19	12428.24
493.37	12594.42
493.54	12489.10
493.72	12655.28
493.90	12943.16
494.08	12737.20
494.25	12769.96
494.43	13139.77
494.61	13207.64
494.79	13181.90
494.96	13209.98
495.14	13209.98
495.32	13359.78
495.49	13565.74
495.67	13561.06
495.85	13855.97
496.02	13561.06
496.20	13757.67
496.38	13802.14
496.55	13891.08
496.73	14101.73
496.91	14368.55
497.09	14197.69
497.26	14333.44
497.44	14230.46
497.62	13886.40
497.79	14656.43
497.97	14530.05
498.14	14743.03
498.32	14689.20
498.50	14813.25
498.67	14850.70
498.85	14623.67
499.03	14888.15
499.20	14897.51
499.38	15187.74
499.56	15157.31
499.73	15070.71
499.91	15346.89
500.08	15227.53
500.26	15178.37
500.44	15227.53
500.61	15028.58
500.79	15089.43
500.97	15360.94
501.14	15927.35
501.32	15929.69
501.49	15962.45
501.67	15667.55
501.84	15573.92
502.02	16149.70
502.20	15946.07
502.37	16236.30
502.55	16095.86
502.72	15999.90
502.90	16266.72
503.07	16037.35
503.25	16271.40
503.43	16229.27
503.60	16437.58
503.78	16695.04
503.95	16510.14
504.13	16683.34
504.30	16521.84
504.48	16669.30
504.65	16622.48
504.83	16854.20
505.01	16898.67
505.18	16952.50
505.36	16926.75
505.53	16851.86
505.71	16870.58
505.88	17268.47
506.06	16994.63
506.23	17228.68
506.41	17312.94
506.58	17436.99
506.76	17422.95
506.93	17392.52
507.11	17635.94
507.28	17493.16
507.46	17312.94
507.63	17518.91
507.81	17755.30
507.98	17774.03
508.16	17799.77
508.33	17509.55
508.50	17834.88
508.68	17947.23
508.85	18317.03
509.03	18061.91
509.20	17954.25
509.38	18150.85
509.55	18057.23
509.73	18164.90
509.90	18359.16
510.08	18244.48
510.25	18469.17
510.42	18532.36
510.60	18597.90
510.77	18892.80
510.95	18635.35
511.12	18747.69
511.30	18396.61
511.47	18642.37
511.64	18712.58
511.82	18773.44
511.99	18743.01
512.17	19227.50
512.34	18944.30
512.51	18979.40
512.69	19225.16
512.86	19255.59
513.04	19241.54
513.21	19300.06
513.38	19442.83
513.56	19641.78
513.73	19108.13
513.90	19440.49
514.08	19536.45
514.25	19620.71
514.43	19410.06
514.60	19765.82
514.77	19531.77
514.95	19721.35
515.12	19648.80
515.29	19777.53
515.47	19943.70
515.64	19777.53
515.81	19946.05
515.99	20360.32
516.16	20156.69
516.33	20091.16
516.51	20615.44
516.68	19908.60
516.85	20198.82
517.03	20243.29
517.20	20208.19
517.37	20336.91
517.54	20486.71
517.72	20411.81
517.89	20446.92
518.06	20472.67
518.24	20458.62
518.41	20556.93
518.58	20762.89
518.75	20741.83
518.93	20889.28
519.10	20699.70
519.27	20856.51
519.45	20872.90
519.62	20947.79
519.79	21055.46
519.96	21118.65
520.14	21390.16
520.31	21053.12
520.48	21191.21
520.65	21303.56
520.83	21425.26
521.00	21516.54
521.17	21319.94
521.34	21373.77
521.52	21429.94
521.69	21404.20
521.86	21596.12
522.03	21549.31
522.20	21687.40
522.38	21764.64
522.55	21575.06
522.72	21762.30
522.89	21493.14
523.07	21954.22
523.24	21848.90
523.41	21816.13
523.58	22005.72
523.75	22204.66
523.92	21994.01
524.10	22075.93
524.27	22298.28
524.44	22380.20
524.61	22359.14
524.78	22450.42
524.96	22469.14
525.13	22422.33
525.30	22555.74
525.47	22515.95
525.64	22405.95
525.81	22508.93
525.98	22892.78
526.16	22806.18
526.33	22520.63
526.50	22883.42
526.67	22480.85
526.84	22478.50
527.01	22815.54
527.18	22820.22
527.36	22970.02
527.53	22979.38
527.70	22838.95
527.87	23175.98
528.04	22864.69
528.21	22717.24
528.38	23180.67
528.55	23388.97
528.72	23391.31
528.89	23040.23
529.07	23302.37
529.24	23239.18
529.41	23421.74
529.58	23470.89
529.75	23555.15
529.92	23349.18
530.09	23482.59
530.26	23538.77
530.43	23756.44
530.60	23580.90
530.77	23718.99
530.94	23763.46
531.11	23506.00
531.28	23838.36
531.46	23983.47
531.63	24102.84
531.80	23873.46
531.97	23819.63
532.14	23868.78
532.31	24009.22
532.48	23962.40
532.65	24198.80
532.82	24084.11
532.99	23946.02
533.16	23981.13
533.33	24189.44
533.50	24561.58
533.67	24201.14
533.84	23854.74
534.01	24306.46
534.18	24091.13
534.35	24336.89
534.52	24435.19
534.69	24545.20
534.86	24816.70
535.03	24484.34
535.20	24697.33
535.37	24774.57
535.54	24367.32
535.71	24559.24
535.88	24638.82
536.05	24608.39
536.22	24999.26
536.38	25057.78
536.55	24669.25
536.72	25055.43
536.89	24664.57
537.06	24739.46
537.23	24753.51
537.40	24491.37
537.57	25046.07
537.74	24790.95
537.91	24915.00
538.08	25434.60
538.25	24975.86
538.42	25326.94
538.59	25387.79
538.75	24971.18
538.92	25092.88
539.09	24975.86
539.26	25296.51
539.43	25102.25
539.60	25305.87
539.77	25593.76
539.94	25324.60
540.11	25418.22
540.28	25392.47
540.44	25497.80
540.61	25401.83
540.78	25575.03
540.95	25254.38
541.12	25556.31
541.29	25678.02
541.46	25392.47
541.62	25495.46
541.79	25844.20
541.96	25638.23
542.13	25638.23
542.30	25671.00
542.47	26120.38
542.63	25792.70
542.80	25832.49
542.97	26302.94
543.14	26368.48
543.31	26185.91
543.48	26181.23
543.64	26391.88
543.81	26546.36
543.98	26452.73
544.15	26551.04
544.32	26244.43
544.48	26436.35
544.65	26459.76
544.82	26164.85
544.99	26408.26
545.16	26663.38
545.32	26045.48
545.49	26698.49
545.66	26628.27
545.83	26253.79
546.00	27056.59
546.16	26665.72
546.33	26693.81
546.50	26639.98
546.67	26588.49
546.83	26113.36
547.00	26590.83
547.17	26628.27
547.34	26969.99
547.50	26923.18
547.67	27208.73
547.84	27014.46
548.00	26663.38
548.17	26944.25
548.34	26738.28
548.51	27307.03
548.67	27494.27
548.84	27335.12
549.01	27384.27
549.18	27035.53
549.34	26841.26
549.51	27187.66
549.68	27089.36
549.84	27171.28
550.01	27379.59
550.18	27204.05
550.34	27213.41
550.51	27264.90
550.68	27491.93
550.84	27136.17
551.01	27353.84
551.18	27316.39
551.34	27138.51
551.51	27234.47
551.68	27651.09
551.84	27756.41
552.01	27445.12
552.18	27592.58
552.34	27487.25
552.51	27695.56
552.68	27489.59
552.84	27484.91
553.01	27707.26
553.18	28102.81
553.34	27494.27
553.51	27674.49
553.67	27997.49
553.84	27716.62
554.01	28322.82
554.17	27922.59
554.34	27765.78
554.51	27887.48
554.67	27981.10
554.84	28154.30
555.00	27597.26
555.17	27868.76
555.33	28086.43
555.50	28231.54
555.67	27992.81
555.83	27903.87
556.00	28287.71
556.16	28655.18
556.33	28086.43
556.50	28353.25
556.66	27852.38
556.83	28063.02
556.99	28418.78
557.16	28570.92
557.32	28161.33
557.49	28470.28
557.65	28063.02
557.82	28121.54
557.98	28290.06
558.15	28318.14
558.32	28549.85
558.48	28400.06
558.65	28526.45
558.81	28353.25
558.98	28531.13
559.14	28210.48
559.31	28514.75
559.47	28243.24
559.64	28095.79
559.80	28650.50
559.97	28716.03
560.13	28514.75
560.30	28704.33
560.46	28694.97
560.63	28952.43
560.79	28826.04
560.96	28835.40
561.12	28622.41
561.29	28596.67
561.45	28608.37
561.61	28608.37
561.78	28737.10
561.94	28851.78
562.11	28922.00
562.27	28360.27
562.44	28903.28
562.60	28716.03
562.77	28828.38
562.93	29062.43
563.10	28861.15
563.26	28741.78
563.42	29340.96
563.59	28884.55
563.75	29001.58
563.92	29095.20
564.08	28683.27
564.24	28980.51
564.41	28767.52
564.57	28711.35
564.74	28615.39
564.90	29060.09
565.07	29221.59
565.23	29429.90
565.39	28713.69
565.56	28933.70
565.72	29020.30
565.88	28809.65
566.05	29081.16
566.21	28865.83
566.38	28879.87
566.54	28987.53
566.70	29095.20
566.87	29263.72
567.03	29469.69
567.19	29692.04
567.36	29385.43
567.52	29167.76
567.68	29392.45
567.85	29490.75
568.01	29081.16
568.17	29270.74
568.34	29450.96
568.50	28999.24
568.66	29380.74
568.83	29579.69
568.99	28952.43
569.15	29144.35
569.32	29336.27
569.48	29284.78
569.64	29247.33
569.81	29195.84
569.97	29111.58
570.13	29575.01
570.30	29446.28
570.46	29792.68
570.62	29509.47
570.78	29261.38
570.95	29549.26
571.11	29666.29
571.27	28982.85
571.43	28999.24
571.60	29310.53
571.76	29172.44
571.92	29259.04
572.09	29415.85
572.25	29579.69
572.41	29675.65
572.57	29408.83
572.74	29724.80
572.90	29507.13
573.06	29137.33
573.22	29326.91
573.38	29640.54
573.55	29788.00
573.71	30029.07
573.87	29841.83
574.03	29642.88
574.20	29366.70
574.36	29284.78
574.52	29486.07
574.68	29537.56
574.84	29266.06
575.01	29659.27
575.17	29359.68
575.33	29670.97
575.49	29427.56
575.65	29418.19
575.82	29806.72
575.98	29823.11
576.14	29448.62
576.30	29834.81
576.46	29282.44
576.62	29362.02
576.79	29408.83
576.95	29614.80
577.11	29633.52
577.27	29942.47
577.43	29614.80
577.59	29710.76
577.75	29738.85
577.92	29776.30
578.08	29586.71
578.24	29788.00
578.40	29345.64
578.56	29776.30
578.72	29858.21
578.88	29912.05
579.04	30026.73
579.21	29750.55
579.37	29701.40
579.53	29593.73
579.69	29525.86
579.85	29476.71
580.01	29640.54
580.17	29645.23
580.33	29722.46
580.49	29689.70
580.65	29780.98
580.82	29699.06
580.98	30038.44
581.14	29832.47
581.30	29860.55
581.46	29720.12
581.62	29710.76
581.78	29603.10
581.94	30015.03
582.10	29991.62
582.26	29390.11
582.42	29699.06
582.58	29717.78
582.74	29734.17
582.90	29914.39
583.06	29472.03
583.22	30022.05
583.38	29797.36
583.54	29797.36
583.70	29610.12
583.86	29472.03
584.02	29476.71
584.18	30059.50
584.34	29851.19
584.50	29914.39
584.66	29713.10
584.82	29577.35
584.98	29668.63
585.14	29848.85
585.30	29804.38
585.46	29905.02
585.62	29565.65
585.78	30066.52
585.94	30080.56
586.10	29738.85
586.26	29949.50
586.42	30251.42
586.58	30155.46
586.74	30038.44
586.90	29907.37
587.06	29647.57
587.22	30059.50
587.38	29706.08
587.54	29752.89
587.70	29848.85
587.86	30061.84
588.02	29930.77
588.18	30389.52
588.34	29984.60
588.49	29956.52
588.65	29977.58
588.81	29759.91
588.97	30134.40
589.13	30064.18
589.29	29851.19
589.45	29912.05
589.61	30061.84
589.77	30228.02
589.93	30366.11
590.08	30321.64
590.24	30127.38
590.40	30136.74
590.56	29998.65
590.72	29666.29
590.88	30043.12
591.04	29818.42
591.20	30139.08
591.35	30342.70
591.51	30597.82
591.67	30487.82
591.83	30316.96
591.99	30244.40
592.15	30068.86
592.31	30419.94
592.46	30281.85
592.62	30218.66
592.78	30176.53
592.94	30277.17
593.10	30356.75
593.26	30562.72
593.41	30522.93
593.57	30162.48
593.73	30150.78
593.89	30092.27
594.05	30122.69
594.20	30197.59
594.36	30609.53
594.52	30190.57
594.68	30089.93
594.84	30380.15
594.99	30321.64
595.15	30370.79
595.31	30541.65
595.47	30319.30
595.62	30323.98
595.78	30267.81
595.94	30345.05
596.10	30040.78
596.25	30438.67
596.41	29844.17
596.57	30384.83
596.73	30363.77
596.88	30103.97
597.04	30511.22
597.20	30892.73
597.36	30075.88
597.51	30487.82
597.67	30099.29
597.83	30525.27
597.99	30630.59
598.14	30628.25
598.30	30340.36
598.46	30476.12
598.61	30438.67
598.77	30197.59
598.93	30579.10
599.09	30092.27
599.24	30719.53
599.40	30448.03
599.56	30675.06
599.71	30258.45
599.87	30445.69
600.03	30462.07
600.18	30347.39
600.34	30742.94
600.50	30349.73
600.65	30780.39
600.81	30654.00
600.97	30602.50
601.12	30604.84
601.28	30621.23
601.44	30962.95
601.59	30529.95
601.75	30354.41
601.91	30543.99
602.06	30494.84
602.22	30302.92
602.37	30298.23
602.53	30019.71
602.69	30459.73
602.84	30436.33
603.00	30738.26
603.16	30529.95
603.31	30277.17
603.47	30586.12
603.62	30316.96
603.78	30380.15
603.94	30026.73
604.09	30771.02
604.25	30232.70
604.40	30405.90
604.56	30244.40
604.71	30651.66
604.87	30265.47
605.03	30630.59
605.18	30506.54
605.34	30377.81
605.49	30340.36
605.65	30174.19
605.80	30157.80
605.96	30050.14
606.12	30202.27
606.27	30679.74
606.43	30333.34
606.58	30326.32
606.74	30326.32
606.89	30291.21
607.05	30705.49
607.20	30497.18
607.36	30319.30
607.51	29940.13
607.67	30064.18
607.82	30167.16
607.98	29942.47
608.13	29984.60
608.29	30043.12
608.44	30206.95
608.60	30663.36
608.75	30239.72
608.91	30197.59
609.06	30586.12
609.22	30235.04
609.37	30094.61
609.53	30101.63
609.68	30022.05
609.84	29940.13
609.99	30316.96
610.15	30143.76
610.30	29839.49
610.46	30026.73
610.61	30171.85
610.76	30375.47
610.92	29984.60
611.07	30230.36
611.23	29975.24
611.38	30110.99
611.54	30040.78
611.69	29652.25
611.84	29668.63
612.00	29582.03
612.15	29921.41
612.31	30141.42
612.46	29792.68
612.62	29806.72
612.77	30218.66
612.92	30237.38
613.08	30181.21
613.23	29912.05
613.39	29715.44
613.54	29773.95
613.69	29933.11
613.85	29596.07
614.00	29956.52
614.15	29610.12
614.31	29575.01
614.46	30125.04
614.62	29745.87
614.77	29991.62
614.92	30089.93
615.08	29876.94
615.23	30188.23
615.38	30043.12
615.54	29640.54
615.69	29661.61
615.84	29266.06
616.00	29771.61
616.15	29294.14
616.30	29890.98
616.46	29720.12
616.61	29858.21
616.76	29837.15
616.92	29626.50
617.07	29591.39
617.22	29673.31
617.37	29687.36
617.53	29881.62
617.68	29727.14
617.83	29448.62
617.99	29287.12
618.14	29528.20
618.29	29586.71
618.45	29659.27
618.60	29177.12
618.75	29881.62
618.90	29797.36
619.06	29467.34
619.21	29034.35
619.36	29184.14
619.51	28994.56
619.67	28797.95
619.82	29062.43
619.97	29369.04
620.12	28835.40
620.28	29287.12
620.43	29525.86
620.58	29556.28
620.73	29766.93
620.89	29214.57
621.04	29745.87
621.19	29364.36
621.34	29221.59
621.49	29158.39
621.65	28795.61
621.80	28900.94
621.95	28957.11
622.10	29340.96
622.25	29347.98
622.41	29123.29
622.56	29006.26
622.71	29041.37
622.86	28914.98
623.01	29153.71
623.16	28931.36
623.32	29036.69
623.47	28711.35
623.62	29062.43
623.77	28886.89
623.92	29069.45
624.07	28699.65
624.23	28739.44
624.38	29184.14
624.53	28905.62
624.68	28912.64
624.83	29106.90
624.98	28570.92
625.13	28847.10
625.29	29366.70
625.44	28982.85
625.59	28355.59
625.74	28685.61
625.89	28463.25
626.04	28554.54
626.19	28645.82
626.34	28620.07
626.49	28507.72
626.65	28697.31
626.80	28830.72
626.95	28350.91
627.10	28575.60
627.25	28842.42
627.40	28877.53
627.55	28243.24
627.70	28231.54
627.85	28208.14
628.00	28414.10
628.15	28189.41
628.30	28173.03
628.45	28254.95
628.60	28247.93
628.76	28451.55
628.91	28498.36
629.06	27777.48
629.21	28217.50
629.36	28163.67
629.51	28430.49
629.66	28009.19
629.81	28196.43
629.96	28350.91
630.11	27978.76
630.26	27850.03
630.41	28334.53
630.56	27866.42
630.71	28343.89
630.86	27927.27
631.01	28421.13
631.16	28390.70
631.31	27901.53
631.46	27697.90
631.61	27962.38
631.76	27929.61
631.91	27679.18
632.06	28058.34
632.21	27735.35
632.36	28311.12
632.51	27534.06
632.66	28247.93
632.81	27452.14
632.96	27903.87
633.10	27868.76
633.25	27971.74
633.40	28189.41
633.55	27742.37
633.70	27468.53
633.85	27227.45
634.00	27564.49
634.15	27845.35
634.30	27660.45
634.45	27505.98
634.60	27899.19
634.75	27835.99
634.90	27711.94
635.05	27672.15
635.19	28018.55
635.34	27782.16
635.49	28002.17
635.64	27718.96
635.79	27559.81
635.94	27777.48
636.09	27733.01
636.24	27454.48
636.39	27498.95
636.53	27683.86
636.68	27346.82
636.83	27445.12
636.98	27662.79
637.13	27634.71
637.28	27468.53
637.43	27365.54
637.57	27529.38
637.72	27496.61
637.87	27449.80
638.02	27157.24
638.17	27690.88
638.32	27302.35
638.46	26979.36
638.61	27304.69
638.76	26869.35
638.91	27234.47
639.06	27051.91
639.20	27358.52
639.35	27496.61
639.50	27117.45
639.65	27524.70
639.80	27030.85
639.94	27063.61
640.09	26993.40
640.24	27302.35
640.39	26785.09
640.54	26813.18
640.68	26761.69
640.83	26710.19
640.98	26820.20
641.13	26546.36
641.27	27297.67
641.42	27101.06
641.57	26981.70
641.72	26932.54
641.86	26464.44
642.01	26740.62
642.16	26925.52
642.31	26562.74
642.45	26572.10
642.60	26614.23
642.75	26588.49
642.90	26677.43
643.04	26380.18
643.19	26618.91
643.34	26939.57
643.48	26345.07
643.63	26654.02
643.78	26661.04
643.93	26855.31
644.07	26689.13
644.22	26719.56
644.37	26654.02
644.51	26590.83
644.66	26642.32
644.81	26548.70
644.95	26424.65
645.10	26600.19
645.25	26508.91
645.39	26230.38
645.54	26279.54
645.69	26125.06
645.83	26450.39
645.98	26434.01
646.13	26272.51
646.27	26239.75
646.42	26490.18
646.57	26438.69
646.71	26286.56
646.86	26068.89
647.00	26361.45
647.15	26134.42
647.30	26176.55
647.44	26155.49
647.59	26232.72
647.74	25942.50
647.88	25930.80
648.03	26111.02
648.17	26700.83
648.32	26455.08
648.47	26015.05
648.61	26387.20
648.76	26221.02
648.90	26164.85
649.05	26452.73
649.20	26228.04
649.34	26174.21
649.49	26162.51
649.63	25832.49
649.78	25806.75
649.92	25883.98
650.07	25926.11
650.21	25848.88
650.36	25961.22
650.51	26054.84
650.65	25729.51
650.80	25689.72
650.94	25579.71
651.09	25738.87
651.23	25795.04
651.38	25699.08
651.52	25633.55
651.67	25509.50
651.81	25530.56
651.96	25876.96
652.10	25638.23
652.25	25649.93
652.39	25757.60
652.54	25682.70
652.68	25813.77
652.83	25816.11
652.97	26005.69
653.12	25584.40
653.26	25804.41
653.41	26054.84
653.55	25673.34
653.70	25165.44
653.84	25720.15
653.99	25303.53
654.13	25406.52
654.27	25748.23
654.42	25736.53
654.56	25465.03
654.71	25827.81
654.85	25394.81
655.00	25317.57
655.14	25614.82
655.29	25509.50
655.43	25488.43
655.57	25528.22
655.72	24891.60
655.86	25099.90
656.01	25516.52
656.15	25301.19
656.30	25111.61
656.44	25081.18
656.58	25165.44
656.73	25240.34
656.87	25106.93
657.01	25130.33
657.16	25322.26
657.30	25046.07
657.45	25198.21
657.59	25172.46
657.73	25123.31
657.88	25010.96
658.02	25032.03
658.16	25102.25
658.31	24758.19
658.45	24690.31
658.60	24774.57
658.74	24645.84
658.88	24739.46
659.03	24856.49
659.17	25062.46
659.31	24692.65
659.46	24863.51
659.60	24727.76
659.74	24964.15
659.89	24397.74
660.03	24503.07
660.17	24582.65
660.32	24339.23
660.46	24596.69
660.60	24308.80
660.74	24116.88
660.89	24318.17
661.03	24180.07
661.17	24379.02
661.32	24156.67
661.46	24507.75
661.60	24308.80
661.74	24259.65
661.89	24327.53
662.03	24259.65
662.17	24238.59
662.31	24325.19
662.46	24524.13
662.60	23887.51
662.74	24304.12
662.88	24070.07
663.03	24009.22
663.17	23747.08
663.31	23747.08
663.45	23761.12
663.60	23789.20
663.74	23908.57
663.88	23992.83
664.02	24037.30
664.17	23784.52
664.31	23674.52
664.45	23686.22
664.59	23873.46
664.73	23604.30
664.88	23566.85
665.02	23480.25
665.16	23424.08
665.30	23777.50
665.44	23496.64
665.59	22885.76
665.73	23117.47
665.87	23105.77
666.01	23506.00
666.15	23211.09
666.29	23733.03
666.44	23297.69
666.58	23119.81
666.72	23042.57
666.86	23101.09
667.00	23470.89
667.14	23037.89
667.28	23080.02
667.43	22970.02
667.57	23187.69
667.71	22923.21
667.85	22918.53
667.99	22965.34
668.13	22771.07
668.27	22979.38
668.41	22883.42
668.56	22501.91
668.70	22813.20
668.84	22735.96
668.98	22682.13
669.12	22583.83
669.26	22958.31
669.40	22478.50
669.54	22546.38
669.68	22649.36
669.82	22478.50
669.96	22207.00
670.10	21942.52
670.25	22244.45
670.39	22427.01
670.53	22188.28
670.67	22045.51
670.81	22288.92
670.95	21916.78
671.09	22059.55
671.23	22321.69
671.37	22242.11
671.51	22181.26
671.65	22167.21
671.79	22008.06
671.93	21778.68
672.07	21926.14
672.21	22167.21
672.35	21668.68
672.49	21481.44
672.63	21598.46
672.77	21755.28
672.91	21343.35
673.05	21841.88
673.19	21312.92
673.33	21687.40
673.47	21455.69
673.61	21455.69
673.75	21493.14
673.89	21954.22
674.03	21528.25
674.17	21446.33
674.31	21362.07
674.45	21219.30
674.59	21263.77
674.73	21371.43
674.87	20739.49
675.01	21186.53
675.15	20952.48
675.29	20971.20
675.43	21041.42
675.56	20650.55
675.70	20945.45
675.84	20915.03
675.98	20238.61
676.12	21109.29
676.26	20999.29
676.40	20835.45
676.54	20290.10
676.68	20393.09
676.82	20091.16
676.96	20327.55
677.10	20423.51
677.23	20240.95
677.37	20273.72
677.51	20013.92
677.65	19880.51
677.79	19978.81
677.93	20044.35
678.07	19826.68
678.21	19819.66
678.34	19875.83
678.48	19871.15
678.62	19861.79
678.76	19814.98
678.90	19501.34
679.04	19417.08
679.18	19524.75
679.31	19190.05
679.45	19314.10
679.59	19138.56
679.73	18970.04
679.87	19307.08
680.00	19178.35
680.14	18923.23
680.28	19096.43
680.42	18909.19
680.56	19295.38
680.70	19197.07
680.83	19028.56
680.97	18834.29
681.11	19033.24
681.25	18515.98
681.39	18796.84
681.52	18745.35
681.66	18396.61
681.80	18410.65
681.94	18614.28
682.07	18597.90
682.21	18319.37
682.35	18122.77
682.49	18211.71
682.62	18052.55
682.76	18108.72
682.90	18150.85
683.04	17846.58
683.17	17954.25
683.31	18008.08
683.45	18192.98
683.59	17848.93
683.72	17783.39
683.86	17788.07
684.00	17703.81
684.13	17750.62
684.27	17598.49
684.41	17259.11
684.55	17153.79
684.68	17305.92
684.82	17027.40
684.96	17378.48
685.09	16985.27
685.23	16889.31
685.37	17263.79
685.50	17263.79
685.64	17226.34
685.78	16837.81
685.91	17139.74
686.05	16830.79
686.19	16922.07
686.32	16821.43
686.46	16802.71
686.60	16332.26
686.73	16362.69
686.87	16594.40
687.01	16767.60
687.14	16669.30
687.28	16236.30
687.42	16194.17
687.55	16238.64
687.69	16086.50
687.82	16102.89
687.96	16093.52
688.10	16006.92
688.23	16311.19
688.37	15941.39
688.50	15922.66
688.64	16023.31
688.78	16032.67
688.91	15658.18
689.05	15623.08
689.18	15784.57
689.32	15243.91
689.46	15515.41
689.59	15728.40
689.73	15389.02
689.86	15225.18
690.00	15445.20
690.13	15218.16
690.27	15229.87
690.41	15154.97
690.54	14988.79
690.68	15042.62
690.81	15042.62
690.95	15133.90
691.08	15180.71
691.22	14651.75
691.35	14707.93
691.49	14682.18
691.62	14602.60
691.76	14534.73
691.89	14480.89
692.03	14539.41
692.16	14354.51
692.30	14464.51
692.43	14377.91
692.57	14270.25
692.70	14506.64
692.84	14204.71
692.97	13848.95
693.11	14207.05
693.24	14003.43
693.38	14038.53
693.51	13837.25
693.65	13832.57
693.78	13727.24
693.92	13722.56
694.05	13837.25
694.19	13446.38
694.32	13547.02
694.45	13481.49
694.59	13341.05
694.72	13448.72
694.86	13362.12
694.99	13277.86
695.13	13081.25
695.26	13202.96
695.39	13261.48
695.53	13099.98
695.66	12931.46
695.80	13034.44
695.93	13165.51
696.07	12996.99
696.20	13266.16
696.33	13053.17
696.47	12807.41
696.60	12737.20
696.73	12674.00
696.87	12711.45
697.00	12664.64
697.14	12542.93
697.27	12423.56
697.40	12383.77
697.54	12299.52
697.67	12325.26
697.80	12229.30
697.94	11974.18
698.07	12241.00
698.21	12028.01
698.34	12065.46
698.47	11995.25
698.61	12259.73
698.74	12219.94
698.87	11822.05
699.01	11927.37
699.14	11852.47
699.27	11550.54
699.40	11861.84
699.54	11592.67
699.67	11606.72
699.80	11613.74
699.94	11698.00
700.07	11162.01
700.20	11307.13
700.34	11243.93
700.47	11173.72
700.60	11262.66
700.73	11215.85
700.87	11140.95
701.00	10934.98
701.13	11171.38
701.26	11119.89
701.40	11187.76
701.53	10909.24
701.66	11052.01
701.79	10974.77
701.93	11047.33
702.06	10684.55
702.19	10850.72
702.32	10815.62
702.46	10548.79
702.59	10420.06
702.72	10546.45
702.85	10382.62
702.99	10223.46
703.12	10469.22
703.25	10207.08
703.38	10363.89
703.51	10342.83
703.65	10361.55
703.78	10099.41
703.91	10289.00
704.04	10225.80
704.17	10263.25
704.31	10307.72
704.44	10064.30
704.57	9860.68
704.70	9748.33
704.83	9724.93
704.96	9921.53
705.10	9507.26
705.23	9600.88
>>>>>End Processed Spectral Data<<<<<
