SpectraSuite Data File
++++++++++++++++++++++++++++++++++++
Date: Fri Oct 18 13:58:22 GMT-05:00 2013
User: bianchi
Dark Spectrum Present: No
Reference Spectrum Present: No
Number of Sampled Component Spectra: 1
Spectrometers: USB2+H05261
Integration Time (usec): 50000 (USB2+H05261)
Spectra Averaged: 1 (USB2+H05261)
Boxcar Smoothing: 0 (USB2+H05261)
Correct for Electrical Dark: No (USB2+H05261)
Strobe/Lamp Enabled: No (USB2+H05261)
Correct for Detector Non-linearity: No (USB2+H05261)
Correct for Stray Light: No (USB2+H05261)
Number of Pixels in Processed Spectrum: 2048
>>>>>Begin Processed Spectral Data<<<<<
365.73	0.00
365.92	0.00
366.12	0.00
366.32	0.00
366.52	0.00
366.72	0.00
366.91	0.00
367.11	0.00
367.31	0.00
367.51	0.00
367.70	0.00
367.90	0.00
368.10	0.00
368.30	0.00
368.49	0.00
368.69	0.00
368.89	0.00
369.09	0.00
369.28	0.00
369.48	0.00
369.68	0.00
369.87	0.00
370.07	0.00
370.27	0.00
370.47	0.00
370.66	84.26
370.86	147.45
371.06	102.98
371.25	220.01
371.45	72.56
371.65	198.95
371.84	187.24
372.04	128.73
372.24	86.60
372.44	161.50
372.63	234.05
372.83	243.42
373.03	191.92
373.22	212.99
373.42	149.79
373.62	278.52
373.81	222.35
374.01	194.26
374.21	238.73
374.40	262.14
374.60	243.42
374.79	262.14
374.99	215.33
375.19	227.03
375.38	243.42
375.58	243.42
375.78	301.93
375.97	243.42
376.17	320.65
376.37	175.54
376.56	271.50
376.76	248.10
376.95	243.42
377.15	283.20
377.35	379.17
377.54	278.52
377.74	297.25
377.93	224.69
378.13	290.23
378.33	313.63
378.52	351.08
378.72	294.91
378.91	271.50
379.11	339.38
379.31	315.97
379.50	290.23
379.70	306.61
379.89	306.61
380.09	236.39
380.28	334.70
380.48	332.36
380.68	259.80
380.87	212.99
381.07	320.65
381.26	362.78
381.46	348.74
381.65	344.06
381.85	395.55
382.04	353.42
382.24	379.17
382.43	271.50
382.63	283.20
382.83	365.12
383.02	372.15
383.22	283.20
383.41	351.08
383.61	311.29
383.80	440.02
384.00	433.00
384.19	369.80
384.39	421.30
384.58	344.06
384.78	262.14
384.97	320.65
385.17	360.44
385.36	430.66
385.56	341.72
385.75	393.21
385.95	322.99
386.14	334.70
386.34	379.17
386.53	386.19
386.72	442.36
386.92	360.44
387.11	442.36
387.31	442.36
387.50	332.36
387.70	390.87
387.89	411.93
388.09	418.96
388.28	454.06
388.48	440.02
388.67	395.55
388.86	489.17
389.06	456.40
389.25	423.64
389.45	463.43
389.64	379.17
389.84	449.38
390.03	531.30
390.22	512.58
390.42	435.34
390.61	526.62
390.81	482.15
391.00	540.66
391.19	524.28
391.39	491.51
391.58	498.53
391.78	479.81
391.97	500.87
392.16	566.41
392.36	514.92
392.55	505.56
392.75	514.92
392.94	407.25
393.13	493.85
393.33	622.58
393.52	568.75
393.71	500.87
393.91	575.77
394.10	561.73
394.29	594.50
394.49	500.87
394.68	566.41
394.88	524.28
395.07	613.22
395.26	613.22
395.46	533.64
395.65	627.26
395.84	641.31
396.04	650.67
396.23	634.29
396.42	557.05
396.62	603.86
396.81	610.88
397.00	636.63
397.19	737.27
397.39	641.31
397.58	641.31
397.77	643.65
397.97	676.41
398.16	688.12
398.35	692.80
398.55	800.46
398.74	748.97
398.93	697.48
399.12	709.18
399.32	683.44
399.51	727.91
399.70	681.10
399.90	685.78
400.09	683.44
400.28	788.76
400.47	793.44
400.67	739.61
400.86	739.61
401.05	795.78
401.24	765.36
401.44	833.23
401.63	812.17
401.82	786.42
402.01	812.17
402.21	826.21
402.40	774.72
402.59	800.46
402.78	819.19
402.97	908.13
403.17	887.06
403.36	884.72
403.55	856.64
403.74	814.51
403.93	880.04
404.13	866.00
404.32	922.17
404.51	884.72
404.70	901.11
404.89	877.70
405.09	952.60
405.28	861.32
405.47	957.28
405.66	976.00
405.85	910.47
406.05	1027.50
406.24	957.28
406.43	922.17
406.62	987.71
406.81	971.32
407.00	985.37
407.20	990.05
407.39	1057.92
407.58	987.71
407.77	1093.03
407.96	1086.01
408.15	1076.65
408.34	1025.15
408.54	1116.44
408.73	971.32
408.92	1109.41
409.11	1078.99
409.30	1130.48
409.49	1011.11
409.68	1203.04
409.87	1078.99
410.07	1174.95
410.26	1153.88
410.45	1121.12
410.64	1214.74
410.83	1224.10
411.02	1188.99
411.21	1139.84
411.40	1245.16
411.59	1179.63
411.78	1247.51
411.98	1263.89
412.17	1320.06
412.36	1289.64
412.55	1291.98
412.74	1320.06
412.93	1336.45
413.12	1149.20
413.31	1296.66
413.50	1376.24
413.69	1476.88
413.88	1502.62
414.07	1411.34
414.26	1486.24
414.45	1376.24
414.64	1472.20
414.83	1378.58
415.02	1533.05
415.22	1551.78
415.41	1514.33
415.60	1521.35
415.79	1561.14
415.98	1607.95
416.17	1584.54
416.36	1528.37
416.55	1540.07
416.74	1535.39
416.93	1612.63
417.12	1582.20
417.31	1668.80
417.50	1643.06
417.69	1797.53
417.88	1675.82
418.07	1715.61
418.26	1671.14
418.45	1818.60
418.64	1774.13
418.83	1710.93
419.02	1729.66
419.21	1774.13
419.39	1858.39
419.58	1872.43
419.77	1914.56
419.96	1893.49
420.15	1919.24
420.34	1863.07
420.53	1865.41
420.72	1877.11
420.91	1980.09
421.10	1984.77
421.29	2008.18
421.48	1839.66
421.67	1923.92
421.86	1926.26
422.05	1963.71
422.24	1935.62
422.43	1975.41
422.61	2036.27
422.80	1952.01
422.99	1984.77
423.18	1949.67
423.37	1980.09
423.56	2127.55
423.75	1942.64
423.94	2050.31
424.13	1937.96
424.32	1846.68
424.50	2033.93
424.69	2019.88
424.88	2155.63
425.07	1940.30
425.26	2017.54
425.45	1975.41
425.64	1884.13
425.83	1973.07
426.01	1933.28
426.20	2001.16
426.39	2094.78
426.58	2087.76
426.77	2008.18
426.96	1900.52
427.15	2008.18
427.33	2176.70
427.52	2043.29
427.71	2134.57
427.90	2087.76
428.09	2064.35
428.28	2090.10
428.46	2132.23
428.65	2228.19
428.84	2202.44
429.03	2181.38
429.22	2160.31
429.40	2069.03
429.59	2179.04
429.78	2172.02
429.97	2179.04
430.16	2113.50
430.34	2338.20
430.53	2293.72
430.72	2223.51
430.91	2394.37
431.10	2354.58
431.28	2345.22
431.47	2310.11
431.66	2401.39
431.85	2352.24
432.03	2450.54
432.22	2487.99
432.41	2387.35
432.60	2565.23
432.79	2291.38
432.97	2480.97
433.16	2443.52
433.35	2392.03
433.54	2511.39
433.72	2511.39
433.91	2516.08
434.10	2527.78
434.28	2389.69
434.47	2417.77
434.66	2499.69
434.85	2560.55
435.03	2602.68
435.22	2562.89
435.41	2731.41
435.59	2691.62
435.78	2607.36
435.97	2670.55
436.16	2698.64
436.34	2483.31
436.53	2668.21
436.72	2698.64
436.90	2590.97
437.09	2703.32
437.28	2649.49
437.46	2686.94
437.65	2719.70
437.84	2738.43
438.02	2801.62
438.21	2743.11
438.40	2619.06
438.58	2829.71
438.77	2867.16
438.96	2864.82
439.14	2871.84
439.33	3028.65
439.52	2918.65
439.70	2949.08
439.89	3028.65
440.08	2986.52
440.26	3040.36
440.45	2853.11
440.63	3089.51
440.82	3070.78
441.01	3157.38
441.19	3143.34
441.38	3229.94
441.57	3241.64
441.75	3183.13
441.94	3166.74
442.12	3220.58
442.31	3314.20
442.50	3215.90
442.68	3288.45
442.87	3332.92
443.05	3239.30
443.24	3389.10
443.43	3234.62
443.61	3358.67
443.80	3583.36
443.98	3379.73
444.17	3302.50
444.35	3356.33
444.54	3400.80
444.73	3438.25
444.91	3353.99
445.10	3449.95
445.28	3309.52
445.47	3335.26
445.65	3398.46
445.84	3396.12
446.02	3501.44
446.21	3358.67
446.39	3487.40
446.58	3520.17
446.77	3536.55
446.95	3442.93
447.14	3316.54
447.32	3412.50
447.51	3522.51
447.69	3405.48
447.88	3471.01
448.06	3506.12
448.25	3471.01
448.43	3461.65
448.62	3447.61
448.80	3503.78
448.99	3590.38
449.17	3501.44
449.36	3740.18
449.54	3550.59
449.73	3695.71
449.91	3733.15
450.10	3637.19
450.28	3775.28
450.46	3557.61
450.65	3733.15
450.83	3868.91
451.02	3763.58
451.20	3660.60
451.39	3779.97
451.57	3784.65
451.76	3707.41
451.94	3927.42
452.13	3789.33
452.31	3934.44
452.49	3758.90
452.68	3808.05
452.86	3889.97
453.05	3794.01
453.23	3920.40
453.42	3840.82
453.60	3810.39
453.78	3969.55
453.97	3719.11
454.15	3794.01
454.34	3946.14
454.52	3899.33
454.70	3936.78
454.89	3985.93
455.07	3934.44
455.26	4142.75
455.44	4109.98
455.62	3943.80
455.81	4093.60
455.99	4088.92
456.17	4159.13
456.36	4072.53
456.54	4236.37
456.73	4100.62
456.91	4252.75
457.09	4273.82
457.28	4194.24
457.46	4173.18
457.64	4397.87
457.83	4273.82
458.01	4173.18
458.19	4332.33
458.38	4154.45
458.56	4381.48
458.74	4388.50
458.93	4287.86
459.11	4447.02
459.29	4327.65
459.48	4432.97
459.66	4524.26
459.84	4421.27
460.03	4510.21
460.21	4418.93
460.39	4580.43
460.57	4599.15
460.76	4582.77
460.94	4477.44
461.12	4667.03
461.31	4550.00
461.49	4533.62
461.67	4664.69
461.85	4692.77
462.04	4739.58
462.22	4592.13
462.40	4655.33
462.59	4744.27
462.77	4744.27
462.95	4793.42
463.13	4746.61
463.32	4648.30
463.50	4589.79
463.68	4933.85
463.86	4641.28
464.05	4648.30
464.23	4739.58
464.41	4847.25
464.59	4828.53
464.78	4940.87
464.96	4858.95
465.14	4828.53
465.32	4968.96
465.50	4856.61
465.69	4954.91
465.87	5006.41
466.05	4884.70
466.23	4936.19
466.41	5004.07
466.60	5036.83
466.78	4936.19
466.96	4994.70
467.14	5008.75
467.32	4999.38
467.51	5020.45
467.69	4922.15
467.87	4912.78
468.05	5102.37
468.23	5142.16
468.41	5039.17
468.60	5128.11
468.78	5308.34
468.96	5111.73
469.14	5174.92
469.32	5287.27
469.50	5151.52
469.69	5280.25
469.87	5392.59
470.05	5235.78
470.23	5287.27
470.41	5308.34
470.59	5481.53
470.77	5343.44
470.95	5453.45
471.14	5535.37
471.32	5582.18
471.50	5619.63
471.68	5547.07
471.86	5706.23
472.04	5607.92
472.22	5685.16
472.40	5717.93
472.58	5678.14
472.77	5722.61
472.95	5926.24
473.13	6036.24
473.31	5647.71
473.49	5729.63
473.67	5769.42
473.85	5827.93
474.03	6061.99
474.21	5870.06
474.39	5947.30
474.57	6059.65
474.75	5980.07
474.93	6223.48
475.12	6015.18
475.30	6293.70
475.48	6064.33
475.66	6188.38
475.84	6221.14
476.02	6450.52
476.20	6230.51
476.38	6396.68
476.56	6497.33
476.74	6441.15
476.92	6602.65
477.10	6588.61
477.28	6558.18
477.46	6717.34
477.64	6609.67
477.82	6785.21
478.00	6927.99
478.18	6913.94
478.36	7000.54
478.54	7103.53
478.72	6932.67
478.90	7047.35
479.08	7103.53
479.26	6991.18
479.44	7126.93
479.62	7288.43
479.80	7316.51
479.98	7325.88
480.16	7616.10
480.34	7475.67
480.52	7573.97
480.70	7672.28
480.88	7559.93
481.06	7850.16
481.24	7702.70
481.41	7845.48
481.59	7960.16
481.77	7903.99
481.95	7957.82
482.13	8091.23
482.31	8210.60
482.49	8107.62
482.67	8346.35
482.85	8304.22
483.03	8423.59
483.21	8531.25
483.39	8521.89
483.57	8477.42
483.74	8435.29
483.92	8610.83
484.10	8599.13
484.28	8634.24
484.46	8858.93
484.64	9128.09
484.82	8748.92
485.00	9001.70
485.18	9139.79
485.35	9104.68
485.53	9310.65
485.71	9352.78
485.89	9692.16
486.07	9570.45
486.25	9621.94
486.43	9729.61
486.61	9774.08
486.78	9942.60
486.96	9774.08
487.14	10026.86
487.32	10003.45
487.50	9998.77
487.68	10068.98
487.85	10274.95
488.03	10345.17
488.21	10569.86
488.39	10611.99
488.57	10635.39
488.75	10686.89
488.92	10803.91
489.10	10878.81
489.28	10977.11
489.46	11059.03
489.64	10888.17
489.81	11178.40
489.99	11248.61
490.17	11199.46
490.35	11375.00
490.53	11449.90
490.70	11529.48
490.88	11468.62
491.06	11702.68
491.24	11676.93
491.41	11690.98
491.59	11822.05
491.77	12142.70
491.95	12042.06
492.13	12149.72
492.30	12044.40
492.48	12114.61
492.66	12217.60
492.84	12053.76
493.01	12297.17
493.19	12409.52
493.37	12748.90
493.54	12652.94
493.72	13027.42
493.90	12959.55
494.08	12758.26
494.25	12786.35
494.43	12947.84
494.61	13172.54
494.79	13289.56
494.96	13202.96
495.14	13308.29
495.32	13441.70
495.49	13078.91
495.67	13392.55
495.85	13390.20
496.02	13706.18
496.20	13827.88
496.38	13844.27
496.55	13893.42
496.73	14167.26
496.91	14045.55
497.09	13905.12
497.26	14373.23
497.44	14010.45
497.62	14434.08
497.79	14434.08
497.97	14291.31
498.14	14583.88
498.32	14693.88
498.50	14618.99
498.67	14949.00
498.85	14813.25
499.03	14801.55
499.20	15054.33
499.38	15012.20
499.56	14953.68
499.73	15180.71
499.91	15197.10
500.08	15435.83
500.26	15187.74
500.44	15302.42
500.61	15143.27
500.79	15475.62
500.97	15702.65
501.14	15833.72
501.32	15688.61
501.49	15824.36
501.67	15517.75
501.84	15506.05
502.02	15793.94
502.20	15995.22
502.37	15868.83
502.55	15712.02
502.72	15735.42
502.90	16051.39
503.07	15892.24
503.25	16025.65
503.43	16142.67
503.60	16489.07
503.78	16512.48
503.95	16266.72
504.13	16290.13
504.30	16496.10
504.48	16486.73
504.65	16346.30
504.83	16575.67
505.01	16968.88
505.18	16341.62
505.36	17092.93
505.53	17076.55
505.71	16915.05
505.88	16746.53
506.06	16851.86
506.23	17013.35
506.41	17219.32
506.58	17114.00
506.76	17184.21
506.93	17399.54
507.11	17245.07
507.28	17380.82
507.46	17422.95
507.63	17401.88
507.81	17949.57
507.98	17324.65
508.16	17441.67
508.33	17762.33
508.50	17680.41
508.68	17596.15
508.85	18066.60
509.03	17664.02
509.20	17991.70
509.38	18104.04
509.55	18424.70
509.73	17980.00
509.90	18497.25
510.08	18143.83
510.25	18054.89
510.42	18574.49
510.60	18707.90
510.77	18537.04
510.95	18609.60
511.12	18497.25
511.30	18574.49
511.47	18384.91
511.64	18640.03
511.82	18745.35
511.99	18899.83
512.17	18843.65
512.34	18789.82
512.51	18899.83
512.69	19204.10
512.86	19185.37
513.04	19154.94
513.21	19136.22
513.38	19271.97
513.56	19215.80
513.73	19536.45
513.90	19194.73
514.08	19131.54
514.25	19445.17
514.43	19761.14
514.60	19590.28
514.77	19606.67
514.95	19721.35
515.12	19374.95
515.29	19623.05
515.47	19814.98
515.64	19894.55
515.81	19491.98
515.99	20051.37
516.16	20180.10
516.33	19995.20
516.51	20137.97
516.68	20044.35
516.85	20123.93
517.03	20416.49
517.20	20182.44
517.37	20357.98
517.54	20416.49
517.72	20568.63
517.89	20266.70
518.06	20596.71
518.24	20624.80
518.41	20437.56
518.58	20524.16
518.75	20606.08
518.93	20666.93
519.10	20762.89
519.27	20954.82
519.45	20849.49
519.62	20706.72
519.79	20915.03
519.96	20613.10
520.14	21231.00
520.31	20893.96
520.48	21041.42
520.65	20865.88
520.83	20985.24
521.00	21254.40
521.17	21338.66
521.34	21106.95
521.52	21532.93
521.69	21568.04
521.86	21703.79
522.03	21713.15
522.20	21628.89
522.38	21671.02
522.55	21443.99
522.72	21359.73
522.89	21621.87
523.07	21942.52
523.24	21888.69
523.41	21888.69
523.58	21692.08
523.75	21834.86
523.92	21743.58
524.10	22052.53
524.27	22164.87
524.44	22354.46
524.61	22410.63
524.78	22181.26
524.96	22260.84
525.13	21898.05
525.30	22005.72
525.47	22520.63
525.64	22359.14
525.81	22249.13
525.98	22588.51
526.16	22874.06
526.33	22522.98
526.50	22855.33
526.67	22478.50
526.84	22382.54
527.01	22663.41
527.18	22801.50
527.36	22799.16
527.53	22960.66
527.70	22972.36
527.87	22761.71
528.04	22930.23
528.21	22923.21
528.38	23136.20
528.55	22817.88
528.72	22855.33
528.89	23063.64
529.07	23346.84
529.24	23129.17
529.41	23398.34
529.58	23260.24
529.75	23351.52
529.92	23248.54
530.09	23096.41
530.26	23531.75
530.43	23377.27
530.60	23520.04
530.77	23536.43
530.94	23690.90
531.11	23576.22
531.28	23428.76
531.46	23716.65
531.63	23414.72
531.80	23807.93
531.97	24166.03
532.14	23882.83
532.31	23889.85
532.48	23920.28
532.65	24016.24
532.82	23814.95
532.99	23669.84
533.16	23976.45
533.33	24121.56
533.50	24257.31
533.67	23999.85
533.84	24222.20
534.01	24465.62
534.18	24261.99
534.35	24446.90
534.52	24271.36
534.69	24470.30
534.86	24151.99
535.03	24318.17
535.20	23882.83
535.37	24673.93
535.54	24559.24
535.71	24301.78
535.88	24346.25
536.05	24350.93
536.22	24826.06
536.38	24837.76
536.55	24779.25
536.72	24961.81
536.89	24730.10
537.06	24547.54
537.23	24802.66
537.40	24692.65
537.57	25046.07
537.74	25071.82
537.91	25345.66
538.08	25029.69
538.25	24910.32
538.42	25242.68
538.59	25034.37
538.75	24868.19
538.92	25188.85
539.09	25216.93
539.26	25214.59
539.43	25333.96
539.60	25137.35
539.77	25111.61
539.94	25120.97
540.11	25062.46
540.28	25181.82
540.44	25486.09
540.61	25336.30
540.78	25074.16
540.95	25369.07
541.12	25322.26
541.29	25127.99
541.46	25500.14
541.62	25317.57
541.79	25532.90
541.96	25488.43
542.13	25727.17
542.30	25937.82
542.47	26316.98
542.63	25972.92
542.80	26473.80
542.97	26316.98
543.14	26426.99
543.31	26099.31
543.48	26127.40
543.64	26239.75
543.81	26232.72
543.98	26286.56
544.15	25881.64
544.32	26115.70
544.48	26436.35
544.65	26218.68
544.82	26169.53
544.99	25874.62
545.16	26405.92
545.32	26567.42
545.49	26375.50
545.66	26504.23
545.83	26560.40
546.00	26948.93
546.16	26740.62
546.33	26164.85
546.50	26174.21
546.67	26801.47
546.83	26307.62
547.00	26691.47
547.17	26455.08
547.34	26675.09
547.50	26768.71
547.67	27061.27
547.84	26801.47
548.00	26813.18
548.17	26998.08
548.34	26885.73
548.51	27049.57
548.67	27028.51
548.84	27094.04
549.01	26902.12
549.18	26827.22
549.34	27009.78
549.51	26754.66
549.68	26771.05
549.84	27072.98
550.01	27101.06
550.18	26958.29
550.34	27292.99
550.51	27030.85
550.68	27161.92
550.84	26782.75
551.01	27292.99
551.18	26948.93
551.34	27068.30
551.51	27414.69
551.68	27342.14
551.84	27384.27
552.01	27108.08
552.18	27428.74
552.34	27391.29
552.51	27477.89
552.68	27335.12
552.84	27548.11
553.01	27295.33
553.18	27307.03
553.34	28198.77
553.51	27454.48
553.67	28086.43
553.84	27768.12
554.01	27782.16
554.17	27714.28
554.34	28109.83
554.51	27353.84
554.67	27805.56
554.84	27536.40
555.00	27613.64
555.17	27583.21
555.33	28018.55
555.50	27646.41
555.67	27667.47
555.83	27779.82
556.00	27997.49
556.16	28210.48
556.33	28465.60
556.50	27913.23
556.66	28463.25
556.83	27754.07
556.99	28451.55
557.16	28168.35
557.32	27854.72
557.49	28210.48
557.65	27931.95
557.82	28196.43
557.98	27688.54
558.15	28215.16
558.32	28489.00
558.48	28421.13
558.65	28606.03
558.81	28290.06
558.98	28261.97
559.14	27983.44
559.31	28395.38
559.47	28336.87
559.64	28266.65
559.80	28390.70
559.97	28673.90
560.13	28266.65
560.30	28364.95
560.46	28556.88
560.63	28517.09
560.79	28704.33
560.96	28421.13
561.12	28545.17
561.29	28371.97
561.45	28599.01
561.61	28884.55
561.78	28474.96
561.94	28690.29
562.11	28531.13
562.27	28655.18
562.44	28311.12
562.60	27936.63
562.77	28510.07
562.93	28828.38
563.10	29029.66
563.26	28470.28
563.42	28926.68
563.59	28638.80
563.75	29102.22
563.92	29149.03
564.08	28940.72
564.24	28800.29
564.41	28767.52
564.57	29104.56
564.74	28683.27
564.90	28931.36
565.07	28821.36
565.23	28980.51
565.39	28449.21
565.56	28994.56
565.72	28945.41
565.88	28877.53
566.05	28704.33
566.21	28224.52
566.38	29015.62
566.54	28872.85
566.70	28992.22
566.87	29191.16
567.03	29118.60
567.19	28936.04
567.36	28929.02
567.52	29036.69
567.68	29184.14
567.85	28865.83
568.01	29099.88
568.17	29109.24
568.34	29233.29
568.50	29226.27
568.66	28964.13
568.83	29223.93
568.99	28938.38
569.15	28865.83
569.32	29338.62
569.48	29116.26
569.64	29221.59
569.81	29064.77
569.97	29113.92
570.13	29460.32
570.30	29163.08
570.46	29076.48
570.62	29284.78
570.78	29207.55
570.95	28945.41
571.11	29401.81
571.27	29039.03
571.43	29223.93
571.60	29244.99
571.76	29249.67
571.92	29404.15
572.09	29151.37
572.25	29488.41
572.41	29294.14
572.57	29261.38
572.74	29563.31
572.90	29156.05
573.06	29359.68
573.22	29041.37
573.38	29273.08
573.55	28933.70
573.71	29670.97
573.87	29586.71
574.03	29347.98
574.20	29472.03
574.36	29333.93
574.52	29394.79
574.68	29125.63
574.84	29436.92
575.01	29509.47
575.17	29343.30
575.33	29355.00
575.49	29259.04
575.65	29233.29
575.82	29759.91
575.98	29479.05
576.14	29467.34
576.30	29631.18
576.46	29425.22
576.62	29284.78
576.79	29223.93
576.95	29439.26
577.11	29397.13
577.27	29390.11
577.43	29347.98
577.59	29544.58
577.75	29256.70
577.92	29228.61
578.08	29355.00
578.24	29589.05
578.40	29294.14
578.56	29439.26
578.72	29642.88
578.88	29493.09
579.04	29635.86
579.21	29876.94
579.37	29448.62
579.53	29481.39
579.69	29099.88
579.85	29441.60
580.01	29610.12
580.17	29450.96
580.33	29355.00
580.49	29539.90
580.65	29879.28
580.82	29434.58
580.98	29736.51
581.14	29652.25
581.30	29649.91
581.46	29556.28
581.62	29305.85
581.78	29460.32
581.94	29427.56
582.10	29626.50
582.26	29670.97
582.42	29591.39
582.58	29170.10
582.74	29837.15
582.90	29743.53
583.06	29474.37
583.22	29603.10
583.38	29551.60
583.54	29483.73
583.70	29511.81
583.86	29530.54
584.02	29448.62
584.18	30099.29
584.34	29813.74
584.50	29872.26
584.66	29387.77
584.82	29525.86
584.98	29619.48
585.14	29448.62
585.30	29415.85
585.46	29247.33
585.62	29282.44
585.78	29474.37
585.94	29366.70
586.10	29958.86
586.26	29703.74
586.42	29626.50
586.58	29919.07
586.74	29530.54
586.90	29237.97
587.06	29495.43
587.22	29654.59
587.38	29809.06
587.54	29509.47
587.70	29792.68
587.86	29797.36
588.02	30094.61
588.18	30040.78
588.34	30073.54
588.49	30089.93
588.65	29855.87
588.81	29748.21
588.97	29591.39
589.13	29855.87
589.29	29532.88
589.45	29577.35
589.61	29806.72
589.77	29727.14
589.93	30326.32
590.08	29907.37
590.24	29991.62
590.40	29528.20
590.56	30691.44
590.72	29535.22
590.88	29465.00
591.04	29972.90
591.20	30225.68
591.35	29881.62
591.51	30143.76
591.67	30199.93
591.83	30211.64
591.99	30361.43
592.15	30157.80
592.31	30017.37
592.46	30038.44
592.62	29970.56
592.78	29560.97
592.94	29860.55
593.10	29825.45
593.26	30164.82
593.41	30588.46
593.57	30242.06
593.73	30017.37
593.89	30075.88
594.05	29996.31
594.20	30017.37
594.36	30422.28
594.52	30398.88
594.68	29839.49
594.84	30223.34
594.99	29998.65
595.15	29687.36
595.31	30506.54
595.47	29986.94
595.62	29979.92
595.78	30132.06
595.94	29813.74
596.10	29670.97
596.25	30026.73
596.41	30363.77
596.57	29909.71
596.73	29919.07
596.88	29977.58
597.04	30609.53
597.20	30277.17
597.36	30520.59
597.51	30204.61
597.67	30492.50
597.83	29919.07
597.99	30064.18
598.14	30129.72
598.30	30106.31
598.46	30235.04
598.61	29869.92
598.77	30340.36
598.93	30288.87
599.09	30178.87
599.24	30492.50
599.40	30164.82
599.56	30478.46
599.71	30017.37
599.87	30541.65
600.03	29989.28
600.18	29951.84
600.34	30073.54
600.50	30258.45
600.65	30092.27
600.81	30363.77
600.97	30366.11
601.12	30429.30
601.28	30260.79
601.44	30211.64
601.59	30026.73
601.75	30167.16
601.91	30806.13
602.06	29865.24
602.22	30267.81
602.37	30059.50
602.53	29792.68
602.69	30387.18
602.84	30155.46
603.00	30010.35
603.16	30551.01
603.31	30118.01
603.47	30583.78
603.62	30328.66
603.78	30008.01
603.94	29881.62
604.09	30099.29
604.25	29872.26
604.40	29853.53
604.56	29748.21
604.71	30237.38
604.87	29961.20
605.03	30321.64
605.18	30319.30
605.34	30347.39
605.49	30218.66
605.65	30316.96
605.80	29720.12
605.96	29916.73
606.12	29968.22
606.27	30558.03
606.43	30092.27
606.58	30361.43
606.74	29989.28
606.89	30213.98
607.05	30221.00
607.20	30094.61
607.36	30043.12
607.51	29972.90
607.67	29799.70
607.82	30080.56
607.98	29954.18
608.13	30216.32
608.29	29940.13
608.44	30167.16
608.60	29855.87
608.75	29907.37
608.91	30150.78
609.06	30038.44
609.22	30075.88
609.37	29607.78
609.53	30127.38
609.68	29914.39
609.84	29841.83
609.99	29722.46
610.15	29738.85
610.30	30092.27
610.46	29771.61
610.61	30153.12
610.76	30314.62
610.92	29949.50
611.07	30026.73
611.23	29488.41
611.38	29722.46
611.54	29919.07
611.69	29919.07
611.84	29355.00
612.00	29680.33
612.15	29743.53
612.31	29895.66
612.46	29280.10
612.62	29708.42
612.77	29846.51
612.92	29841.83
613.08	29450.96
613.23	29841.83
613.39	29539.90
613.54	29418.19
613.69	29465.00
613.85	29968.22
614.00	29504.79
614.15	29792.68
614.31	29184.14
614.46	29778.64
614.62	29675.65
614.77	29853.53
614.92	29612.46
615.08	29441.60
615.23	29476.71
615.38	29635.86
615.54	29420.53
615.69	29947.15
615.84	29333.93
616.00	29663.95
616.15	29064.77
616.30	29422.87
616.46	29338.62
616.61	29516.50
616.76	29670.97
616.92	29352.66
617.07	28936.04
617.22	29191.16
617.37	29364.36
617.53	29509.47
617.68	29392.45
617.83	29078.82
617.99	29282.44
618.14	29219.25
618.29	29228.61
618.45	28975.83
618.60	29050.73
618.75	29053.07
618.90	29338.62
619.06	29195.84
619.21	29118.60
619.36	28966.47
619.51	28938.38
619.67	28774.55
619.82	29048.39
619.97	29055.41
620.12	28952.43
620.28	29116.26
620.43	29153.71
620.58	29181.80
620.73	29134.99
620.89	29116.26
621.04	29120.95
621.19	28882.21
621.34	29034.35
621.49	28720.71
621.65	29071.79
621.80	28837.74
621.95	28629.43
622.10	28599.01
622.25	28996.90
622.41	28428.15
622.56	28774.55
622.71	28964.13
622.86	29102.22
623.01	28772.21
623.16	28622.41
623.32	28699.65
623.47	28507.72
623.62	28519.43
623.77	28404.74
623.92	28652.84
624.07	28634.11
624.23	28662.20
624.38	28498.36
624.53	29003.92
624.68	28776.89
624.83	28809.65
624.98	28580.28
625.13	28444.53
625.29	28552.20
625.44	28261.97
625.59	28481.98
625.74	28510.07
625.89	28226.86
626.04	28379.00
626.19	28205.80
626.34	28175.37
626.49	28018.55
626.65	28390.70
626.80	28474.96
626.95	28126.22
627.10	28374.31
627.25	28030.26
627.40	28196.43
627.55	28247.93
627.70	28013.87
627.85	28088.77
628.00	28144.94
628.15	28182.39
628.30	28105.15
628.45	28306.44
628.60	28025.57
628.76	28229.20
628.91	28123.88
629.06	28149.62
629.21	28222.18
629.36	28116.86
629.51	28128.56
629.66	27714.28
629.81	27826.63
629.96	27962.38
630.11	27765.78
630.26	27871.10
630.41	27395.97
630.56	27716.62
630.71	28180.05
630.86	28161.33
631.01	27716.62
631.16	28142.60
631.31	27653.43
631.46	27990.47
631.61	28027.92
631.76	27749.39
631.91	27725.99
632.06	27669.81
632.21	27597.26
632.36	27475.55
632.51	27381.93
632.66	28109.83
632.81	27370.22
632.96	27782.16
633.10	27597.26
633.25	27520.02
633.40	27688.54
633.55	27779.82
633.70	27555.13
633.85	27253.20
634.00	27072.98
634.15	27314.05
634.30	27559.81
634.45	27648.75
634.60	26995.74
634.75	27414.69
634.90	27475.55
635.05	28032.60
635.19	27351.50
635.34	27557.47
635.49	27615.98
635.64	27681.52
635.79	27384.27
635.94	27145.53
636.09	27227.45
636.24	27426.40
636.39	27096.38
636.53	27044.89
636.68	27072.98
636.83	27445.12
636.98	27480.23
637.13	27131.49
637.28	27171.28
637.43	27346.82
637.57	27159.58
637.72	27243.84
637.87	26668.06
638.02	26787.43
638.17	27253.20
638.32	26974.67
638.46	27103.40
638.61	26962.97
638.76	26665.72
638.91	26810.84
639.06	26764.03
639.20	26724.24
639.35	26955.95
639.50	27154.90
639.65	26855.31
639.80	26911.48
639.94	27218.09
640.09	26749.98
640.24	26382.52
640.39	26623.59
640.54	26553.38
640.68	26941.91
640.83	26555.72
640.98	26450.39
641.13	26600.19
641.27	26457.42
641.42	26607.21
641.57	26752.32
641.72	26511.25
641.86	26513.59
642.01	26590.83
642.16	26703.17
642.31	26302.94
642.45	26487.84
642.60	26483.16
642.75	26494.86
642.90	26209.32
643.04	26473.80
643.19	26288.90
643.34	26272.51
643.48	26300.60
643.63	26780.41
643.78	26487.84
643.93	26534.65
644.07	26532.31
644.22	26445.71
644.37	26319.32
644.51	26752.32
644.66	26647.00
644.81	26345.07
644.95	26192.94
645.10	26206.98
645.25	26143.78
645.39	26106.34
645.54	26075.91
645.69	26125.06
645.83	26192.94
645.98	26185.91
646.13	26382.52
646.27	26031.44
646.42	26185.91
646.57	26164.85
646.71	25879.30
646.86	26157.83
647.00	25596.10
647.15	25949.52
647.30	26157.83
647.44	25795.04
647.59	25947.18
647.74	25968.24
647.88	25986.97
648.03	25949.52
648.17	26190.59
648.32	26150.81
648.47	26331.03
648.61	25818.45
648.76	26085.27
648.90	25923.77
649.05	25654.61
649.20	25675.68
649.34	25710.78
649.49	25453.33
649.63	25722.49
649.78	25795.04
649.92	25577.37
650.07	25708.44
650.21	25413.54
650.36	25731.85
650.51	25575.03
650.65	25560.99
650.80	25764.62
650.94	25722.49
651.09	25450.99
651.23	25408.86
651.38	25516.52
651.52	25701.42
651.67	25345.66
651.81	25032.03
651.96	25553.97
652.10	25579.71
652.25	25490.77
652.39	25252.04
652.54	25626.53
652.68	25441.62
652.83	25692.06
652.97	25560.99
653.12	25589.08
653.26	25860.58
653.41	25411.20
653.55	25242.68
653.70	25146.72
653.84	25319.92
653.99	25425.24
654.13	25085.86
654.27	25319.92
654.42	25376.09
654.56	25387.79
654.71	25408.86
654.85	25209.91
655.00	25195.87
655.14	25135.01
655.29	25308.21
655.43	25067.14
655.57	25298.85
655.72	24844.79
655.86	24830.74
656.01	24961.81
656.15	24830.74
656.30	24821.38
656.44	24992.24
656.58	24755.85
656.73	24936.07
656.87	24776.91
657.01	25083.52
657.16	24739.46
657.30	24903.30
657.45	24816.70
657.59	24793.29
657.73	24547.54
657.88	24900.96
658.02	24753.51
658.16	24638.82
658.31	24552.22
658.45	24968.84
658.60	24549.88
658.74	24599.03
658.88	24329.87
659.03	24414.13
659.17	24123.90
659.31	24367.32
659.46	24566.26
659.60	24444.56
659.74	24294.76
659.89	24229.23
660.03	24858.83
660.17	24528.81
660.32	24077.09
660.46	24077.09
660.60	24226.89
660.74	24109.86
660.89	24168.37
661.03	23866.44
661.17	24306.46
661.32	24102.84
661.46	24664.57
661.60	24063.05
661.74	24299.44
661.89	24254.97
662.03	24114.54
662.17	24086.45
662.31	23969.43
662.46	23985.81
662.60	24013.90
662.74	23702.61
662.88	23978.79
663.03	23550.47
663.17	23543.45
663.31	23613.66
663.45	23550.47
663.60	23782.18
663.74	23510.68
663.88	23379.61
664.02	23618.35
664.17	23903.89
664.31	23592.60
664.45	23421.74
664.59	23653.45
664.73	23637.07
664.88	23655.79
665.02	23070.66
665.16	23187.69
665.30	23482.59
665.44	23199.39
665.59	23056.62
665.73	23124.49
665.87	23014.49
666.01	23283.65
666.15	23098.75
666.29	22998.10
666.44	22977.04
666.58	23044.91
666.72	22567.45
666.86	23103.43
667.00	22904.48
667.14	22785.12
667.28	22796.82
667.43	22553.40
667.57	22665.75
667.71	22759.37
667.85	22539.36
667.99	22731.28
668.13	22218.71
668.27	22883.42
668.41	22630.64
668.56	22780.43
668.70	22544.04
668.84	22473.82
668.98	22611.92
669.12	22661.07
669.26	22632.98
669.40	22436.38
669.54	22405.95
669.68	22551.06
669.82	21848.90
669.96	22115.72
670.10	22199.98
670.25	22010.40
670.39	21895.71
670.53	21944.86
670.67	21799.75
670.81	22497.23
670.95	21905.07
671.09	22143.81
671.23	21745.92
671.37	22024.44
671.51	21795.07
671.65	22005.72
671.79	21898.05
671.93	22022.10
672.07	21692.08
672.21	21523.57
672.35	21317.60
672.49	21556.33
672.63	21504.84
672.77	21584.42
672.91	21055.46
673.05	21193.55
673.19	21273.13
673.33	21331.64
673.47	21359.73
673.61	21624.21
673.75	21333.98
673.89	21188.87
674.03	20931.41
674.17	21008.65
674.31	21069.50
674.45	20819.07
674.59	20798.00
674.73	20975.88
674.87	20776.94
675.01	20800.34
675.15	20828.43
675.29	20746.51
675.43	20727.78
675.56	20858.85
675.70	20592.03
675.84	20688.00
675.98	20133.29
676.12	20765.23
676.26	20622.46
676.40	20561.61
676.54	20149.67
676.68	20166.06
676.82	19686.25
676.96	20217.55
677.10	20149.67
677.23	20070.09
677.37	19744.76
677.51	20032.65
677.65	19941.36
677.79	19929.66
677.93	19695.61
678.07	19571.56
678.21	19377.30
678.34	19405.38
678.48	19393.68
678.62	19325.80
678.76	19662.84
678.90	19400.70
679.04	19599.65
679.18	19262.61
679.31	19213.46
679.45	19136.22
679.59	18998.13
679.73	18902.17
679.87	18817.91
680.00	18970.04
680.14	19040.26
680.28	18693.86
680.42	19126.86
680.56	18761.73
680.70	18625.98
680.83	18948.98
680.97	18558.11
681.11	18724.29
681.25	18586.19
681.39	18249.16
681.52	18059.57
681.66	18228.09
681.80	17816.16
681.94	18134.47
682.07	18162.56
682.21	17860.63
682.35	17912.12
682.49	17729.56
682.62	17748.28
682.76	17832.54
682.90	18099.36
683.04	17820.84
683.17	17963.61
683.31	17757.64
683.45	17802.11
683.59	17647.64
683.72	17809.14
683.86	17584.44
684.00	17296.56
684.13	17624.23
684.27	17191.23
684.41	17429.97
684.55	17027.40
684.68	17046.12
684.82	17111.66
684.96	17088.25
685.09	16992.29
685.23	16823.77
685.37	16957.18
685.50	17029.74
685.64	16734.83
685.78	16683.34
685.91	16587.38
686.05	16650.57
686.19	16402.47
686.32	16844.84
686.46	16250.34
686.60	16065.44
686.73	16329.92
686.87	15999.90
687.01	16287.79
687.14	15962.45
687.28	16006.92
687.42	16299.49
687.55	16119.27
687.69	15955.43
687.82	15859.47
687.96	16053.73
688.10	15648.82
688.23	15580.95
688.37	15807.98
688.50	15845.43
688.64	15466.26
688.78	15772.87
688.91	15646.48
689.05	15653.50
689.18	15482.64
689.32	15089.43
689.46	15119.86
689.59	15150.29
689.73	15152.63
689.86	15307.10
690.00	14977.09
690.13	15283.70
690.27	15016.88
690.41	14925.60
690.54	14778.14
690.68	15051.99
690.81	15068.37
690.95	14759.42
691.08	14934.96
691.22	14787.50
691.35	14565.15
691.49	14679.84
691.62	14626.01
691.76	14537.07
691.89	14544.09
692.03	14225.78
692.16	14267.91
692.30	14207.05
692.43	14359.19
692.57	13926.19
692.70	13799.80
692.84	13809.16
692.97	13666.39
693.11	13846.61
693.24	14090.02
693.38	13743.63
693.51	14078.32
693.65	14010.45
693.78	13855.97
693.92	13675.75
694.05	13837.25
694.19	13528.30
694.32	13418.29
694.45	13312.97
694.59	13177.22
694.72	13130.41
694.86	13069.55
694.99	13053.17
695.13	13092.96
695.26	13137.43
695.39	12999.34
695.53	13074.23
695.66	13139.77
695.80	12884.65
695.93	12891.67
696.07	12826.14
696.20	12938.48
696.33	12512.50
696.47	12664.64
696.60	12599.10
696.73	12549.95
696.87	12603.78
697.00	12472.71
697.14	12376.75
697.27	12262.07
697.40	12161.42
697.54	12208.23
697.67	12484.42
697.80	11880.56
697.94	12201.21
698.07	12051.42
698.21	11882.90
698.34	12044.40
698.47	11761.19
698.61	11847.79
698.74	12121.63
698.87	11885.24
699.01	11426.50
699.14	11744.81
699.27	11667.57
699.40	11681.61
699.54	11719.06
699.67	11470.97
699.80	11515.44
699.94	11501.39
700.07	11379.68
700.20	11080.10
700.34	11126.91
700.47	10991.16
700.60	11012.22
700.73	11180.74
700.87	11056.69
701.00	11035.63
701.13	11105.84
701.26	11091.80
701.40	11002.86
701.53	10803.91
701.66	10836.68
701.79	10628.37
701.93	10801.57
702.06	10558.16
702.19	10478.58
702.32	10494.96
702.46	10485.60
702.59	10335.81
702.72	10171.97
702.85	10071.33
702.99	10204.74
703.12	10300.70
703.25	10204.74
703.38	10094.73
703.51	10045.58
703.65	10129.84
703.78	10043.24
703.91	10029.20
704.04	10057.28
704.17	9982.38
704.31	10026.86
704.44	9785.78
704.57	9921.53
704.70	9614.92
704.83	9619.60
704.96	9537.68
705.10	9397.25
705.23	9568.11
>>>>>End Processed Spectral Data<<<<<
