SpectraSuite Data File
++++++++++++++++++++++++++++++++++++
Date: Fri Oct 18 13:58:27 GMT-05:00 2013
User: bianchi
Dark Spectrum Present: No
Reference Spectrum Present: No
Number of Sampled Component Spectra: 1
Spectrometers: USB2+H05261
Integration Time (usec): 50000 (USB2+H05261)
Spectra Averaged: 1 (USB2+H05261)
Boxcar Smoothing: 0 (USB2+H05261)
Correct for Electrical Dark: No (USB2+H05261)
Strobe/Lamp Enabled: No (USB2+H05261)
Correct for Detector Non-linearity: No (USB2+H05261)
Correct for Stray Light: No (USB2+H05261)
Number of Pixels in Processed Spectrum: 2048
>>>>>Begin Processed Spectral Data<<<<<
365.73	0.00
365.92	0.00
366.12	0.00
366.32	0.00
366.52	0.00
366.72	0.00
366.91	0.00
367.11	0.00
367.31	0.00
367.51	0.00
367.70	0.00
367.90	0.00
368.10	0.00
368.30	0.00
368.49	0.00
368.69	0.00
368.89	0.00
369.09	0.00
369.28	0.00
369.48	0.00
369.68	0.00
369.87	0.00
370.07	0.00
370.27	0.00
370.47	0.00
370.66	72.56
370.86	182.56
371.06	140.43
371.25	154.48
371.45	182.56
371.65	84.26
371.84	124.05
372.04	220.01
372.24	161.50
372.44	227.03
372.63	159.16
372.83	234.05
373.03	191.92
373.22	177.88
373.42	187.24
373.62	276.18
373.81	294.91
374.01	135.75
374.21	234.05
374.40	191.92
374.60	208.31
374.79	231.71
374.99	243.42
375.19	245.76
375.38	273.84
375.58	252.78
375.78	238.73
375.97	264.48
376.17	304.27
376.37	231.71
376.56	208.31
376.76	257.46
376.95	318.31
377.15	297.25
377.35	283.20
377.54	290.23
377.74	311.29
377.93	217.67
378.13	266.82
378.33	332.36
378.52	306.61
378.72	271.50
378.91	259.80
379.11	306.61
379.31	273.84
379.50	283.20
379.70	255.12
379.89	283.20
380.09	311.29
380.28	304.27
380.48	271.50
380.68	395.55
380.87	358.10
381.07	294.91
381.26	346.40
381.46	234.05
381.65	299.59
381.85	353.42
382.04	355.76
382.24	339.38
382.43	348.74
382.63	315.97
382.83	327.68
383.02	313.63
383.22	313.63
383.41	365.12
383.61	379.17
383.80	360.44
384.00	301.93
384.19	458.74
384.39	353.42
384.58	367.46
384.78	369.80
384.97	454.06
385.17	400.23
385.36	346.40
385.56	407.25
385.75	404.91
385.95	376.83
386.14	444.70
386.34	395.55
386.53	463.43
386.72	358.10
386.92	365.12
387.11	393.21
387.31	390.87
387.50	411.93
387.70	449.38
387.89	447.04
388.09	428.32
388.28	442.36
388.48	456.40
388.67	493.85
388.86	463.43
389.06	379.17
389.25	449.38
389.45	381.51
389.64	447.04
389.84	521.94
390.03	421.30
390.22	514.92
390.42	479.81
390.61	435.34
390.81	458.74
391.00	484.49
391.19	489.17
391.39	521.94
391.58	491.51
391.78	486.83
391.97	479.81
392.16	477.47
392.36	498.53
392.55	496.19
392.75	550.03
392.94	538.32
393.13	524.28
393.33	585.13
393.52	580.45
393.71	540.66
393.91	540.66
394.10	622.58
394.29	587.47
394.49	645.99
394.68	629.60
394.88	653.01
395.07	610.88
395.26	599.18
395.46	540.66
395.65	676.41
395.84	627.26
396.04	641.31
396.23	638.97
396.42	606.20
396.62	699.82
396.81	713.86
397.00	667.05
397.19	681.10
397.39	615.56
397.58	681.10
397.77	648.33
397.97	760.67
398.16	662.37
398.35	758.33
398.55	662.37
398.74	650.67
398.93	718.54
399.12	676.41
399.32	678.76
399.51	739.61
399.70	718.54
399.90	774.72
400.09	793.44
400.28	746.63
400.47	716.20
400.67	903.45
400.86	772.38
401.05	737.27
401.24	819.19
401.44	891.74
401.63	844.93
401.82	812.17
402.01	851.96
402.21	753.65
402.40	786.42
402.59	837.91
402.78	800.46
402.97	858.98
403.17	915.15
403.36	798.12
403.55	772.38
403.74	891.74
403.93	866.00
404.13	844.93
404.32	753.65
404.51	950.26
404.70	915.15
404.89	887.06
405.09	933.87
405.28	861.32
405.47	987.71
405.66	1004.09
405.85	971.32
406.05	1053.24
406.24	950.26
406.43	1048.56
406.62	950.26
406.81	1116.44
407.00	985.37
407.20	961.96
407.39	912.81
407.58	1048.56
407.77	1086.01
407.96	1102.39
408.15	1018.13
408.34	1043.88
408.54	1090.69
408.73	1048.56
408.92	1109.41
409.11	1081.33
409.30	1132.82
409.49	1107.07
409.68	1137.50
409.87	1146.86
410.07	1097.71
410.26	1135.16
410.45	1205.38
410.64	1144.52
410.83	1139.84
411.02	1184.31
411.21	1207.72
411.40	1224.10
411.59	1291.98
411.78	1196.01
411.98	1280.27
412.17	1224.10
412.36	1324.74
412.55	1322.40
412.74	1284.95
412.93	1203.04
413.12	1287.29
413.31	1430.07
413.50	1301.34
413.69	1451.13
413.88	1392.62
414.07	1291.98
414.26	1446.45
414.45	1409.00
414.64	1453.47
414.83	1554.12
415.02	1509.65
415.22	1547.09
415.41	1614.97
415.60	1584.54
415.79	1603.27
415.98	1570.50
416.17	1593.90
416.36	1549.43
416.55	1542.41
416.74	1657.10
416.93	1696.89
417.12	1664.12
417.31	1720.29
417.50	1626.67
417.69	1699.23
417.88	1692.21
418.07	1703.91
418.26	1689.87
418.45	1781.15
418.64	1884.13
418.83	1778.81
419.02	1743.70
419.21	1830.30
419.39	1785.83
419.58	1748.38
419.77	1776.47
419.96	1802.21
420.15	1933.28
420.34	1858.39
420.53	1872.43
420.72	1954.35
420.91	1818.60
421.10	1905.20
421.29	2024.56
421.48	1792.85
421.67	1919.24
421.86	1989.46
422.05	1966.05
422.24	1944.99
422.43	1863.07
422.61	1989.46
422.80	1998.82
422.99	1952.01
423.18	1984.77
423.37	2036.27
423.56	1984.77
423.75	1975.41
423.94	2033.93
424.13	1823.28
424.32	1989.46
424.50	2186.06
424.69	1961.37
424.88	2010.52
425.07	2080.74
425.26	1980.09
425.45	1991.80
425.64	2015.20
425.83	2045.63
426.01	2017.54
426.20	2012.86
426.39	2113.50
426.58	2078.40
426.77	2001.16
426.96	1942.64
427.15	2111.16
427.33	2157.97
427.52	2071.37
427.71	2141.59
427.90	2190.74
428.09	2129.89
428.28	2179.04
428.46	2209.47
428.65	2200.10
428.84	2319.47
429.03	2340.54
429.22	2080.74
429.40	2155.63
429.59	2232.87
429.78	2167.34
429.97	2249.25
430.16	2228.19
430.34	2200.10
430.53	2429.48
430.72	2354.58
430.91	2230.53
431.10	2298.41
431.28	2244.57
431.47	2228.19
431.66	2277.34
431.85	2380.32
432.03	2373.30
432.22	2373.30
432.41	2385.01
432.60	2375.64
432.79	2413.09
432.97	2424.80
433.16	2417.77
433.35	2445.86
433.54	2466.92
433.72	2471.61
433.91	2429.48
434.10	2427.14
434.28	2403.73
434.47	2569.91
434.66	2544.16
434.85	2492.67
435.03	2661.19
435.22	2537.14
435.41	2675.23
435.59	2525.44
435.78	2555.86
435.97	2541.82
436.16	2654.17
436.34	2537.14
436.53	2670.55
436.72	2780.56
436.90	2684.59
437.09	2672.89
437.28	2672.89
437.46	2855.45
437.65	2715.02
437.84	2684.59
438.02	2773.53
438.21	2855.45
438.40	2806.30
438.58	2841.41
438.77	2822.69
438.96	2850.77
439.14	2867.16
439.33	2862.48
439.52	3014.61
439.70	2902.26
439.89	3009.93
440.08	3054.40
440.26	3019.29
440.45	3005.25
440.63	3047.38
440.82	3239.30
441.01	3112.91
441.19	3183.13
441.38	3213.56
441.57	3194.83
441.75	3229.94
441.94	3428.88
442.12	3234.62
442.31	3321.22
442.50	3337.60
442.68	3283.77
442.87	3269.73
443.05	3197.17
443.24	3382.07
443.43	3337.60
443.61	3379.73
443.80	3421.86
443.98	3192.49
444.17	3201.85
444.35	3433.57
444.54	3625.49
444.73	3440.59
444.91	3482.72
445.10	3379.73
445.28	3442.93
445.47	3459.31
445.65	3459.31
445.84	3412.50
446.02	3487.40
446.21	3508.46
446.39	3456.97
446.58	3503.78
446.77	3515.48
446.95	3372.71
447.14	3571.66
447.32	3445.27
447.51	3356.33
447.69	3545.91
447.88	3499.10
448.06	3557.61
448.25	3475.70
448.43	3592.72
448.62	3365.69
448.80	3414.84
448.99	3574.00
449.17	3576.34
449.36	3545.91
449.54	3574.00
449.73	3672.30
449.91	3705.07
450.10	3597.40
450.28	3716.77
450.46	3627.83
450.65	3691.02
450.83	3691.02
451.02	3653.58
451.20	3779.97
451.39	3679.32
451.57	3637.19
451.76	3599.74
451.94	3763.58
452.13	3735.50
452.31	3749.54
452.49	3714.43
452.68	3812.73
452.86	3796.35
453.05	3960.19
453.23	3969.55
453.42	3782.31
453.60	3772.94
453.78	3941.46
453.97	3927.42
454.15	3971.89
454.34	3861.88
454.52	3978.91
454.70	3967.21
454.89	3999.98
455.07	3737.84
455.26	4187.22
455.44	3971.89
455.62	4088.92
455.81	4168.49
455.99	3948.48
456.17	4042.11
456.36	4102.96
456.54	4227.01
456.73	4124.02
456.91	4306.59
457.09	4503.19
457.28	4217.65
457.46	4334.67
457.64	4322.97
457.83	4266.80
458.01	4210.62
458.19	4358.08
458.38	4269.14
458.56	4339.35
458.74	4320.63
458.93	4341.69
459.11	4395.53
459.29	4421.27
459.48	4470.42
459.66	4566.39
459.84	4550.00
460.03	4517.23
460.21	4493.83
460.39	4582.77
460.57	4493.83
460.76	4550.00
460.94	4550.00
461.12	4648.30
461.31	4451.70
461.49	4643.62
461.67	4671.71
461.85	4823.84
462.04	4606.17
462.22	4676.39
462.40	4720.86
462.59	4662.35
462.77	4587.45
462.95	4884.70
463.13	4833.21
463.32	4781.71
463.50	4601.49
463.68	4793.42
463.86	4847.25
464.05	4816.82
464.23	4645.96
464.41	4926.83
464.59	4793.42
464.78	4957.25
464.96	4896.40
465.14	4772.35
465.32	4947.89
465.50	5104.71
465.69	4964.28
465.87	4898.74
466.05	4905.76
466.23	5039.17
466.41	5011.09
466.60	5245.14
466.78	4980.66
466.96	4830.87
467.14	4947.89
467.32	5036.83
467.51	5020.45
467.69	5032.15
467.87	5107.05
468.05	5231.10
468.23	5041.51
468.41	5107.05
468.60	5151.52
468.78	5247.48
468.96	5195.99
469.14	5240.46
469.32	5163.22
469.50	5085.98
469.69	5303.65
469.87	5401.96
470.05	5416.00
470.23	5453.45
470.41	5408.98
470.59	5441.75
470.77	5448.77
470.95	5406.64
471.14	5631.33
471.32	5495.58
471.50	5577.50
471.68	5675.80
471.86	5530.69
472.04	5593.88
472.22	5722.61
472.40	5666.44
472.58	5565.79
472.77	5720.27
472.95	5820.91
473.13	5813.89
473.31	5996.45
473.49	5877.09
473.67	5837.30
473.85	5933.26
474.03	5942.62
474.21	5987.09
474.39	5994.11
474.57	5989.43
474.75	6164.97
474.93	6195.40
475.12	6017.52
475.30	6054.97
475.48	6272.64
475.66	6293.70
475.84	6214.12
476.02	6265.61
476.20	6111.14
476.38	6345.19
476.56	6581.59
476.74	6317.11
476.92	6480.94
477.10	6413.07
477.28	6441.15
477.46	6434.13
477.64	6665.85
477.82	6876.49
478.00	6745.42
478.18	6813.30
478.36	7157.36
478.54	7005.22
478.72	6825.00
478.90	7019.27
479.08	7323.54
479.26	7012.24
479.44	7293.11
479.62	7297.79
479.80	7382.05
479.98	7487.37
480.16	7630.15
480.34	7478.01
480.52	7466.31
480.70	7583.34
480.88	7368.01
481.06	7676.96
481.24	7784.62
481.41	7719.09
481.59	7864.20
481.77	7868.88
481.95	8079.53
482.13	8084.21
482.31	8142.72
482.49	8325.29
482.67	8112.30
482.85	8095.91
483.03	8446.99
483.21	8432.95
483.39	8486.78
483.57	8571.04
483.74	8737.22
483.92	8596.79
484.10	8610.83
484.28	8854.25
484.46	9011.06
484.64	9165.54
484.82	9076.60
485.00	8961.91
485.18	9153.84
485.35	9373.85
485.53	9172.56
485.71	9455.76
485.89	9645.35
486.07	9563.43
486.25	9420.66
486.43	9631.30
486.61	9579.81
486.78	9703.86
486.96	9982.38
487.14	10059.62
487.32	10003.45
487.50	10101.75
487.68	10286.65
487.85	10228.14
488.03	10434.11
488.21	10359.21
488.39	10389.64
488.57	10417.72
488.75	10593.26
488.92	11061.37
489.10	10867.11
489.28	10998.18
489.46	11169.04
489.64	10920.94
489.81	11052.01
489.99	11063.71
490.17	11363.30
490.35	11393.73
490.53	11391.39
490.70	11683.95
490.88	11578.63
491.06	11681.61
491.24	11627.78
491.41	11662.89
491.59	11515.44
491.77	11791.62
491.95	11960.14
492.13	12114.61
492.30	12140.36
492.48	12114.61
492.66	12152.06
492.84	12262.07
493.01	12545.27
493.19	12428.24
493.37	12542.93
493.54	12580.38
493.72	12776.98
493.90	12512.50
494.08	12816.77
494.25	12875.29
494.43	12975.93
494.61	13004.02
494.79	13099.98
494.96	13118.70
495.14	13341.05
495.32	13366.80
495.49	13476.80
495.67	13542.34
495.85	13858.31
496.02	13605.53
496.20	13841.93
496.38	13926.19
496.55	13855.97
496.73	14200.03
496.91	13909.80
497.09	14183.65
497.26	14242.16
497.44	14157.90
497.62	14141.52
497.79	14487.92
497.97	14600.26
498.14	14436.42
498.32	14600.26
498.50	14640.05
498.67	14717.29
498.85	14710.27
499.03	14846.02
499.20	14574.52
499.38	14785.16
499.56	15166.67
499.73	15009.86
499.91	15468.60
500.08	15229.87
500.26	15040.28
500.44	15374.98
500.61	15358.60
500.79	15297.74
500.97	15405.41
501.14	15969.48
501.32	15836.06
501.49	15594.99
501.67	15695.63
501.84	15775.21
502.02	15686.27
502.20	15735.42
502.37	15810.32
502.55	15962.45
502.72	16187.14
502.90	16128.63
503.07	16137.99
503.25	16130.97
503.43	15953.09
503.60	16346.30
503.78	16570.99
503.95	16414.18
504.13	16238.64
504.30	16453.97
504.48	16393.11
504.65	16608.44
504.83	16676.32
505.01	16624.83
505.18	16987.61
505.36	16982.93
505.53	16901.01
505.71	16592.06
505.88	16940.80
506.06	17020.38
506.23	17298.90
506.41	16971.22
506.58	17362.09
506.76	17310.60
506.93	17539.97
507.11	17458.06
507.28	17336.35
507.46	17371.46
507.63	17549.34
507.81	17544.66
507.98	17554.02
508.16	17764.67
508.33	17556.36
508.50	17907.44
508.68	17947.23
508.85	18223.41
509.03	17937.87
509.20	18017.44
509.38	18099.36
509.55	18176.60
509.73	18064.25
509.90	18115.75
510.08	18312.35
510.25	18155.54
510.42	18497.25
510.60	18370.86
510.77	18640.03
510.95	18544.06
511.12	17940.21
511.30	18492.57
511.47	18485.55
511.64	18654.07
511.82	18785.14
511.99	18771.10
512.17	19044.94
512.34	18625.98
512.51	18979.40
512.69	19192.39
512.86	18965.36
513.04	19229.84
513.21	18995.79
513.38	19089.41
513.56	19377.30
513.73	19215.80
513.90	19323.46
514.08	19407.72
514.25	19491.98
514.43	19246.23
514.60	19527.09
514.77	19719.01
514.95	19943.70
515.12	19550.49
515.29	19768.16
515.47	19609.01
515.64	19899.23
515.81	19826.68
515.99	20011.58
516.16	20388.41
516.33	20215.21
516.51	20121.59
516.68	19969.45
516.85	19948.39
517.03	20500.75
517.20	20084.14
517.37	20374.36
517.54	20292.44
517.72	20318.19
517.89	20339.26
518.06	20458.62
518.24	20582.67
518.41	20592.03
518.58	20521.82
518.75	20219.89
518.93	20723.10
519.10	20547.56
519.27	20645.87
519.45	20685.65
519.62	20940.77
519.79	20903.32
519.96	21277.81
520.14	21352.71
520.31	21027.37
520.48	20795.66
520.65	20908.01
520.83	21053.12
521.00	21451.01
521.17	21305.90
521.34	21500.16
521.52	21570.38
521.69	21371.43
521.86	21259.09
522.03	21563.36
522.20	21605.49
522.38	21329.30
522.55	21593.78
522.72	21762.30
522.89	21493.14
523.07	22089.98
523.24	22162.53
523.41	22104.02
523.58	21678.04
523.75	22085.30
523.92	22017.42
524.10	22001.04
524.27	21771.66
524.44	22125.08
524.61	22478.50
524.78	22558.08
524.96	22361.48
525.13	22190.62
525.30	21979.97
525.47	22380.20
525.64	22368.50
525.81	22272.54
525.98	23091.73
526.16	22696.17
526.33	22558.08
526.50	22684.47
526.67	22541.70
526.84	22410.63
527.01	22792.14
527.18	22532.34
527.36	22541.70
527.53	23007.47
527.70	23190.03
527.87	23026.19
528.04	22981.72
528.21	23180.67
528.38	22904.48
528.55	23426.42
528.72	22864.69
528.89	23091.73
529.07	23627.71
529.24	23087.04
529.41	23461.53
529.58	22731.28
529.75	23147.90
529.92	23309.40
530.09	23208.75
530.26	23433.44
530.43	23454.51
530.60	23180.67
530.77	23405.36
530.94	23543.45
531.11	23716.65
531.28	23473.23
531.46	23903.89
531.63	23601.96
531.80	23810.27
531.97	23590.26
532.14	24114.54
532.31	23667.50
532.48	23843.04
532.65	24074.75
532.82	23644.09
532.99	23686.22
533.16	24098.16
533.33	24325.19
533.50	24456.26
533.67	24238.59
533.84	23988.15
534.01	23805.59
534.18	24254.97
534.35	24503.07
534.52	24114.54
534.69	24617.75
534.86	24446.90
535.03	24173.05
535.20	24542.86
535.37	24566.26
535.54	24652.86
535.71	24673.93
535.88	24346.25
536.05	24372.00
536.22	24662.22
536.38	24968.84
536.55	24886.92
536.72	24638.82
536.89	24863.51
537.06	24851.81
537.23	24772.23
537.40	24746.48
537.57	24666.91
537.74	24737.12
537.91	25226.29
538.08	25090.54
538.25	24863.51
538.42	25139.69
538.59	25055.43
538.75	24961.81
538.92	25135.01
539.09	25095.22
539.26	25259.06
539.43	25322.26
539.60	25048.41
539.77	25289.49
539.94	25441.62
540.11	24807.34
540.28	25450.99
540.44	24987.56
540.61	25539.93
540.78	25525.88
540.95	25558.65
541.12	25191.19
541.29	25383.11
541.46	25624.18
541.62	25558.65
541.79	25846.54
541.96	25460.35
542.13	25439.28
542.30	25530.56
542.47	25322.26
542.63	25862.92
542.80	25989.31
542.97	25806.75
543.14	26108.68
543.31	26040.80
543.48	26155.49
543.64	26349.75
543.81	26174.21
543.98	26361.45
544.15	26644.66
544.32	26204.64
544.48	26487.84
544.65	25867.60
544.82	26410.60
544.99	25972.92
545.16	25886.32
545.32	26328.69
545.49	26466.78
545.66	26394.22
545.83	26359.11
546.00	26864.67
546.16	26551.04
546.33	26216.34
546.50	26221.02
546.67	26459.76
546.83	26338.05
547.00	26593.17
547.17	26448.05
547.34	26925.52
547.50	26778.07
547.67	27072.98
547.84	26609.55
548.00	26642.32
548.17	26822.54
548.34	26988.72
548.51	26824.88
548.67	26895.10
548.84	26906.80
549.01	27255.54
549.18	26960.63
549.34	26906.80
549.51	26981.70
549.68	27014.46
549.84	26869.35
550.01	26981.70
550.18	26962.97
550.34	27288.31
550.51	27424.06
550.68	27332.78
550.84	26960.63
551.01	27665.13
551.18	26885.73
551.34	26754.66
551.51	27096.38
551.68	27192.34
551.84	27601.94
552.01	27147.87
552.18	27646.41
552.34	27557.47
552.51	27693.22
552.68	27487.25
552.84	27599.60
553.01	27702.58
553.18	27555.13
553.34	27353.84
553.51	27566.83
553.67	27583.21
553.84	27908.55
554.01	28177.71
554.17	27573.85
554.34	27910.89
554.51	27711.94
554.67	27660.45
554.84	27510.66
555.00	27854.72
555.17	27770.46
555.33	27473.21
555.50	27775.14
555.67	27728.33
555.83	27630.02
556.00	27716.62
556.16	28503.04
556.33	27777.48
556.50	27742.37
556.66	28041.96
556.83	28240.90
556.99	28371.97
557.16	28437.51
557.32	27955.36
557.49	28151.96
557.65	27920.25
557.82	27955.36
557.98	28056.00
558.15	28212.82
558.32	28341.55
558.48	28259.63
558.65	28549.85
558.81	28477.30
558.98	28566.24
559.14	28325.16
559.31	28095.79
559.47	28460.91
559.64	28500.70
559.80	28563.90
559.97	28697.31
560.13	28334.53
560.30	28215.16
560.46	28493.68
560.63	28596.67
560.79	28393.04
560.96	28514.75
561.12	28290.06
561.29	28140.26
561.45	28486.66
561.61	28624.75
561.78	28650.50
561.94	28730.08
562.11	28800.29
562.27	28720.71
562.44	28173.03
562.60	28704.33
562.77	28676.24
562.93	28638.80
563.10	28804.97
563.26	28819.02
563.42	28837.74
563.59	28940.72
563.75	28950.09
563.92	28477.30
564.08	28671.56
564.24	28489.00
564.41	28334.53
564.57	28879.87
564.74	28510.07
564.90	29170.10
565.07	28524.11
565.23	28819.02
565.39	29064.77
565.56	28713.69
565.72	28713.69
565.88	28444.53
566.05	28868.17
566.21	28725.39
566.38	28765.18
566.54	29041.37
566.70	29134.99
566.87	29252.02
567.03	28914.98
567.19	29326.91
567.36	29411.17
567.52	29156.05
567.68	29109.24
567.85	29069.45
568.01	28961.79
568.17	28666.88
568.34	29001.58
568.50	29146.69
568.66	28870.51
568.83	29401.81
568.99	28861.15
569.15	28922.00
569.32	29120.95
569.48	29013.28
569.64	28980.51
569.81	29465.00
569.97	28966.47
570.13	28683.27
570.30	28917.32
570.46	29319.89
570.62	29216.91
570.78	29193.50
570.95	28758.16
571.11	29371.38
571.27	28912.64
571.43	28968.81
571.60	29350.32
571.76	29420.53
571.92	29088.18
572.09	29530.54
572.25	29366.70
572.41	29472.03
572.57	29347.98
572.74	29476.71
572.90	29132.65
573.06	28870.51
573.22	29500.11
573.38	28945.41
573.55	29172.44
573.71	29715.44
573.87	29773.95
574.03	29221.59
574.20	29046.05
574.36	29287.12
574.52	29177.12
574.68	29577.35
574.84	29432.24
575.01	29235.63
575.17	29411.17
575.33	29521.18
575.49	29291.80
575.65	29486.07
575.82	29237.97
575.98	29163.08
576.14	29675.65
576.30	29350.32
576.46	29429.90
576.62	29123.29
576.79	29289.46
576.95	28875.19
577.11	29170.10
577.27	29645.23
577.43	29565.65
577.59	29338.62
577.75	29619.48
577.92	29149.03
578.08	29507.13
578.24	29294.14
578.40	29439.26
578.56	29252.02
578.72	29329.25
578.88	29876.94
579.04	29649.91
579.21	29502.45
579.37	29436.92
579.53	29736.51
579.69	29614.80
579.85	29507.13
580.01	29802.04
580.17	29312.87
580.33	29607.78
580.49	29333.93
580.65	29706.08
580.82	29621.82
580.98	29483.73
581.14	29553.94
581.30	29905.02
581.46	29233.29
581.62	29715.44
581.78	29626.50
581.94	29504.79
582.10	29254.36
582.26	29301.17
582.42	29605.44
582.58	29560.97
582.74	29841.83
582.90	29638.20
583.06	29832.47
583.22	29572.67
583.38	29645.23
583.54	29530.54
583.70	29467.34
583.86	29699.06
584.02	29521.18
584.18	29252.02
584.34	29371.38
584.50	29975.24
584.66	29294.14
584.82	29053.07
584.98	29535.22
585.14	29343.30
585.30	29647.57
585.46	29490.75
585.62	29465.00
585.78	29266.06
585.94	29242.65
586.10	29937.79
586.26	29406.49
586.42	29682.67
586.58	29860.55
586.74	29645.23
586.90	29411.17
587.06	29422.87
587.22	29645.23
587.38	29661.61
587.54	29804.38
587.70	29895.66
587.86	29661.61
588.02	29654.59
588.18	30019.71
588.34	29649.91
588.49	29535.22
588.65	29656.93
588.81	29886.30
588.97	29881.62
589.13	29722.46
589.29	29504.79
589.45	29469.69
589.61	29876.94
589.77	30068.86
589.93	30085.25
590.08	29816.08
590.24	30087.59
590.40	30150.78
590.56	29755.23
590.72	29898.00
590.88	29640.54
591.04	29577.35
591.20	29888.64
591.35	30225.68
591.51	30443.35
591.67	29474.37
591.83	30157.80
591.99	29556.28
592.15	29965.88
592.31	30050.14
592.46	29998.65
592.62	29371.38
592.78	30106.31
592.94	30075.88
593.10	29720.12
593.26	30066.52
593.41	30288.87
593.57	30218.66
593.73	30022.05
593.89	30134.40
594.05	29741.19
594.20	29750.55
594.36	29649.91
594.52	29958.86
594.68	29811.40
594.84	29734.17
594.99	29783.32
595.15	30122.69
595.31	30572.08
595.47	29996.31
595.62	30586.12
595.78	30148.44
595.94	30211.64
596.10	30087.59
596.25	30089.93
596.41	29694.38
596.57	29722.46
596.73	29752.89
596.88	30150.78
597.04	30155.46
597.20	30092.27
597.36	30125.04
597.51	30342.70
597.67	30169.51
597.83	30092.27
597.99	29750.55
598.14	30167.16
598.30	30209.29
598.46	30118.01
598.61	30300.58
598.77	30213.98
598.93	30017.37
599.09	30129.72
599.24	30529.95
599.40	30490.16
599.56	30499.52
599.71	30375.47
599.87	30656.34
600.03	30246.74
600.18	30089.93
600.34	30211.64
600.50	30110.99
600.65	30646.97
600.81	30562.72
600.97	30094.61
601.12	30539.31
601.28	30101.63
601.44	30167.16
601.59	30136.74
601.75	30263.13
601.91	30389.52
602.06	29890.98
602.22	30174.19
602.37	29937.79
602.53	30059.50
602.69	30211.64
602.84	30281.85
603.00	30462.07
603.16	30213.98
603.31	30029.07
603.47	30190.57
603.62	30375.47
603.78	30057.16
603.94	29940.13
604.09	29961.20
604.25	30279.51
604.40	29984.60
604.56	30099.29
604.71	30352.07
604.87	30279.51
605.03	30279.51
605.18	30281.85
605.34	30169.51
605.49	30005.67
605.65	30185.89
605.80	29624.16
605.96	30225.68
606.12	30216.32
606.27	30394.20
606.43	29525.86
606.58	30237.38
606.74	29951.84
606.89	30043.12
607.05	29975.24
607.20	30181.21
607.36	30265.47
607.51	29832.47
607.67	29890.98
607.82	29926.09
607.98	30143.76
608.13	29731.83
608.29	29928.43
608.44	30260.79
608.60	30244.40
608.75	30000.99
608.91	30181.21
609.06	30228.02
609.22	30096.95
609.37	29724.80
609.53	29820.77
609.68	29759.91
609.84	29675.65
609.99	29954.18
610.15	29778.64
610.30	29830.13
610.46	29694.38
610.61	29579.69
610.76	29968.22
610.92	30122.69
611.07	29883.96
611.23	29876.94
611.38	29839.49
611.54	29610.12
611.69	29493.09
611.84	29521.18
612.00	29326.91
612.15	29715.44
612.31	29724.80
612.46	29535.22
612.62	29991.62
612.77	29837.15
612.92	30057.16
613.08	29376.06
613.23	29610.12
613.39	29380.74
613.54	29249.67
613.69	29565.65
613.85	29310.53
614.00	29530.54
614.15	29673.31
614.31	29355.00
614.46	29855.87
614.62	29340.96
614.77	29340.96
614.92	29376.06
615.08	29446.28
615.23	29565.65
615.38	29340.96
615.54	29284.78
615.69	29296.49
615.84	29355.00
616.00	29287.12
616.15	29287.12
616.30	29453.30
616.46	29425.22
616.61	29373.72
616.76	29832.47
616.92	29315.21
617.07	29083.50
617.22	28919.66
617.37	29195.84
617.53	29296.49
617.68	29287.12
617.83	29156.05
617.99	29106.90
618.14	29099.88
618.29	29439.26
618.45	29160.73
618.60	29275.42
618.75	29237.97
618.90	29163.08
619.06	29577.35
619.21	29090.52
619.36	29294.14
619.51	28816.68
619.67	29132.65
619.82	28772.21
619.97	28980.51
620.12	28868.17
620.28	28699.65
620.43	28861.15
620.58	29200.52
620.73	28910.30
620.89	28854.12
621.04	29088.18
621.19	28657.52
621.34	28982.85
621.49	29067.11
621.65	28556.88
621.80	28772.21
621.95	28594.32
622.10	28851.78
622.25	28896.25
622.41	28648.16
622.56	28704.33
622.71	29027.32
622.86	28788.59
623.01	28718.37
623.16	28842.42
623.32	28456.23
623.47	28671.56
623.62	28481.98
623.77	28456.23
623.92	28498.36
624.07	28531.13
624.23	28657.52
624.38	28425.81
624.53	28617.73
624.68	28896.25
624.83	28797.95
624.98	28690.29
625.13	28802.63
625.29	28732.42
625.44	28594.32
625.59	28278.35
625.74	28257.29
625.89	28173.03
626.04	28166.01
626.19	28058.34
626.34	28210.48
626.49	28311.12
626.65	28290.06
626.80	28636.45
626.95	28271.33
627.10	28151.96
627.25	28400.06
627.40	28308.78
627.55	28067.70
627.70	27754.07
627.85	27878.12
628.00	28105.15
628.15	28084.09
628.30	27953.02
628.45	28112.17
628.60	28034.94
628.76	28011.53
628.91	28051.32
629.06	27840.67
629.21	27882.80
629.36	28158.99
629.51	27779.82
629.66	27861.74
629.81	27655.77
629.96	27658.11
630.11	27967.06
630.26	27931.95
630.41	27531.72
630.56	27543.42
630.71	27868.76
630.86	27955.36
631.01	27679.18
631.16	28044.30
631.31	27716.62
631.46	27454.48
631.61	27892.16
631.76	27686.20
631.91	27590.24
632.06	27882.80
632.21	27527.04
632.36	27517.68
632.51	27505.98
632.66	27936.63
632.81	27096.38
632.96	27667.47
633.10	27880.46
633.25	27791.52
633.40	27845.35
633.55	27194.68
633.70	27192.34
633.85	27157.24
634.00	27182.98
634.15	27302.35
634.30	27541.08
634.45	27288.31
634.60	27131.49
634.75	27307.03
634.90	27377.25
635.05	27016.80
635.19	27414.69
635.34	27714.28
635.49	27578.53
635.64	27192.34
635.79	27047.23
635.94	27171.28
636.09	27239.15
636.24	27051.91
636.39	27126.81
636.53	26890.41
636.68	26831.90
636.83	27171.28
636.98	27232.13
637.13	27138.51
637.28	27295.33
637.43	27054.25
637.57	27470.87
637.72	27264.90
637.87	27072.98
638.02	26843.60
638.17	26953.61
638.32	27047.23
638.46	26862.33
638.61	26778.07
638.76	26859.99
638.91	26993.40
639.06	27122.13
639.20	26473.80
639.35	26991.06
639.50	27063.61
639.65	27168.94
639.80	27098.72
639.94	26930.20
640.09	26836.58
640.24	26803.82
640.39	26623.59
640.54	26632.96
640.68	26595.51
640.83	26658.70
640.98	26218.68
641.13	26452.73
641.27	26546.36
641.42	26691.47
641.57	26668.06
641.72	26565.08
641.86	26366.13
642.01	26766.37
642.16	26532.31
642.31	26455.08
642.45	26611.89
642.60	26127.40
642.75	26075.91
642.90	26307.62
643.04	26267.83
643.19	26155.49
643.34	26684.45
643.48	26661.04
643.63	26274.85
643.78	26300.60
643.93	26305.28
644.07	26532.31
644.22	26199.96
644.37	26422.31
644.51	26263.15
644.66	26651.68
644.81	26195.28
644.95	26059.52
645.10	25848.88
645.25	26061.87
645.39	26321.66
645.54	26199.96
645.69	26148.46
645.83	26169.53
645.98	25958.88
646.13	26139.10
646.27	26106.34
646.42	26103.99
646.57	26026.76
646.71	25879.30
646.86	26314.64
647.00	26122.72
647.15	26066.55
647.30	25771.64
647.44	25832.49
647.59	25785.68
647.74	25694.40
647.88	25813.77
648.03	26150.81
648.17	26040.80
648.32	26162.51
648.47	26148.46
648.61	25755.26
648.76	25757.60
648.90	25996.33
649.05	25790.36
649.20	25809.09
649.34	25914.41
649.49	25682.70
649.63	25628.87
649.78	25401.83
649.92	25188.85
650.07	25750.57
650.21	25633.55
650.36	25366.73
650.51	25647.59
650.65	25708.44
650.80	25621.84
650.94	25778.66
651.09	25560.99
651.23	25394.81
651.38	25507.16
651.52	25518.86
651.67	25502.48
651.81	25738.87
651.96	25226.29
652.10	25553.97
652.25	25425.24
652.39	25439.28
652.54	25673.34
652.68	25687.38
652.83	25535.24
652.97	25326.94
653.12	25776.32
653.26	25348.00
653.41	25015.65
653.55	24929.05
653.70	24992.24
653.84	25486.09
653.99	25242.68
654.13	25102.25
654.27	25144.38
654.42	24861.17
654.56	25123.31
654.71	24781.59
654.85	25048.41
655.00	25397.15
655.14	25294.17
655.29	24774.57
655.43	25277.79
655.57	25221.61
655.72	25111.61
655.86	24919.68
656.01	24812.02
656.15	24664.57
656.30	24973.52
656.44	24959.47
656.58	24926.71
656.73	25261.40
656.87	24945.43
657.01	24912.66
657.16	25235.66
657.30	25003.94
657.45	24849.47
657.59	24905.64
657.73	24678.61
657.88	24938.41
658.02	24795.64
658.16	24720.74
658.31	24723.08
658.45	24582.65
658.60	24336.89
658.74	24762.87
658.88	24404.77
659.03	24301.78
659.17	24379.02
659.31	24629.46
659.46	24411.79
659.60	24507.75
659.74	24486.68
659.89	24201.14
660.03	24636.48
660.17	24348.59
660.32	24435.19
660.46	24072.41
660.60	23901.55
660.74	24016.24
660.89	24105.18
661.03	23779.84
661.17	24245.61
661.32	23782.18
661.46	24168.37
661.60	24175.39
661.74	23894.53
661.89	23946.02
662.03	23728.35
662.17	23847.72
662.31	23836.02
662.46	23866.44
662.60	23754.10
662.74	23681.54
662.88	23632.39
663.03	23627.71
663.17	23793.89
663.31	23468.55
663.45	23510.68
663.60	23606.64
663.74	23407.70
663.88	23658.14
664.02	23634.73
664.17	23700.26
664.31	23358.55
664.45	23321.10
664.59	23566.85
664.73	23346.84
664.88	23325.78
665.02	22967.68
665.16	23426.42
665.30	23126.83
665.44	22838.95
665.59	22869.37
665.73	22991.08
665.87	23253.22
666.01	22958.31
666.15	22930.23
666.29	23002.78
666.44	23037.89
666.58	23075.34
666.72	22838.95
666.86	22831.93
667.00	23014.49
667.14	22932.57
667.28	22831.93
667.43	22569.79
667.57	22946.61
667.71	22640.00
667.85	22260.84
667.99	22169.55
668.13	22738.30
668.27	22689.15
668.41	22778.09
668.56	22560.42
668.70	22621.28
668.84	22588.51
668.98	22309.99
669.12	22326.37
669.26	22368.50
669.40	22120.40
669.54	22511.27
669.68	22260.84
669.82	22499.57
669.96	22225.73
670.10	22066.57
670.25	22181.26
670.39	21860.60
670.53	21984.65
670.67	22019.76
670.81	21982.31
670.95	22221.05
671.09	21963.59
671.23	21970.61
671.37	22094.66
671.51	21874.65
671.65	21991.67
671.79	21673.36
671.93	21544.63
672.07	21750.60
672.21	21607.83
672.35	21390.16
672.49	21488.46
672.63	21755.28
672.77	21186.53
672.91	21443.99
673.05	21558.67
673.19	21345.69
673.33	21256.75
673.47	21214.62
673.61	21404.20
673.75	21331.64
673.89	21102.27
674.03	21172.49
674.17	21642.93
674.31	21067.16
674.45	20868.22
674.59	20945.45
674.73	21097.59
674.87	20922.05
675.01	20673.95
675.15	20877.58
675.29	20711.40
675.43	20725.44
675.56	20636.50
675.70	20580.33
675.84	20486.71
675.98	20093.50
676.12	20367.34
676.26	20631.82
676.40	20283.08
676.54	20306.49
676.68	20414.15
676.82	20208.19
676.96	20446.92
677.10	20144.99
677.23	19988.18
677.37	20056.05
677.51	19779.87
677.65	19733.06
677.79	19578.58
677.93	19623.05
678.07	19791.57
678.21	19569.22
678.34	19606.67
678.48	19358.57
678.62	19363.25
678.76	19506.02
678.90	19557.52
679.04	19276.65
679.18	19339.85
679.31	18920.89
679.45	18909.19
679.59	18874.08
679.73	18637.69
679.87	18799.18
680.00	18682.16
680.14	18759.39
680.28	18513.64
680.42	18848.33
680.56	18726.63
680.70	18424.70
680.83	18862.38
680.97	18623.64
681.11	18693.86
681.25	18611.94
681.39	18204.69
681.52	18284.26
681.66	18244.48
681.80	17987.02
681.94	18279.58
682.07	17799.77
682.21	18057.23
682.35	18061.91
682.49	17884.03
682.62	17792.75
682.76	17687.43
682.90	17628.92
683.04	17912.12
683.17	17923.82
683.31	17921.48
683.45	17692.11
683.59	17509.55
683.72	17458.06
683.86	17781.05
684.00	17242.73
684.13	17385.50
684.27	17380.82
684.41	17102.29
684.55	16835.47
684.68	16947.82
684.82	16830.79
684.96	16912.71
685.09	16978.25
685.23	16521.84
685.37	17036.76
685.50	16802.71
685.64	16702.06
685.78	16783.98
685.91	16699.72
686.05	16688.02
686.19	16533.54
686.32	16549.93
686.46	16128.63
686.60	15957.77
686.73	16327.58
686.87	16208.21
687.01	16301.83
687.14	16032.67
687.28	15941.39
687.42	15896.92
687.55	15824.36
687.69	16063.10
687.82	15737.76
687.96	15861.81
688.10	15768.19
688.23	15859.47
688.37	15747.12
688.50	15660.52
688.64	15744.78
688.78	15723.72
688.91	15592.65
689.05	15374.98
689.18	15330.51
689.32	15047.30
689.46	15101.14
689.59	15171.35
689.73	15073.05
689.86	15272.00
690.00	15201.78
690.13	15115.18
690.27	15009.86
690.41	15051.99
690.54	14792.19
690.68	14831.97
690.81	14958.36
690.95	15044.96
691.08	14897.51
691.22	14497.28
691.35	14537.07
691.49	14579.20
691.62	14527.71
691.76	14342.80
691.89	14370.89
692.03	14178.97
692.16	14300.67
692.30	14253.86
692.43	14019.81
692.57	13881.72
692.70	14104.07
692.84	13781.07
692.97	13937.89
693.11	13839.59
693.24	13935.55
693.38	13816.18
693.51	14078.32
693.65	13797.46
693.78	13605.53
693.92	13584.47
694.05	13525.96
694.19	13296.58
694.32	13422.97
694.45	13411.27
694.59	13280.20
694.72	13151.47
694.86	13514.25
694.99	12926.78
695.13	13362.12
695.26	13107.00
695.39	13020.40
695.53	13011.04
695.66	12814.43
695.80	12908.05
695.93	12975.93
696.07	13071.89
696.20	13008.70
696.33	12837.84
696.47	12650.60
696.60	12514.84
696.73	12423.56
696.87	12573.36
697.00	12414.20
697.14	12149.72
697.27	12131.00
697.40	12421.22
697.54	12184.83
697.67	11913.33
697.80	12025.67
697.94	11866.52
698.07	11906.31
698.21	11915.67
698.34	11946.09
698.47	11981.20
698.61	12079.50
698.74	11702.68
698.87	11815.02
699.01	11576.29
699.14	11644.17
699.27	11618.42
699.40	11592.67
699.54	11836.09
699.67	11281.38
699.80	11349.26
699.94	11449.90
700.07	11398.41
700.20	11204.14
700.34	11087.12
700.47	11187.76
700.60	11110.52
700.73	11213.51
700.87	11192.44
701.00	10841.36
701.13	10883.49
701.26	11101.16
701.40	10895.19
701.53	10789.87
701.66	10834.34
701.79	10860.09
701.93	10590.92
702.06	10600.29
702.19	10684.55
702.32	10590.92
702.46	10380.28
702.59	10340.49
702.72	10136.86
702.85	10345.17
702.99	10286.65
703.12	10422.41
703.25	10083.03
703.38	10377.94
703.51	9921.53
703.65	10104.09
703.78	9937.91
703.91	10171.97
704.04	10064.30
704.17	10113.45
704.31	9912.17
704.44	9745.99
704.57	9760.03
704.70	9856.00
704.83	9586.83
704.96	9626.62
705.10	9668.75
705.23	9432.36
>>>>>End Processed Spectral Data<<<<<
