SpectraSuite Data File
++++++++++++++++++++++++++++++++++++
Date: Fri Oct 18 13:58:31 GMT-05:00 2013
User: bianchi
Dark Spectrum Present: No
Reference Spectrum Present: No
Number of Sampled Component Spectra: 1
Spectrometers: USB2+H05261
Integration Time (usec): 50000 (USB2+H05261)
Spectra Averaged: 1 (USB2+H05261)
Boxcar Smoothing: 0 (USB2+H05261)
Correct for Electrical Dark: No (USB2+H05261)
Strobe/Lamp Enabled: No (USB2+H05261)
Correct for Detector Non-linearity: No (USB2+H05261)
Correct for Stray Light: No (USB2+H05261)
Number of Pixels in Processed Spectrum: 2048
>>>>>Begin Processed Spectral Data<<<<<
365.73	0.00
365.92	0.00
366.12	0.00
366.32	0.00
366.52	0.00
366.72	0.00
366.91	0.00
367.11	0.00
367.31	0.00
367.51	0.00
367.70	0.00
367.90	0.00
368.10	0.00
368.30	0.00
368.49	0.00
368.69	0.00
368.89	0.00
369.09	0.00
369.28	0.00
369.48	0.00
369.68	0.00
369.87	0.00
370.07	0.00
370.27	0.00
370.47	0.00
370.66	156.82
370.86	145.11
371.06	77.24
371.25	95.96
371.45	135.75
371.65	114.69
371.84	131.07
372.04	180.22
372.24	135.75
372.44	166.18
372.63	163.84
372.83	231.71
373.03	154.48
373.22	175.54
373.42	93.62
373.62	149.79
373.81	177.88
374.01	163.84
374.21	217.67
374.40	227.03
374.60	294.91
374.79	248.10
374.99	245.76
375.19	290.23
375.38	266.82
375.58	203.63
375.78	266.82
375.97	234.05
376.17	248.10
376.37	257.46
376.56	220.01
376.76	220.01
376.95	259.80
377.15	238.73
377.35	320.65
377.54	278.52
377.74	194.26
377.93	262.14
378.13	351.08
378.33	245.76
378.52	299.59
378.72	301.93
378.91	315.97
379.11	273.84
379.31	283.20
379.50	238.73
379.70	297.25
379.89	301.93
380.09	198.95
380.28	355.76
380.48	304.27
380.68	327.68
380.87	285.55
381.07	308.95
381.26	259.80
381.46	299.59
381.65	337.04
381.85	299.59
382.04	269.16
382.24	301.93
382.43	353.42
382.63	299.59
382.83	344.06
383.02	301.93
383.22	360.44
383.41	367.46
383.61	381.51
383.80	397.89
384.00	313.63
384.19	353.42
384.39	358.10
384.58	390.87
384.78	390.87
384.97	400.23
385.17	360.44
385.36	428.32
385.56	334.70
385.75	353.42
385.95	273.84
386.14	470.45
386.34	355.76
386.53	442.36
386.72	365.12
386.92	458.74
387.11	395.55
387.31	341.72
387.50	416.62
387.70	395.55
387.89	435.34
388.09	386.19
388.28	395.55
388.48	433.00
388.67	526.62
388.86	470.45
389.06	355.76
389.25	517.26
389.45	496.19
389.64	435.34
389.84	540.66
390.03	395.55
390.22	440.02
390.42	458.74
390.61	437.68
390.81	449.38
391.00	498.53
391.19	578.11
391.39	580.45
391.58	500.87
391.78	519.60
391.97	589.82
392.16	465.77
392.36	524.28
392.55	458.74
392.75	458.74
392.94	482.15
393.13	533.64
393.33	486.83
393.52	608.54
393.71	451.72
393.91	603.86
394.10	468.11
394.29	641.31
394.49	512.58
394.68	514.92
394.88	575.77
395.07	667.05
395.26	582.79
395.46	580.45
395.65	653.01
395.84	617.90
396.04	699.82
396.23	573.43
396.42	613.22
396.62	636.63
396.81	603.86
397.00	667.05
397.19	617.90
397.39	631.94
397.58	690.46
397.77	594.50
397.97	627.26
398.16	678.76
398.35	580.45
398.55	638.97
398.74	655.35
398.93	737.27
399.12	627.26
399.32	788.76
399.51	664.71
399.70	770.04
399.90	711.52
400.09	744.29
400.28	777.06
400.47	723.23
400.67	800.46
400.86	711.52
401.05	699.82
401.24	741.95
401.44	842.59
401.63	816.85
401.82	798.12
402.01	777.06
402.21	793.44
402.40	894.08
402.59	826.21
402.78	828.55
402.97	849.61
403.17	835.57
403.36	842.59
403.55	744.29
403.74	905.79
403.93	908.13
404.13	863.66
404.32	901.11
404.51	877.70
404.70	858.98
404.89	821.53
405.09	898.77
405.28	919.83
405.47	1006.43
405.66	947.92
405.85	1032.18
406.05	938.55
406.24	945.58
406.43	905.79
406.62	1036.86
406.81	1015.79
407.00	954.94
407.20	952.60
407.39	1046.22
407.58	1062.60
407.77	992.39
407.96	1043.88
408.15	1057.92
408.34	983.02
408.54	980.68
408.73	961.96
408.92	1071.97
409.11	1029.84
409.30	1184.31
409.49	1067.28
409.68	1156.22
409.87	1142.18
410.07	1104.73
410.26	1123.46
410.45	1029.84
410.64	1149.20
410.83	1114.10
411.02	1116.44
411.21	1181.97
411.40	1193.67
411.59	1308.36
411.78	1158.57
411.98	1219.42
412.17	1268.57
412.36	1291.98
412.55	1313.04
412.74	1256.87
412.93	1266.23
413.12	1287.29
413.31	1345.81
413.50	1341.13
413.69	1387.94
413.88	1387.94
414.07	1434.75
414.26	1413.68
414.45	1385.60
414.64	1404.32
414.83	1458.15
415.02	1425.39
415.22	1458.15
415.41	1469.86
415.60	1528.37
415.79	1418.36
415.98	1647.74
416.17	1586.88
416.36	1640.72
416.55	1554.12
416.74	1675.82
416.93	1540.07
417.12	1584.54
417.31	1579.86
417.50	1603.27
417.69	1664.12
417.88	1661.78
418.07	1722.63
418.26	1722.63
418.45	1736.68
418.64	1792.85
418.83	1813.92
419.02	1781.15
419.21	1776.47
419.39	1813.92
419.58	1732.00
419.77	1680.50
419.96	1837.32
420.15	1739.02
420.34	1856.04
420.53	1813.92
420.72	1795.19
420.91	1832.64
421.10	1809.23
421.29	1935.62
421.48	1860.73
421.67	1968.39
421.86	1928.60
422.05	1973.07
422.24	1956.69
422.43	1961.37
422.61	1872.43
422.80	2017.54
422.99	1865.41
423.18	1879.45
423.37	1973.07
423.56	1989.46
423.75	1973.07
423.94	1926.26
424.13	1827.96
424.32	1820.94
424.50	1898.17
424.69	1998.82
424.88	2054.99
425.07	2083.08
425.26	1923.92
425.45	2001.16
425.64	2047.97
425.83	2036.27
426.01	2099.46
426.20	1987.11
426.39	1942.64
426.58	1963.71
426.77	1907.54
426.96	2087.76
427.15	1980.09
427.33	2043.29
427.52	2054.99
427.71	2054.99
427.90	2200.10
428.09	2111.16
428.28	2136.91
428.46	2083.08
428.65	2209.47
428.84	2216.49
429.03	2314.79
429.22	2174.36
429.40	2167.34
429.59	2282.02
429.78	2080.74
429.97	2043.29
430.16	2195.42
430.34	2244.57
430.53	2363.94
430.72	2181.38
430.91	2324.15
431.10	2279.68
431.28	2237.55
431.47	2223.51
431.66	2382.67
431.85	2237.55
432.03	2326.49
432.22	2420.11
432.41	2415.43
432.60	2375.64
432.79	2415.43
432.97	2312.45
433.16	2462.24
433.35	2417.77
433.54	2429.48
433.72	2487.99
433.91	2347.56
434.10	2438.84
434.28	2352.24
434.47	2530.12
434.66	2497.35
434.85	2443.52
435.03	2560.55
435.22	2499.69
435.41	2626.08
435.59	2555.86
435.78	2670.55
435.97	2574.59
436.16	2513.74
436.34	2546.50
436.53	2642.46
436.72	2686.94
436.90	2590.97
437.09	2738.43
437.28	2630.76
437.46	2612.04
437.65	2682.25
437.84	2637.78
438.02	2628.42
438.21	2684.59
438.40	2630.76
438.58	2719.70
438.77	2789.92
438.96	2946.73
439.14	2794.60
439.33	2932.69
439.52	2953.76
439.70	2853.11
439.89	2949.08
440.08	3014.61
440.26	3009.93
440.45	3007.59
440.63	3021.63
440.82	2956.10
441.01	2939.71
441.19	3023.97
441.38	3124.62
441.57	3019.29
441.75	3225.26
441.94	3225.26
442.12	3201.85
442.31	3220.58
442.50	3126.96
442.68	3314.20
442.87	3241.64
443.05	3178.45
443.24	3255.69
443.43	3227.60
443.61	3267.39
443.80	3365.69
443.98	3190.15
444.17	3108.23
444.35	3344.63
444.54	3358.67
444.73	3389.10
444.91	3152.70
445.10	3421.86
445.28	3375.05
445.47	3438.25
445.65	3330.58
445.84	3393.78
446.02	3412.50
446.21	3407.82
446.39	3290.79
446.58	3389.10
446.77	3332.92
446.95	3260.37
447.14	3344.63
447.32	3389.10
447.51	3459.31
447.69	3499.10
447.88	3400.80
448.06	3405.48
448.25	3318.88
448.43	3435.91
448.62	3485.06
448.80	3520.17
448.99	3492.08
449.17	3543.57
449.36	3569.32
449.54	3559.95
449.73	3529.53
449.91	3658.26
450.10	3524.85
450.28	3538.89
450.46	3698.05
450.65	3744.86
450.83	3721.45
451.02	3747.20
451.20	3559.95
451.39	3756.56
451.57	3714.43
451.76	3679.32
451.94	3632.51
452.13	3754.22
452.31	3646.55
452.49	3688.68
452.68	3768.26
452.86	3829.12
453.05	3899.33
453.23	3707.41
453.42	3721.45
453.60	3728.47
453.78	3808.05
453.97	3786.99
454.15	3822.09
454.34	3819.75
454.52	3913.38
454.70	3878.27
454.89	3845.50
455.07	3976.57
455.26	3983.59
455.44	4074.87
455.62	3960.19
455.81	3985.93
455.99	4037.42
456.17	3936.78
456.36	4042.11
456.54	4030.40
456.73	4215.30
456.91	4133.39
457.09	4109.98
457.28	4301.90
457.46	4182.54
457.64	4252.75
457.83	4203.60
458.01	4241.05
458.19	4210.62
458.38	4255.09
458.56	4346.37
458.74	4383.82
458.93	4187.22
459.11	4236.37
459.29	4402.55
459.48	4311.27
459.66	4432.97
459.84	4374.46
460.03	4482.13
460.21	4657.67
460.39	4482.13
460.57	4355.74
460.76	4362.76
460.94	4608.51
461.12	4526.60
461.31	4404.89
461.49	4510.21
461.67	4402.55
461.85	4578.09
462.04	4561.70
462.22	4678.73
462.40	4641.28
462.59	4571.07
462.77	4709.16
462.95	4725.54
463.13	4669.37
463.32	4718.52
463.50	4793.42
463.68	4798.10
463.86	4580.43
464.05	4674.05
464.23	4697.46
464.41	4678.73
464.59	4725.54
464.78	4910.44
464.96	4758.31
465.14	4828.53
465.32	4880.02
465.50	4861.29
465.69	4880.02
465.87	4854.27
466.05	4760.65
466.23	4880.02
466.41	5013.43
466.60	4929.17
466.78	4840.23
466.96	4905.76
467.14	4898.74
467.32	5029.81
467.51	5032.15
467.69	4880.02
467.87	4994.70
468.05	4973.64
468.23	4999.38
468.41	5055.56
468.60	5015.77
468.78	5242.80
468.96	4973.64
469.14	5135.14
469.32	5322.38
469.50	4983.00
469.69	5149.18
469.87	5153.86
470.05	5404.30
470.23	5369.19
470.41	5221.74
470.59	5331.74
470.77	5261.52
470.95	5511.96
471.14	5514.30
471.32	5188.97
471.50	5650.05
471.68	5547.07
471.86	5537.71
472.04	5437.06
472.22	5687.50
472.40	5540.05
472.58	5589.20
472.77	5523.66
472.95	5715.59
473.13	5764.74
473.31	5643.03
473.49	5692.18
473.67	5748.36
473.85	5750.70
474.03	5818.57
474.21	6033.90
474.39	6001.13
474.57	5956.66
474.75	5872.40
474.93	5987.09
475.12	6251.57
475.30	6047.94
475.48	5961.34
475.66	5991.77
475.84	6150.93
476.02	6078.37
476.20	6118.16
476.38	6204.76
476.56	6434.13
476.74	6317.11
476.92	6298.38
477.10	6363.92
477.28	6361.58
477.46	6473.92
477.64	6417.75
477.82	6609.67
478.00	6850.75
478.18	6787.55
478.36	6747.76
478.54	6780.53
478.72	6895.22
478.90	6988.84
479.08	7005.22
479.26	7150.34
479.44	7169.06
479.62	7227.57
479.80	7206.51
479.98	7110.55
480.16	7241.62
480.34	7201.83
480.52	7475.67
480.70	7545.89
480.88	7456.95
481.06	7463.97
481.24	7435.88
481.41	7681.64
481.59	7833.77
481.77	7616.10
481.95	7770.58
482.13	7775.26
482.31	8028.04
482.49	8088.89
482.67	7918.03
482.85	8156.77
483.03	8191.88
483.21	8318.26
483.39	8278.47
483.57	8177.83
483.74	8439.97
483.92	8617.85
484.10	8542.96
484.28	8692.75
484.46	8870.63
484.64	8952.55
484.82	8830.84
485.00	8659.98
485.18	8875.31
485.35	9202.99
485.53	9181.92
485.71	9046.17
485.89	9254.48
486.07	9256.82
486.25	9420.66
486.43	9434.70
486.61	9551.73
486.78	9673.43
486.96	9694.50
487.14	9603.22
487.32	9603.22
487.50	9893.44
487.68	10045.58
487.85	10181.33
488.03	10022.17
488.21	10382.62
488.39	10099.41
488.57	10420.06
488.75	10574.54
488.92	10263.25
489.10	10511.35
489.28	10410.70
489.46	10794.55
489.64	10824.98
489.81	11171.38
489.99	11162.01
490.17	10906.90
490.35	11178.40
490.53	11260.32
490.70	11501.39
490.88	11407.77
491.06	11477.99
491.24	11396.07
491.41	11391.39
491.59	11639.48
491.77	11665.23
491.95	11770.55
492.13	11763.53
492.30	11981.20
492.48	11660.55
492.66	12334.62
492.84	11946.09
493.01	12421.22
493.19	12285.47
493.37	12571.02
493.54	12332.28
493.72	12444.63
493.90	12432.93
494.08	12720.81
494.25	12666.98
494.43	12713.79
494.61	13043.81
494.79	12905.71
494.96	12957.21
495.14	12980.61
495.32	13062.53
495.49	13043.81
495.67	13362.12
495.85	13280.20
496.02	13542.34
496.20	13727.24
496.38	13713.20
496.55	13437.02
496.73	13900.44
496.91	13654.69
497.09	13855.97
497.26	13984.70
497.44	13956.61
497.62	14047.90
497.79	14265.57
497.97	14174.28
498.14	14420.04
498.32	14356.85
498.50	14295.99
498.67	14684.52
498.85	14490.26
499.03	14750.06
499.20	14499.62
499.38	14689.20
499.56	14764.10
499.73	15023.90
499.91	14799.21
500.08	15033.26
500.26	14867.08
500.44	14848.36
500.61	15068.37
500.79	15297.74
500.97	15272.00
501.14	15604.35
501.32	15449.88
501.49	15592.65
501.67	15384.34
501.84	15515.41
502.02	15459.24
502.20	15672.23
502.37	15999.90
502.55	15360.94
502.72	15852.45
502.90	15618.39
503.07	15737.76
503.25	15871.17
503.43	15812.66
503.60	15925.00
503.78	15740.10
503.95	16044.37
504.13	16369.71
504.30	16184.80
504.48	16252.68
504.65	16217.57
504.83	16716.11
505.01	16816.75
505.18	16547.59
505.36	16709.08
505.53	16575.67
505.71	16671.64
505.88	16561.63
506.06	16648.23
506.23	16798.02
506.41	16922.07
506.58	17095.27
506.76	17097.61
506.93	17102.29
507.11	17128.04
507.28	16929.09
507.46	17092.93
507.63	17172.51
507.81	17209.96
507.98	17263.79
508.16	17209.96
508.33	17373.80
508.50	17364.43
508.68	17479.12
508.85	17521.25
509.03	17572.74
509.20	17626.57
509.38	17853.61
509.55	17898.08
509.73	17862.97
509.90	17851.27
510.08	17659.34
510.25	18015.10
510.42	17874.67
510.60	18302.99
510.77	17832.54
510.95	18335.76
511.12	18207.03
511.30	18274.90
511.47	18534.70
511.64	18197.67
511.82	18452.78
511.99	18420.02
512.17	18483.21
512.34	18782.80
512.51	18661.09
512.69	18513.64
512.86	18855.36
513.04	19002.81
513.21	18677.48
513.38	18593.22
513.56	18904.51
513.73	18988.77
513.90	18979.40
514.08	18909.19
514.25	19168.99
514.43	19377.30
514.60	19126.86
514.77	18941.96
514.95	19552.84
515.12	19609.01
515.29	18768.76
515.47	19389.00
515.64	19449.85
515.81	19545.81
515.99	19700.29
516.16	19943.70
516.33	19286.01
516.51	19833.70
516.68	19658.16
516.85	19758.80
517.03	19854.76
517.20	19744.76
517.37	19616.03
517.54	20161.37
517.72	20037.33
517.89	19932.00
518.06	20009.24
518.24	20002.22
518.41	20077.12
518.58	20002.22
518.75	20306.49
518.93	20467.98
519.10	20463.30
519.27	20379.04
519.45	20388.41
519.62	20596.71
519.79	20388.41
519.96	20350.96
520.14	20702.04
520.31	20720.76
520.48	20772.25
520.65	21064.82
520.83	20713.74
521.00	20678.63
521.17	20577.99
521.34	20805.02
521.52	21076.52
521.69	21142.06
521.86	21228.66
522.03	21111.63
522.20	21315.26
522.38	21074.18
522.55	21188.87
522.72	21275.47
522.89	21415.90
523.07	21661.66
523.24	21701.45
523.41	21659.32
523.58	21532.93
523.75	21535.27
523.92	21738.90
524.10	21411.22
524.27	21640.59
524.44	21722.51
524.61	21891.03
524.78	21898.05
524.96	22001.04
525.13	21949.54
525.30	21909.75
525.47	22228.07
525.64	22178.92
525.81	21820.81
525.98	22001.04
526.16	21942.52
526.33	22429.35
526.50	21998.70
526.67	21956.57
526.84	22122.74
527.01	22075.93
527.18	22272.54
527.36	22366.16
527.53	22721.92
527.70	22621.28
527.87	22623.62
528.04	22588.51
528.21	22595.53
528.38	22508.93
528.55	22841.29
528.72	22963.00
528.89	22792.14
529.07	22789.80
529.24	22885.76
529.41	22803.84
529.58	22607.23
529.75	22878.74
529.92	23002.78
530.09	22824.90
530.26	22693.83
530.43	23044.91
530.60	23094.07
530.77	23075.34
530.94	22930.23
531.11	22836.61
531.28	23285.99
531.46	23154.92
531.63	23438.12
531.80	23337.48
531.97	23035.55
532.14	23014.49
532.31	23421.74
532.48	23112.79
532.65	23758.78
532.82	23248.54
532.99	23674.52
533.16	23438.12
533.33	23789.20
533.50	24182.42
533.67	23393.65
533.84	23721.33
534.01	23552.81
534.18	23496.64
534.35	24325.19
534.52	23711.97
534.69	24334.55
534.86	23878.15
535.03	23859.42
535.20	23988.15
535.37	24151.99
535.54	23974.11
535.71	23751.76
535.88	24182.42
536.05	24301.78
536.22	24367.32
536.38	24451.58
536.55	24524.13
536.72	24135.60
536.89	23969.43
537.06	24212.84
537.23	24222.20
537.40	24093.47
537.57	24271.36
537.74	24643.50
537.91	24952.45
538.08	24500.73
538.25	24676.27
538.42	24482.00
538.59	24877.55
538.75	24627.12
538.92	24554.56
539.09	25034.37
539.26	24748.82
539.43	24779.25
539.60	24652.86
539.77	24992.24
539.94	24936.07
540.11	24800.32
540.28	24896.28
540.44	24720.74
540.61	24980.54
540.78	24893.94
540.95	25043.73
541.12	25331.62
541.29	25127.99
541.46	25153.74
541.62	25074.16
541.79	25223.95
541.96	24868.19
542.13	25205.23
542.30	24907.98
542.47	25132.67
542.63	25514.18
542.80	25453.33
542.97	25865.26
543.14	25972.92
543.31	25455.67
543.48	25436.94
543.64	25453.33
543.81	25764.62
543.98	25472.05
544.15	25848.88
544.32	25970.58
544.48	26080.59
544.65	25722.49
544.82	25542.27
544.99	25523.54
545.16	26085.27
545.32	25741.21
545.49	25748.23
545.66	26052.50
545.83	25869.94
546.00	26111.02
546.16	26101.65
546.33	25876.96
546.50	25724.83
546.67	26281.88
546.83	25692.06
547.00	26260.81
547.17	26003.35
547.34	26242.09
547.50	26239.75
547.67	26340.39
547.84	26389.54
548.00	26057.18
548.17	26384.86
548.34	26536.99
548.51	26485.50
548.67	26656.36
548.84	26452.73
549.01	26321.66
549.18	26616.57
549.34	26459.76
549.51	26544.02
549.68	26380.18
549.84	26522.95
550.01	26618.91
550.18	26335.71
550.34	26707.85
550.51	26876.37
550.68	27000.42
550.84	26803.82
551.01	26768.71
551.18	26796.79
551.34	26710.19
551.51	26958.29
551.68	26778.07
551.84	26766.37
552.01	26668.06
552.18	26955.95
552.34	26579.12
552.51	27222.77
552.68	26911.48
552.84	26946.59
553.01	27075.32
553.18	26443.37
553.34	27297.67
553.51	26988.72
553.67	27295.33
553.84	27012.12
554.01	27323.41
554.17	27201.71
554.34	27068.30
554.51	27325.75
554.67	27243.84
554.84	27356.18
555.00	27360.86
555.17	27351.50
555.33	27267.24
555.50	27309.37
555.67	27260.22
555.83	27494.27
556.00	27236.81
556.16	27356.18
556.33	27578.53
556.50	27520.02
556.66	27709.60
556.83	27536.40
556.99	27723.65
557.16	27653.43
557.32	27456.82
557.49	27372.57
557.65	27608.96
557.82	27456.82
557.98	27480.23
558.15	27384.27
558.32	27700.24
558.48	27578.53
558.65	27838.33
558.81	27646.41
558.98	28009.19
559.14	27763.43
559.31	27709.60
559.47	27709.60
559.64	27756.41
559.80	27887.48
559.97	28114.52
560.13	27702.58
560.30	27866.42
560.46	28032.60
560.63	28072.39
560.79	27988.13
560.96	28025.57
561.12	27915.57
561.29	28025.57
561.45	27938.97
561.61	27871.10
561.78	28566.24
561.94	28173.03
562.11	27917.91
562.27	28116.86
562.44	27899.19
562.60	28224.52
562.77	27648.75
562.93	28051.32
563.10	28435.17
563.26	27943.66
563.42	28292.40
563.59	28264.31
563.75	28409.42
563.92	27971.74
564.08	28166.01
564.24	28332.18
564.41	28006.85
564.57	27786.84
564.74	28081.75
564.90	28177.71
565.07	28641.14
565.23	28292.40
565.39	28166.01
565.56	28484.32
565.72	28325.16
565.88	28070.04
566.05	28341.55
566.21	27920.25
566.38	27826.63
566.54	28325.16
566.70	28582.62
566.87	28299.42
567.03	28891.57
567.19	28793.27
567.36	28643.48
567.52	28465.60
567.68	28636.45
567.85	28395.38
568.01	27964.72
568.17	28414.10
568.34	28460.91
568.50	28418.78
568.66	28788.59
568.83	28893.91
568.99	28692.63
569.15	28470.28
569.32	28589.64
569.48	28416.44
569.64	28601.35
569.81	28671.56
569.97	28498.36
570.13	28669.22
570.30	28603.69
570.46	28699.65
570.62	28587.30
570.78	28591.98
570.95	28467.94
571.11	28402.40
571.27	28100.47
571.43	28374.31
571.60	28505.38
571.76	28357.93
571.92	28718.37
572.09	28540.49
572.25	28882.21
572.41	28493.68
572.57	28292.40
572.74	28952.43
572.90	28397.72
573.06	28823.70
573.22	28615.39
573.38	28854.12
573.55	28716.03
573.71	28718.37
573.87	29076.48
574.03	29032.00
574.20	28645.82
574.36	28568.58
574.52	28865.83
574.68	28826.04
574.84	28694.97
575.01	28851.78
575.17	28643.48
575.33	29142.01
575.49	28910.30
575.65	29036.69
575.82	28968.81
575.98	28966.47
576.14	28666.88
576.30	28933.70
576.46	28706.67
576.62	28701.99
576.79	28706.67
576.95	28622.41
577.11	28821.36
577.27	28781.57
577.43	28753.48
577.59	28786.25
577.75	28758.16
577.92	28987.53
578.08	28994.56
578.24	28982.85
578.40	28844.76
578.56	28961.79
578.72	28713.69
578.88	29530.54
579.04	28954.77
579.21	28542.83
579.37	28872.85
579.53	28652.84
579.69	28519.43
579.85	28811.99
580.01	29010.94
580.17	29008.60
580.33	28978.17
580.49	29039.03
580.65	29366.70
580.82	29310.53
580.98	29036.69
581.14	28823.70
581.30	29116.26
581.46	28966.47
581.62	28725.39
581.78	28875.19
581.94	29465.00
582.10	29067.11
582.26	28842.42
582.42	29041.37
582.58	29514.16
582.74	28790.93
582.90	29331.59
583.06	29235.63
583.22	28795.61
583.38	28802.63
583.54	28793.27
583.70	28748.80
583.86	28919.66
584.02	28587.30
584.18	28966.47
584.34	29132.65
584.50	29273.08
584.66	28854.12
584.82	29139.67
584.98	29090.52
585.14	28856.46
585.30	28835.40
585.46	29001.58
585.62	29142.01
585.78	29422.87
585.94	29034.35
586.10	28877.53
586.26	28961.79
586.42	29343.30
586.58	29570.33
586.74	28737.10
586.90	28819.02
587.06	28697.31
587.22	29060.09
587.38	28561.56
587.54	29432.24
587.70	29024.98
587.86	29425.22
588.02	29298.83
588.18	29390.11
588.34	29053.07
588.49	29443.94
588.65	29289.46
588.81	29184.14
588.97	29523.52
589.13	29273.08
589.29	28912.64
589.45	29219.25
589.61	29303.51
589.77	29694.38
589.93	29567.99
590.08	29434.58
590.24	29252.02
590.40	29940.13
590.56	29769.27
590.72	29345.64
590.88	29001.58
591.04	29467.34
591.20	29490.75
591.35	29333.93
591.51	29497.77
591.67	29432.24
591.83	29610.12
591.99	29214.57
592.15	29226.27
592.31	29275.42
592.46	29275.42
592.62	29057.75
592.78	29177.12
592.94	29317.55
593.10	29099.88
593.26	29184.14
593.41	29708.42
593.57	29659.27
593.73	29898.00
593.89	29450.96
594.05	29486.07
594.20	29666.29
594.36	29366.70
594.52	29198.18
594.68	29378.40
594.84	29322.23
594.99	29195.84
595.15	29333.93
595.31	29467.34
595.47	29703.74
595.62	29607.78
595.78	29654.59
595.94	29219.25
596.10	29418.19
596.25	29497.77
596.41	29418.19
596.57	29067.11
596.73	29303.51
596.88	29181.80
597.04	29518.84
597.20	29783.32
597.36	29647.57
597.51	30019.71
597.67	29640.54
597.83	29668.63
597.99	29593.73
598.14	29708.42
598.30	29785.66
598.46	29369.04
598.61	29324.57
598.77	29390.11
598.93	29530.54
599.09	29467.34
599.24	29844.17
599.40	29425.22
599.56	29579.69
599.71	29762.25
599.87	29785.66
600.03	29329.25
600.18	29586.71
600.34	29319.89
600.50	29219.25
600.65	29317.55
600.81	29394.79
600.97	29825.45
601.12	29790.34
601.28	30031.41
601.44	29717.78
601.59	29680.33
601.75	29415.85
601.91	29177.12
602.06	29607.78
602.22	29638.20
602.37	29020.30
602.53	29390.11
602.69	29507.13
602.84	29312.87
603.00	29860.55
603.16	29593.73
603.31	29830.13
603.47	29797.36
603.62	29507.13
603.78	29666.29
603.94	29273.08
604.09	29804.38
604.25	29355.00
604.40	29490.75
604.56	29570.33
604.71	29827.79
604.87	29741.19
605.03	29771.61
605.18	29490.75
605.34	29528.20
605.49	29322.23
605.65	29656.93
605.80	29221.59
605.96	29151.37
606.12	29200.52
606.27	29362.02
606.43	29209.89
606.58	29434.58
606.74	29432.24
606.89	29766.93
607.05	29825.45
607.20	29832.47
607.36	29715.44
607.51	29486.07
607.67	29146.69
607.82	29467.34
607.98	29642.88
608.13	29523.52
608.29	29261.38
608.44	29591.39
608.60	29457.98
608.75	29476.71
608.91	29525.86
609.06	29167.76
609.22	29394.79
609.37	29481.39
609.53	29579.69
609.68	29074.13
609.84	29024.98
609.99	29013.28
610.15	29350.32
610.30	29083.50
610.46	29022.64
610.61	29385.43
610.76	29212.23
610.92	29338.62
611.07	29392.45
611.23	29186.48
611.38	29275.42
611.54	29209.89
611.69	28954.77
611.84	28912.64
612.00	29055.41
612.15	29247.33
612.31	29472.03
612.46	29151.37
612.62	29532.88
612.77	28952.43
612.92	29142.01
613.08	29198.18
613.23	29310.53
613.39	28851.78
613.54	29046.05
613.69	28865.83
613.85	29099.88
614.00	28800.29
614.15	29219.25
614.31	28905.62
614.46	29165.42
614.62	29006.26
614.77	29102.22
614.92	28910.30
615.08	29144.35
615.23	28891.57
615.38	28992.22
615.54	28730.08
615.69	28599.01
615.84	28704.33
616.00	28898.59
616.15	28907.96
616.30	28744.12
616.46	28863.49
616.61	29029.66
616.76	29104.56
616.92	28788.59
617.07	28861.15
617.22	28493.68
617.37	28418.78
617.53	29013.28
617.68	28671.56
617.83	28669.22
617.99	28648.16
618.14	28655.18
618.29	28830.72
618.45	29172.44
618.60	28290.06
618.75	28304.10
618.90	28797.95
619.06	28411.76
619.21	28432.83
619.36	28886.89
619.51	28418.78
619.67	28261.97
619.82	28463.25
619.97	28556.88
620.12	28215.16
620.28	28374.31
620.43	28624.75
620.58	28404.74
620.73	28692.63
620.89	28404.74
621.04	28723.05
621.19	28531.13
621.34	28149.62
621.49	28510.07
621.65	28540.49
621.80	28339.21
621.95	28130.90
622.10	28325.16
622.25	27887.48
622.41	28180.05
622.56	28208.14
622.71	28449.21
622.86	28437.51
623.01	28645.82
623.16	27880.46
623.32	27768.12
623.47	28304.10
623.62	28294.74
623.77	28128.56
623.92	27957.70
624.07	27751.73
624.23	28154.30
624.38	27880.46
624.53	28077.07
624.68	28222.18
624.83	28006.85
624.98	28086.43
625.13	28196.43
625.29	28189.41
625.44	28070.04
625.59	27655.77
625.74	27768.12
625.89	27967.06
626.04	27838.33
626.19	27896.85
626.34	27552.79
626.49	28063.02
626.65	27442.78
626.80	28147.28
626.95	27779.82
627.10	27920.25
627.25	27878.12
627.40	27690.88
627.55	27063.61
627.70	27370.22
627.85	27314.05
628.00	27623.00
628.15	27353.84
628.30	27307.03
628.45	27428.74
628.60	27522.36
628.76	27742.37
628.91	27541.08
629.06	27431.08
629.21	27445.12
629.36	27583.21
629.51	27449.80
629.66	27681.52
629.81	27271.92
629.96	27213.41
630.11	27377.25
630.26	27351.50
630.41	27342.14
630.56	27262.56
630.71	27405.33
630.86	27513.00
631.01	27051.91
631.16	27395.97
631.31	27229.79
631.46	27096.38
631.61	26967.65
631.76	27234.47
631.91	27447.46
632.06	27154.90
632.21	27002.76
632.36	27124.47
632.51	26934.88
632.66	27019.14
632.81	26764.03
632.96	27117.45
633.10	27019.14
633.25	27157.24
633.40	26850.63
633.55	26998.08
633.70	26754.66
633.85	26672.74
634.00	27091.70
634.15	26455.08
634.30	26539.33
634.45	26586.15
634.60	26932.54
634.75	27178.30
634.90	26607.21
635.05	27054.25
635.19	27119.79
635.34	26972.33
635.49	26820.20
635.64	27028.51
635.79	26649.34
635.94	26773.39
636.09	26607.21
636.24	26700.83
636.39	26625.93
636.53	26560.40
636.68	26403.58
636.83	26569.76
636.98	26707.85
637.13	26656.36
637.28	26436.35
637.43	26569.76
637.57	26476.14
637.72	26469.12
637.87	26857.65
638.02	26256.13
638.17	26593.17
638.32	26232.72
638.46	26026.76
638.61	26342.73
638.76	26192.94
638.91	26064.21
639.06	25993.99
639.20	26272.51
639.35	26462.10
639.50	26026.76
639.65	26558.06
639.80	26904.46
639.94	26501.89
640.09	26316.98
640.24	26251.45
640.39	26085.27
640.54	25919.09
640.68	26359.11
640.83	26043.14
640.98	25776.32
641.13	25975.27
641.27	26038.46
641.42	25993.99
641.57	26277.19
641.72	25926.11
641.86	25766.96
642.01	25769.30
642.16	25986.97
642.31	25729.51
642.45	26089.95
642.60	25624.18
642.75	25481.41
642.90	25806.75
643.04	25743.55
643.19	25778.66
643.34	25937.82
643.48	25851.22
643.63	26094.63
643.78	25654.61
643.93	26160.17
644.07	25605.46
644.22	25839.51
644.37	25855.90
644.51	25862.92
644.66	25582.06
644.81	25511.84
644.95	25273.10
645.10	25640.57
645.25	25535.24
645.39	25610.14
645.54	25607.80
645.69	25570.35
645.83	25621.84
645.98	25624.18
646.13	25582.06
646.27	25645.25
646.42	25432.26
646.57	25825.47
646.71	25553.97
646.86	25570.35
647.00	25436.94
647.15	25275.45
647.30	25523.54
647.44	24975.86
647.59	25130.33
647.74	25025.01
647.88	25188.85
648.03	25551.63
648.17	25717.81
648.32	25600.78
648.47	25610.14
648.61	25509.50
648.76	25371.41
648.90	25329.28
649.05	25319.92
649.20	24980.54
649.34	25015.65
649.49	24847.13
649.63	25043.73
649.78	25184.16
649.92	25013.31
650.07	25319.92
650.21	24711.38
650.36	25013.31
650.51	24786.27
650.65	25076.50
650.80	24922.02
650.94	25181.82
651.09	25015.65
651.23	24996.92
651.38	25099.90
651.52	24753.51
651.67	25062.46
651.81	24931.39
651.96	24842.45
652.10	25132.67
652.25	25022.67
652.39	24690.31
652.54	25039.05
652.68	24788.61
652.83	25139.69
652.97	25102.25
653.12	24931.39
653.26	24512.43
653.41	24664.57
653.55	24418.81
653.70	24907.98
653.84	24678.61
653.99	24496.05
654.13	24814.36
654.27	24566.26
654.42	24809.68
654.56	24545.20
654.71	24629.46
654.85	24641.16
655.00	24608.39
655.14	24582.65
655.29	24634.14
655.43	24545.20
655.57	24823.72
655.72	24322.85
655.86	24563.92
656.01	24528.81
656.15	24259.65
656.30	24404.77
656.44	24489.03
656.58	24372.00
656.73	24266.67
656.87	24261.99
657.01	24428.17
657.16	24751.17
657.30	24311.14
657.45	24201.14
657.59	24128.58
657.73	23969.43
657.88	24203.48
658.02	24067.73
658.16	23920.28
658.31	24102.84
658.45	23976.45
658.60	23676.86
658.74	23824.31
658.88	23946.02
659.03	24072.41
659.17	24095.82
659.31	23782.18
659.46	24128.58
659.60	23702.61
659.74	23782.18
659.89	23864.10
660.03	24004.53
660.17	24004.53
660.32	23620.69
660.46	23583.24
660.60	23669.84
660.74	23740.05
660.89	23901.55
661.03	23147.90
661.17	23534.09
661.32	23555.15
661.46	23501.32
661.60	23772.82
661.74	23660.48
661.89	23903.89
662.03	23246.20
662.17	23407.70
662.31	23826.65
662.46	23730.69
662.60	23456.85
662.74	23250.88
662.88	23358.55
663.03	23108.11
663.17	23159.60
663.31	22993.42
663.45	23035.55
663.60	22829.59
663.74	22764.05
663.88	23058.96
664.02	23187.69
664.17	23096.41
664.31	22930.23
664.45	23047.26
664.59	22932.57
664.73	22860.01
664.88	22771.07
665.02	22387.22
665.16	22672.77
665.30	22616.60
665.44	22583.83
665.59	22593.19
665.73	22546.38
665.87	22232.75
666.01	22640.00
666.15	22515.95
666.29	22750.01
666.44	22731.28
666.58	22522.98
666.72	22492.55
666.86	22455.10
667.00	22251.47
667.14	22167.21
667.28	22462.12
667.43	22052.53
667.57	21961.25
667.71	22129.77
667.85	22537.02
667.99	21961.25
668.13	22003.38
668.27	22078.27
668.41	22197.64
668.56	21708.47
668.70	22143.81
668.84	22185.94
668.98	21958.91
669.12	21963.59
669.26	22026.78
669.40	21781.03
669.54	22061.89
669.68	22022.10
669.82	21914.44
669.96	21600.80
670.10	21453.35
670.25	21568.04
670.39	21266.11
670.53	21514.20
670.67	21553.99
670.81	21446.33
670.95	21228.66
671.09	21472.07
671.23	21654.64
671.37	21748.26
671.51	21516.54
671.65	21502.50
671.79	21355.05
671.93	21282.49
672.07	21317.60
672.21	21083.55
672.35	20856.51
672.49	20989.92
672.63	21078.86
672.77	20821.41
672.91	20954.82
673.05	20826.09
673.19	20819.07
673.33	20755.87
673.47	20730.12
673.61	20889.28
673.75	20608.42
673.89	20659.91
674.03	20608.42
674.17	20456.28
674.31	20718.42
674.45	20678.63
674.59	20545.22
674.73	20472.67
674.87	19992.86
675.01	20144.99
675.15	20236.27
675.29	20121.59
675.43	20393.09
675.56	20086.48
675.70	20208.19
675.84	20245.63
675.98	19452.19
676.12	20107.54
676.26	20325.21
676.40	20091.16
676.54	20084.14
676.68	19730.72
676.82	19384.32
676.96	19449.85
677.10	19641.78
677.23	19510.71
677.37	19414.74
677.51	19428.79
677.65	19274.31
677.79	19005.15
677.93	19318.78
678.07	19091.75
678.21	19234.52
678.34	19124.52
678.48	19033.24
678.62	19166.65
678.76	19117.50
678.90	18939.62
679.04	19035.58
679.18	18759.39
679.31	18562.79
679.45	18057.23
679.59	18260.86
679.73	18342.78
679.87	18551.09
680.00	18380.23
680.14	18541.72
680.28	18314.69
680.42	18352.14
680.56	18705.56
680.70	18228.09
680.83	18146.17
680.97	18122.77
681.11	18242.14
681.25	18293.63
681.39	17984.68
681.52	17827.86
681.66	17862.97
681.80	17923.82
681.94	17490.82
682.07	17994.04
682.21	17350.39
682.35	17551.68
682.49	17528.27
682.62	17158.47
682.76	17472.10
682.90	17392.52
683.04	17216.98
683.17	17226.34
683.31	17418.27
683.45	17406.56
683.59	17226.34
683.72	17146.76
683.86	17432.31
684.00	17163.15
684.13	16964.20
684.27	16915.05
684.41	16882.28
684.55	16795.68
684.68	16503.12
684.82	16353.32
684.96	16365.03
685.09	16578.01
685.23	16540.57
685.37	16493.76
685.50	16526.52
685.64	16362.69
685.78	16484.39
685.91	16463.33
686.05	16547.59
686.19	15857.13
686.32	16367.37
686.46	15934.37
686.60	15707.34
686.73	15707.34
686.87	15765.85
687.01	15908.62
687.14	15681.59
687.28	15735.42
687.42	15702.65
687.55	15580.95
687.69	15709.68
687.82	15527.11
687.96	15655.84
688.10	15644.14
688.23	15318.81
688.37	15426.47
688.50	15227.53
688.64	15143.27
688.78	15410.09
688.91	15257.95
689.05	15070.71
689.18	15213.48
689.32	14707.93
689.46	14932.62
689.59	14839.00
689.73	14881.13
689.86	14726.65
690.00	14738.35
690.13	14867.08
690.27	14785.16
690.41	14864.74
690.54	14553.45
690.68	14628.35
690.81	14656.43
690.95	14462.17
691.08	14703.25
691.22	14342.80
691.35	14586.22
691.49	14223.44
691.62	14218.75
691.76	14141.52
691.89	13736.60
692.03	13717.88
692.16	13549.36
692.30	13881.72
692.43	13942.57
692.57	13668.73
692.70	13788.10
692.84	13322.33
692.97	13561.06
693.11	13579.79
693.24	13582.13
693.38	13490.85
693.51	13542.34
693.65	13312.97
693.78	13392.55
693.92	13380.84
694.05	13240.41
694.19	13228.71
694.32	13226.37
694.45	13062.53
694.59	12868.27
694.72	12737.20
694.86	12805.07
694.99	12599.10
695.13	12746.56
695.26	12617.83
695.39	12631.87
695.53	12741.88
695.66	12819.11
695.80	12571.02
695.93	12655.28
696.07	12688.04
696.20	12514.84
696.33	12313.56
696.47	12428.24
696.60	12353.35
696.73	12320.58
696.87	12184.83
697.00	12358.03
697.14	12056.10
697.27	11887.58
697.40	11974.18
697.54	11906.31
697.67	11639.48
697.80	11929.71
697.94	11583.31
698.07	11641.82
698.21	11625.44
698.34	11295.43
698.47	11501.39
698.61	11609.06
698.74	11552.88
698.87	11566.93
699.01	11513.10
699.14	11466.28
699.27	11440.54
699.40	11463.94
699.54	11365.64
699.67	11267.34
699.80	10906.90
699.94	11176.06
700.07	11112.86
700.20	10761.78
700.34	10904.56
700.47	10785.19
700.60	10981.79
700.73	10946.69
700.87	10923.28
701.00	10714.97
701.13	10658.80
701.26	10520.71
701.40	10789.87
701.53	10745.40
701.66	10813.28
701.79	10473.90
701.93	10642.42
702.06	10293.68
702.19	10160.27
702.32	10279.63
702.46	10106.43
702.59	10167.29
702.72	10090.05
702.85	10120.48
702.99	9970.68
703.12	10134.52
703.25	9963.66
703.38	10064.30
703.51	9935.57
703.65	9909.83
703.78	9788.12
703.91	9888.76
704.04	9884.08
704.17	9858.34
704.31	9708.54
704.44	9565.77
704.57	9603.22
704.70	9643.01
704.83	9371.50
704.96	9514.28
705.10	9511.94
705.23	9280.22
>>>>>End Processed Spectral Data<<<<<
