SpectraSuite Data File
++++++++++++++++++++++++++++++++++++
Date: Fri Oct 18 13:58:31 GMT-05:00 2013
User: bianchi
Dark Spectrum Present: No
Reference Spectrum Present: No
Number of Sampled Component Spectra: 1
Spectrometers: USB2+H05261
Integration Time (usec): 50000 (USB2+H05261)
Spectra Averaged: 1 (USB2+H05261)
Boxcar Smoothing: 0 (USB2+H05261)
Correct for Electrical Dark: No (USB2+H05261)
Strobe/Lamp Enabled: No (USB2+H05261)
Correct for Detector Non-linearity: No (USB2+H05261)
Correct for Stray Light: No (USB2+H05261)
Number of Pixels in Processed Spectrum: 2048
>>>>>Begin Processed Spectral Data<<<<<
365.73	0.00
365.92	0.00
366.12	0.00
366.32	0.00
366.52	0.00
366.72	0.00
366.91	0.00
367.11	0.00
367.31	0.00
367.51	0.00
367.70	0.00
367.90	0.00
368.10	0.00
368.30	0.00
368.49	0.00
368.69	0.00
368.89	0.00
369.09	0.00
369.28	0.00
369.48	0.00
369.68	0.00
369.87	0.00
370.07	0.00
370.27	0.00
370.47	0.00
370.66	53.83
370.86	170.86
371.06	107.66
371.25	210.65
371.45	128.73
371.65	175.54
371.84	149.79
372.04	203.63
372.24	128.73
372.44	166.18
372.63	283.20
372.83	252.78
373.03	149.79
373.22	138.09
373.42	264.48
373.62	227.03
373.81	224.69
374.01	210.65
374.21	273.84
374.40	166.18
374.60	205.97
374.79	241.08
374.99	224.69
375.19	231.71
375.38	259.80
375.58	255.12
375.78	217.67
375.97	238.73
376.17	264.48
376.37	255.12
376.56	280.86
376.76	259.80
376.95	208.31
377.15	250.44
377.35	320.65
377.54	255.12
377.74	229.37
377.93	201.29
378.13	243.42
378.33	285.55
378.52	346.40
378.72	292.57
378.91	269.16
379.11	224.69
379.31	234.05
379.50	196.60
379.70	243.42
379.89	355.76
380.09	201.29
380.28	220.01
380.48	311.29
380.68	290.23
380.87	339.38
381.07	376.83
381.26	299.59
381.46	327.68
381.65	241.08
381.85	306.61
382.04	280.86
382.24	351.08
382.43	383.85
382.63	325.33
382.83	376.83
383.02	294.91
383.22	379.17
383.41	369.80
383.61	360.44
383.80	386.19
384.00	451.72
384.19	339.38
384.39	327.68
384.58	388.53
384.78	358.10
384.97	294.91
385.17	390.87
385.36	376.83
385.56	353.42
385.75	355.76
385.95	404.91
386.14	402.57
386.34	409.59
386.53	517.26
386.72	400.23
386.92	397.89
387.11	337.04
387.31	390.87
387.50	463.43
387.70	489.17
387.89	397.89
388.09	358.10
388.28	477.47
388.48	456.40
388.67	353.42
388.86	440.02
389.06	449.38
389.25	447.04
389.45	414.27
389.64	461.09
389.84	538.32
390.03	362.78
390.22	468.11
390.42	409.59
390.61	428.32
390.81	491.51
391.00	512.58
391.19	423.64
391.39	461.09
391.58	531.30
391.78	496.19
391.97	442.36
392.16	512.58
392.36	428.32
392.55	510.24
392.75	510.24
392.94	554.71
393.13	503.22
393.33	545.34
393.52	575.77
393.71	571.09
393.91	585.13
394.10	566.41
394.29	430.66
394.49	613.22
394.68	638.97
394.88	578.11
395.07	587.47
395.26	678.76
395.46	540.66
395.65	690.46
395.84	653.01
396.04	622.58
396.23	543.00
396.42	573.43
396.62	645.99
396.81	582.79
397.00	601.52
397.19	613.22
397.39	688.12
397.58	638.97
397.77	606.20
397.97	690.46
398.16	713.86
398.35	648.33
398.55	741.95
398.74	676.41
398.93	723.23
399.12	746.63
399.32	653.01
399.51	664.71
399.70	676.41
399.90	723.23
400.09	772.38
400.28	826.21
400.47	751.31
400.67	819.19
400.86	758.33
401.05	755.99
401.24	772.38
401.44	800.46
401.63	800.46
401.82	777.06
402.01	730.25
402.21	772.38
402.40	667.05
402.59	816.85
402.78	830.89
402.97	837.91
403.17	856.64
403.36	851.96
403.55	840.25
403.74	866.00
403.93	966.64
404.13	976.00
404.32	837.91
404.51	863.66
404.70	1008.77
404.89	851.96
405.09	943.24
405.28	866.00
405.47	980.68
405.66	973.66
405.85	959.62
406.05	922.17
406.24	983.02
406.43	875.36
406.62	990.05
406.81	1090.69
407.00	994.73
407.20	919.83
407.39	999.41
407.58	1062.60
407.77	1071.97
407.96	1086.01
408.15	1027.50
408.34	1025.15
408.54	1025.15
408.73	1062.60
408.92	1036.86
409.11	1116.44
409.30	1081.33
409.49	1086.01
409.68	1074.31
409.87	1071.97
410.07	1135.16
410.26	1167.93
410.45	1245.16
410.64	1170.27
410.83	1160.91
411.02	1247.51
411.21	1277.93
411.40	1186.65
411.59	1240.48
411.78	1186.65
411.98	1306.02
412.17	1235.80
412.36	1252.19
412.55	1254.53
412.74	1315.38
412.93	1341.13
413.12	1242.82
413.31	1418.36
413.50	1334.11
413.69	1336.45
413.88	1451.13
414.07	1406.66
414.26	1493.26
414.45	1490.92
414.64	1526.03
414.83	1434.75
415.02	1528.37
415.22	1533.05
415.41	1526.03
415.60	1502.62
415.79	1600.93
415.98	1551.78
416.17	1600.93
416.36	1540.07
416.55	1624.33
416.74	1596.25
416.93	1497.94
417.12	1523.69
417.31	1675.82
417.50	1673.48
417.69	1713.27
417.88	1657.10
418.07	1717.95
418.26	1760.08
418.45	1781.15
418.64	1778.81
418.83	1743.70
419.02	1795.19
419.21	1774.13
419.39	1863.07
419.58	1682.85
419.77	1790.51
419.96	1818.60
420.15	1762.42
420.34	1809.23
420.53	1879.45
420.72	1982.43
420.91	1914.56
421.10	1942.64
421.29	1865.41
421.48	1884.13
421.67	1923.92
421.86	1933.28
422.05	2008.18
422.24	1921.58
422.43	1937.96
422.61	1968.39
422.80	1959.03
422.99	1888.81
423.18	1952.01
423.37	2033.93
423.56	1998.82
423.75	1949.67
423.94	2019.88
424.13	1858.39
424.32	1769.44
424.50	1984.77
424.69	2040.95
424.88	2022.22
425.07	1980.09
425.26	1867.75
425.45	2054.99
425.64	2017.54
425.83	2090.10
426.01	2101.80
426.20	2015.20
426.39	1956.69
426.58	2062.01
426.77	1994.14
426.96	2136.91
427.15	2066.69
427.33	2019.88
427.52	2148.61
427.71	1926.26
427.90	2085.42
428.09	2139.25
428.28	2167.34
428.46	2235.21
428.65	2169.68
428.84	2249.25
429.03	2270.32
429.22	2036.27
429.40	2218.83
429.59	2200.10
429.78	2001.16
429.97	2024.56
430.16	2188.40
430.34	2277.34
430.53	2377.98
430.72	2307.77
430.91	2221.17
431.10	2310.11
431.28	2331.17
431.47	2253.94
431.66	2246.91
431.85	2310.11
432.03	2282.02
432.22	2422.45
432.41	2408.41
432.60	2326.49
432.79	2359.26
432.97	2459.90
433.16	2424.80
433.35	2415.43
433.54	2525.44
433.72	2527.78
433.91	2401.39
434.10	2392.03
434.28	2406.07
434.47	2495.01
434.66	2452.88
434.85	2705.66
435.03	2462.24
435.22	2527.78
435.41	2614.38
435.59	2548.84
435.78	2644.81
435.97	2597.99
436.16	2614.38
436.34	2560.55
436.53	2619.06
436.72	2616.72
436.90	2668.21
437.09	2626.08
437.28	2588.63
437.46	2724.38
437.65	2738.43
437.84	2722.04
438.02	2656.51
438.21	2670.55
438.40	2651.83
438.58	2864.82
438.77	2848.43
438.96	2888.22
439.14	2792.26
439.33	2888.22
439.52	2829.71
439.70	2970.14
439.89	3000.57
440.08	2881.20
440.26	2874.18
440.45	3049.72
440.63	2995.89
440.82	3030.99
441.01	3021.63
441.19	3084.83
441.38	3159.72
441.57	3068.44
441.75	3159.72
441.94	3190.15
442.12	3192.49
442.31	3180.79
442.50	3323.56
442.68	3272.07
442.87	3199.51
443.05	3246.32
443.24	3330.58
443.43	3220.58
443.61	3300.16
443.80	3494.42
443.98	3218.24
444.17	3166.74
444.35	3274.41
444.54	3400.80
444.73	3461.65
444.91	3328.24
445.10	3361.01
445.28	3438.25
445.47	3241.64
445.65	3445.27
445.84	3414.84
446.02	3358.67
446.21	3398.46
446.39	3335.26
446.58	3463.99
446.77	3471.01
446.95	3419.52
447.14	3393.78
447.32	3496.76
447.51	3466.33
447.69	3433.57
447.88	3438.25
448.06	3487.40
448.25	3431.23
448.43	3466.33
448.62	3447.61
448.80	3412.50
448.99	3506.12
449.17	3574.00
449.36	3550.59
449.54	3541.23
449.73	3709.75
449.91	3541.23
450.10	3613.79
450.28	3550.59
450.46	3695.71
450.65	3684.00
450.83	3566.98
451.02	3534.21
451.20	3702.73
451.39	3658.26
451.57	3705.07
451.76	3646.55
451.94	3826.78
452.13	3772.94
452.31	3728.47
452.49	3684.00
452.68	3887.63
452.86	3712.09
453.05	3796.35
453.23	3861.88
453.42	3826.78
453.60	3822.09
453.78	3843.16
453.97	3747.20
454.15	3913.38
454.34	3768.26
454.52	3854.86
454.70	3885.29
454.89	3915.72
455.07	3885.29
455.26	3875.93
455.44	4154.45
455.62	4086.58
455.81	3988.27
455.99	3913.38
456.17	4023.38
456.36	3920.40
456.54	4325.31
456.73	4126.36
456.91	4278.50
457.09	4114.66
457.28	4229.35
457.46	4212.96
457.64	4222.33
457.83	4224.67
458.01	4315.95
458.19	4423.61
458.38	4227.01
458.56	4344.03
458.74	4379.14
458.93	4360.42
459.11	4271.48
459.29	4351.06
459.48	4327.65
459.66	4264.46
459.84	4414.25
460.03	4514.89
460.21	4479.79
460.39	4578.09
460.57	4432.97
460.76	4603.83
460.94	4393.19
461.12	4657.67
461.31	4634.26
461.49	4514.89
461.67	4442.34
461.85	4594.47
462.04	4645.96
462.22	4669.37
462.40	4608.51
462.59	4617.88
462.77	4655.33
462.95	4674.05
463.13	4580.43
463.32	4809.80
463.50	4746.61
463.68	4702.14
463.86	4667.03
464.05	4664.69
464.23	4702.14
464.41	4791.08
464.59	4730.22
464.78	4784.06
464.96	4837.89
465.14	4681.07
465.32	4819.16
465.50	4809.80
465.69	5055.56
465.87	4910.44
466.05	4863.63
466.23	4898.74
466.41	4957.25
466.60	5097.69
466.78	5015.77
466.96	4983.00
467.14	5015.77
467.32	5085.98
467.51	5158.54
467.69	4830.87
467.87	4973.64
468.05	5116.41
468.23	4880.02
468.41	5088.32
468.60	5149.18
468.78	5191.31
468.96	5071.94
469.14	5268.55
469.32	5322.38
469.50	5081.30
469.69	5090.67
469.87	5217.05
470.05	5284.93
470.23	5160.88
470.41	5252.16
470.59	5371.53
470.77	5270.89
470.95	5394.93
471.14	5495.58
471.32	5252.16
471.50	5338.76
471.68	5467.49
471.86	5483.88
472.04	5479.19
472.22	5657.07
472.40	5568.13
472.58	5678.14
472.77	5666.44
472.95	5628.99
473.13	5762.40
473.31	5540.05
473.49	5734.31
473.67	5783.46
473.85	5717.93
474.03	5738.99
474.21	5802.19
474.39	5919.21
474.57	5874.74
474.75	5975.39
474.93	6012.84
475.12	5970.71
475.30	6050.28
475.48	6111.14
475.66	6111.14
475.84	6211.78
476.02	6279.66
476.20	6258.59
476.38	6300.72
476.56	6312.42
476.74	6469.24
476.92	6544.14
477.10	6427.11
477.28	6417.75
477.46	6539.46
477.64	6520.73
477.82	6796.92
478.00	6759.47
478.18	6647.12
478.36	6686.91
478.54	6808.62
478.72	6963.09
478.90	6843.73
479.08	6902.24
479.26	7045.01
479.44	7162.04
479.62	7194.81
479.80	7185.44
479.98	7192.47
480.16	7393.75
480.34	7382.05
480.52	7531.84
480.70	7637.17
480.88	7337.58
481.06	7534.18
481.24	7583.34
481.41	7482.69
481.59	7796.32
481.77	7667.60
481.95	7782.28
482.13	8063.15
482.31	7946.12
482.49	8149.75
482.67	8168.47
482.85	8124.00
483.03	8276.13
483.21	8180.17
483.39	8451.67
483.57	8409.54
483.74	8383.80
483.92	8552.32
484.10	8514.87
484.28	8592.11
484.46	8961.91
484.64	8982.98
484.82	8746.58
485.00	8936.17
485.18	9233.41
485.35	9219.37
485.53	9156.18
485.71	9301.29
485.89	9486.19
486.07	9123.41
486.25	9172.56
486.43	9521.30
486.61	9488.53
486.78	9633.64
486.96	9738.97
487.14	9682.80
487.32	9813.87
487.50	9933.23
487.68	10115.80
487.85	10108.77
488.03	10169.63
488.21	10298.36
488.39	10298.36
488.57	10370.91
488.75	10640.08
488.92	10628.37
489.10	10583.90
489.28	10569.86
489.46	10738.38
489.64	11007.54
489.81	11164.36
489.99	10970.09
490.17	10946.69
490.35	11126.91
490.53	11201.80
490.70	11398.41
490.88	11286.06
491.06	11494.37
491.24	11609.06
491.41	11421.81
491.59	11627.78
491.77	11686.29
491.95	11927.37
492.13	11749.49
492.30	12168.45
492.48	12175.47
492.66	11969.50
492.84	12208.23
493.01	12109.93
493.19	12421.22
493.37	12346.33
493.54	12367.39
493.72	12610.81
493.90	12491.44
494.08	12699.75
494.25	13018.06
494.43	13036.78
494.61	13060.19
494.79	13004.02
494.96	12809.75
495.14	13018.06
495.32	12980.61
495.49	13015.72
495.67	13558.72
495.85	13266.16
496.02	13612.56
496.20	13682.77
496.38	13476.80
496.55	13635.96
496.73	13944.91
496.91	13532.98
497.09	14050.24
497.26	14050.24
497.44	14017.47
497.62	14017.47
497.79	14054.92
497.97	14197.69
498.14	14389.61
498.32	14558.13
498.50	14736.01
498.67	14724.31
498.85	14607.28
499.03	14789.85
499.20	14693.88
499.38	14740.69
499.56	14743.03
499.73	14927.94
499.91	15061.35
500.08	14979.43
500.26	14874.10
500.44	15187.74
500.61	14956.02
500.79	15307.10
500.97	15466.26
501.14	15459.24
501.32	15765.85
501.49	15513.07
501.67	15426.47
501.84	15520.09
502.02	15538.82
502.20	15840.75
502.37	15679.25
502.55	15386.68
502.72	15927.35
502.90	16058.42
503.07	15702.65
503.25	16023.31
503.43	15882.88
503.60	16042.03
503.78	16105.23
503.95	16049.05
504.13	16130.97
504.30	16290.13
504.48	16037.35
504.65	16411.84
504.83	16601.42
505.01	16540.57
505.18	16409.50
505.36	16819.09
505.53	16709.08
505.71	16833.13
505.88	16776.96
506.06	16411.84
506.23	17064.85
506.41	16765.26
506.58	17137.40
506.76	17022.72
506.93	17114.00
507.11	17348.05
507.28	17355.07
507.46	17481.46
507.63	17280.18
507.81	17364.43
507.98	17188.89
508.16	17411.25
508.33	17425.29
508.50	17575.08
508.68	17652.32
508.85	17912.12
509.03	17472.10
509.20	17905.10
509.38	18022.12
509.55	17879.35
509.73	17802.11
509.90	18178.94
510.08	17781.05
510.25	17743.60
510.42	18118.09
510.60	18104.04
510.77	18146.17
510.95	18373.21
511.12	18551.09
511.30	18654.07
511.47	18492.57
511.64	18375.55
511.82	18459.81
511.99	18429.38
512.17	18445.76
512.34	18483.21
512.51	18450.44
512.69	18705.56
512.86	19066.00
513.04	19040.26
513.21	19068.34
513.38	19126.86
513.56	19133.88
513.73	19138.56
513.90	19044.94
514.08	19073.03
514.25	19178.35
514.43	19178.35
514.60	19176.01
514.77	19248.57
514.95	19637.09
515.12	19396.02
515.29	19330.48
515.47	19522.41
515.64	19386.66
515.81	19307.08
515.99	19913.28
516.16	19807.95
516.33	19934.34
516.51	19754.12
516.68	19873.49
516.85	19913.28
517.03	19908.60
517.20	19899.23
517.37	19957.75
517.54	20144.99
517.72	20262.02
517.89	20109.88
518.06	20257.34
518.24	20030.30
518.41	20341.60
518.58	20212.87
518.75	20175.42
518.93	20610.76
519.10	20416.49
519.27	20535.86
519.45	20592.03
519.62	20669.27
519.79	20320.53
519.96	20783.96
520.14	20903.32
520.31	20542.88
520.48	20950.14
520.65	20994.61
520.83	20790.98
521.00	21149.08
521.17	21027.37
521.34	20690.34
521.52	20908.01
521.69	20912.69
521.86	21390.16
522.03	21535.27
522.20	21284.83
522.38	21432.29
522.55	21235.68
522.72	21481.44
522.89	21394.84
523.07	21708.47
523.24	21568.04
523.41	21640.59
523.58	21497.82
523.75	21743.58
523.92	21319.94
524.10	21816.13
524.27	21851.24
524.44	21589.10
524.61	22078.27
524.78	21921.46
524.96	21757.62
525.13	21745.92
525.30	21832.52
525.47	22127.42
525.64	21963.59
525.81	22370.84
525.98	22157.85
526.16	22445.74
526.33	21986.99
526.50	22684.47
526.67	22111.04
526.84	22073.59
527.01	22497.23
527.18	22218.71
527.36	22485.53
527.53	22707.88
527.70	22405.95
527.87	22810.86
528.04	22607.23
528.21	22796.82
528.38	22684.47
528.55	22937.25
528.72	22579.15
528.89	22941.93
529.07	22780.43
529.24	22787.46
529.41	23056.62
529.58	23190.03
529.75	22562.76
529.92	22998.10
530.09	23012.15
530.26	22881.08
530.43	23089.38
530.60	23005.13
530.77	23372.59
530.94	23173.64
531.11	22963.00
531.28	23229.82
531.46	23571.54
531.63	23363.23
531.80	23323.44
531.97	23293.01
532.14	23606.64
532.31	23531.75
532.48	23623.03
532.65	23199.39
532.82	23475.57
532.99	23550.47
533.16	23697.92
533.33	23793.89
533.50	23934.32
533.67	23295.35
533.84	23571.54
534.01	23812.61
534.18	23662.82
534.35	23761.12
534.52	23936.66
534.69	24056.03
534.86	23999.85
535.03	23424.08
535.20	24402.43
535.37	24362.64
535.54	24238.59
535.71	24180.07
535.88	24245.61
536.05	24006.87
536.22	24496.05
536.38	24790.95
536.55	24315.83
536.72	24446.90
536.89	24512.43
537.06	24400.08
537.23	24318.17
537.40	24329.87
537.57	24961.81
537.74	24531.15
537.91	24793.29
538.08	24645.84
538.25	24940.75
538.42	24463.28
538.59	24479.66
538.75	24404.77
538.92	25120.97
539.09	24645.84
539.26	24898.62
539.43	25081.18
539.60	24760.53
539.77	24858.83
539.94	25123.31
540.11	24826.06
540.28	24739.46
540.44	25195.87
540.61	25025.01
540.78	25179.48
540.95	25027.35
541.12	25125.65
541.29	24945.43
541.46	25387.79
541.62	25338.64
541.79	25116.29
541.96	24929.05
542.13	24940.75
542.30	25184.16
542.47	25425.24
542.63	25479.07
542.80	25568.01
542.97	25600.78
543.14	25642.91
543.31	25813.77
543.48	25642.91
543.64	25656.95
543.81	25879.30
543.98	25710.78
544.15	25781.00
544.32	25855.90
544.48	26075.91
544.65	25832.49
544.82	25785.68
544.99	25713.13
545.16	25799.73
545.32	25638.23
545.49	26316.98
545.66	26324.01
545.83	26237.41
546.00	26450.39
546.16	25846.54
546.33	26206.98
546.50	25935.48
546.67	26513.59
546.83	25666.31
547.00	26218.68
547.17	26225.70
547.34	26504.23
547.50	26405.92
547.67	26895.10
547.84	26302.94
548.00	26654.02
548.17	26794.45
548.34	26225.70
548.51	26426.99
548.67	26548.70
548.84	26803.82
549.01	26583.80
549.18	26654.02
549.34	26326.35
549.51	26522.95
549.68	26656.36
549.84	26749.98
550.01	26611.89
550.18	26625.93
550.34	27166.60
550.51	27058.93
550.68	26979.36
550.84	26878.71
551.01	26621.25
551.18	26738.28
551.34	26532.31
551.51	27002.76
551.68	27264.90
551.84	26930.20
552.01	27208.73
552.18	27379.59
552.34	26930.20
552.51	27058.93
552.68	27339.80
552.84	27096.38
553.01	26998.08
553.18	27295.33
553.34	27307.03
553.51	27225.11
553.67	27250.86
553.84	27421.72
554.01	27435.76
554.17	27599.60
554.34	27346.82
554.51	26988.72
554.67	27314.05
554.84	27292.99
555.00	27337.46
555.17	27632.36
555.33	27447.46
555.50	27381.93
555.67	27353.84
555.83	27241.50
556.00	27307.03
556.16	27637.05
556.33	27461.51
556.50	27861.74
556.66	27606.62
556.83	27487.25
556.99	27948.34
557.16	27786.84
557.32	27644.07
557.49	27927.27
557.65	27414.69
557.82	27489.59
557.98	27564.49
558.15	27922.59
558.32	28147.28
558.48	27929.61
558.65	28154.30
558.81	27592.58
558.98	27737.69
559.14	27791.52
559.31	27564.49
559.47	27695.56
559.64	28151.96
559.80	27721.30
559.97	27789.18
560.13	27985.79
560.30	28273.67
560.46	28226.86
560.63	27917.91
560.79	27868.76
560.96	28128.56
561.12	27971.74
561.29	28018.55
561.45	27920.25
561.61	28517.09
561.78	28208.14
561.94	28119.20
562.11	28215.16
562.27	28027.92
562.44	28070.04
562.60	27983.44
562.77	28002.17
562.93	27920.25
563.10	28280.69
563.26	27894.50
563.42	28383.68
563.59	28063.02
563.75	28437.51
563.92	28402.40
564.08	28166.01
564.24	28088.77
564.41	28009.19
564.57	28470.28
564.74	28533.47
564.90	28699.65
565.07	28341.55
565.23	28416.44
565.39	28332.18
565.56	28566.24
565.72	28416.44
565.88	28109.83
566.05	28095.79
566.21	28650.50
566.38	28346.23
566.54	28379.00
566.70	28858.81
566.87	28774.55
567.03	28900.94
567.19	28868.17
567.36	28519.43
567.52	28243.24
567.68	28561.56
567.85	28245.58
568.01	28835.40
568.17	28510.07
568.34	28900.94
568.50	28439.85
568.66	28397.72
568.83	28851.78
568.99	28793.27
569.15	28662.20
569.32	28755.82
569.48	28849.44
569.64	28498.36
569.81	28872.85
569.97	28545.17
570.13	29010.94
570.30	28760.50
570.46	28971.15
570.62	28615.39
570.78	28439.85
570.95	28364.95
571.11	28631.77
571.27	28364.95
571.43	28790.93
571.60	28851.78
571.76	28800.29
571.92	28680.92
572.09	29057.75
572.25	28790.93
572.41	28964.13
572.57	28641.14
572.74	28709.01
572.90	28659.86
573.06	29015.62
573.22	28631.77
573.38	28713.69
573.55	29029.66
573.71	29139.67
573.87	28945.41
574.03	28603.69
574.20	28844.76
574.36	28716.03
574.52	29113.92
574.68	29062.43
574.84	29305.85
575.01	29050.73
575.17	28582.62
575.33	28811.99
575.49	28779.23
575.65	28854.12
575.82	29020.30
575.98	28538.15
576.14	29102.22
576.30	29106.90
576.46	29015.62
576.62	28835.40
576.79	28716.03
576.95	28879.87
577.11	29326.91
577.27	29132.65
577.43	28987.53
577.59	29212.23
577.75	28905.62
577.92	28929.02
578.08	28772.21
578.24	28596.67
578.40	28645.82
578.56	29193.50
578.72	28865.83
578.88	29160.73
579.04	29134.99
579.21	29184.14
579.37	28950.09
579.53	28933.70
579.69	28833.06
579.85	28573.26
580.01	29125.63
580.17	28765.18
580.33	28964.13
580.49	28996.90
580.65	29081.16
580.82	29528.20
580.98	29401.81
581.14	28996.90
581.30	29453.30
581.46	29205.20
581.62	29097.54
581.78	28903.28
581.94	29460.32
582.10	29113.92
582.26	29048.39
582.42	29088.18
582.58	29205.20
582.74	29050.73
582.90	29029.66
583.06	29242.65
583.22	29088.18
583.38	28982.85
583.54	28933.70
583.70	29081.16
583.86	29151.37
584.02	28570.92
584.18	29296.49
584.34	29422.87
584.50	29291.80
584.66	29663.95
584.82	29067.11
584.98	29343.30
585.14	29273.08
585.30	29032.00
585.46	28989.88
585.62	29301.17
585.78	29230.95
585.94	28868.17
586.10	29074.13
586.26	29088.18
586.42	29392.45
586.58	29158.39
586.74	29207.55
586.90	28816.68
587.06	28835.40
587.22	29076.48
587.38	29046.05
587.54	29350.32
587.70	29315.21
587.86	29385.43
588.02	29289.46
588.18	29546.92
588.34	29282.44
588.49	29432.24
588.65	29212.23
588.81	29202.86
588.97	29350.32
589.13	29099.88
589.29	29364.36
589.45	29359.68
589.61	29612.46
589.77	29692.04
589.93	29502.45
590.08	29741.19
590.24	29462.66
590.40	29633.52
590.56	29303.51
590.72	29397.13
590.88	29270.74
591.04	29378.40
591.20	29607.78
591.35	29748.21
591.51	30068.86
591.67	29710.76
591.83	29757.57
591.99	29481.39
592.15	29607.78
592.31	29567.99
592.46	29237.97
592.62	29509.47
592.78	29249.67
592.94	29474.37
593.10	29476.71
593.26	29670.97
593.41	29771.61
593.57	29359.68
593.73	29443.94
593.89	29645.23
594.05	29603.10
594.20	29605.44
594.36	29776.30
594.52	29425.22
594.68	29509.47
594.84	29289.46
594.99	29579.69
595.15	29645.23
595.31	29476.71
595.47	30087.59
595.62	29694.38
595.78	29230.95
595.94	29680.33
596.10	29881.62
596.25	29715.44
596.41	29546.92
596.57	29460.32
596.73	29696.72
596.88	29502.45
597.04	29795.02
597.20	29575.01
597.36	29076.48
597.51	29823.11
597.67	30118.01
597.83	29546.92
597.99	29713.10
598.14	29670.97
598.30	29654.59
598.46	29647.57
598.61	29745.87
598.77	29680.33
598.93	29607.78
599.09	29916.73
599.24	30043.12
599.40	29708.42
599.56	30010.35
599.71	29717.78
599.87	29795.02
600.03	29612.46
600.18	29703.74
600.34	29202.86
600.50	29741.19
600.65	29820.77
600.81	30066.52
600.97	29783.32
601.12	29738.85
601.28	30192.91
601.44	29860.55
601.59	29916.73
601.75	29584.37
601.91	29984.60
602.06	29617.14
602.22	29792.68
602.37	29635.86
602.53	29322.23
602.69	30026.73
602.84	29710.76
603.00	29785.66
603.16	30118.01
603.31	29621.82
603.47	30080.56
603.62	29642.88
603.78	29977.58
603.94	29773.95
604.09	29589.05
604.25	29802.04
604.40	29621.82
604.56	29944.81
604.71	30012.69
604.87	29558.63
605.03	29869.92
605.18	29907.37
605.34	29780.98
605.49	29336.27
605.65	29736.51
605.80	29359.68
605.96	29933.11
606.12	29570.33
606.27	29619.48
606.43	29764.59
606.58	29802.04
606.74	29465.00
606.89	29310.53
607.05	29795.02
607.20	29378.40
607.36	29619.48
607.51	29795.02
607.67	29514.16
607.82	29404.15
607.98	29565.65
608.13	29429.90
608.29	29333.93
608.44	29357.34
608.60	29844.17
608.75	29301.17
608.91	29722.46
609.06	29692.04
609.22	29729.48
609.37	29104.56
609.53	29579.69
609.68	29427.56
609.84	29476.71
609.99	29493.09
610.15	29127.97
610.30	29443.94
610.46	29174.78
610.61	29125.63
610.76	29067.11
610.92	29432.24
611.07	29460.32
611.23	29783.32
611.38	29493.09
611.54	29118.60
611.69	28762.84
611.84	28992.22
612.00	29266.06
612.15	29369.04
612.31	29202.86
612.46	29324.57
612.62	29825.45
612.77	29081.16
612.92	29614.80
613.08	29467.34
613.23	29078.82
613.39	29371.38
613.54	28828.38
613.69	29188.82
613.85	29181.80
614.00	28954.77
614.15	29123.29
614.31	29130.31
614.46	29205.20
614.62	29209.89
614.77	29207.55
614.92	29160.73
615.08	29099.88
615.23	29287.12
615.38	29373.72
615.54	28872.85
615.69	28816.68
615.84	29020.30
616.00	28912.64
616.15	28594.32
616.30	28746.46
616.46	28900.94
616.61	29003.92
616.76	29172.44
616.92	29432.24
617.07	29015.62
617.22	29024.98
617.37	28676.24
617.53	29432.24
617.68	28922.00
617.83	28751.14
617.99	28959.45
618.14	28348.57
618.29	28699.65
618.45	28549.85
618.60	28739.44
618.75	28802.63
618.90	28823.70
619.06	28491.34
619.21	28418.78
619.36	28882.21
619.51	28409.42
619.67	28182.39
619.82	28233.88
619.97	28694.97
620.12	28404.74
620.28	28493.68
620.43	28994.56
620.58	28828.38
620.73	28760.50
620.89	28554.54
621.04	29048.39
621.19	28561.56
621.34	27929.61
621.49	28166.01
621.65	28676.24
621.80	28229.20
621.95	28304.10
622.10	28119.20
622.25	28362.61
622.41	28573.26
622.56	28009.19
622.71	28861.15
622.86	28444.53
623.01	28198.77
623.16	28371.97
623.32	28339.21
623.47	28105.15
623.62	28304.10
623.77	28180.05
623.92	28002.17
624.07	27880.46
624.23	28184.73
624.38	28067.70
624.53	28238.56
624.68	28233.88
624.83	28320.48
624.98	27978.76
625.13	28048.98
625.29	28266.65
625.44	28243.24
625.59	28126.22
625.74	27875.78
625.89	27641.73
626.04	27798.54
626.19	27796.20
626.34	27725.99
626.49	27929.61
626.65	27672.15
626.80	28252.61
626.95	27672.15
627.10	27749.39
627.25	27910.89
627.40	27517.68
627.55	27421.72
627.70	27498.95
627.85	27798.54
628.00	27534.06
628.15	27835.99
628.30	27484.91
628.45	27672.15
628.60	27798.54
628.76	27688.54
628.91	27604.28
629.06	27524.70
629.21	27777.48
629.36	27349.16
629.51	27517.68
629.66	27435.76
629.81	27269.58
629.96	27435.76
630.11	27412.35
630.26	27374.91
630.41	27290.65
630.56	27410.01
630.71	27501.29
630.86	27349.16
631.01	27520.02
631.16	27852.38
631.31	27351.50
631.46	27580.87
631.61	27417.04
631.76	27328.10
631.91	27016.80
632.06	27271.92
632.21	27410.01
632.36	27131.49
632.51	26969.99
632.66	27089.36
632.81	27180.64
632.96	26984.04
633.10	26993.40
633.25	27164.26
633.40	27152.55
633.55	27136.17
633.70	26845.94
633.85	26852.97
634.00	26927.86
634.15	27016.80
634.30	26962.97
634.45	26836.58
634.60	26850.63
634.75	27002.76
634.90	26759.34
635.05	26913.82
635.19	27199.37
635.34	27037.87
635.49	26927.86
635.64	26689.13
635.79	27168.94
635.94	26862.33
636.09	26719.56
636.24	26483.16
636.39	26546.36
636.53	26794.45
636.68	26616.57
636.83	26801.47
636.98	26972.33
637.13	26761.69
637.28	26768.71
637.43	26766.37
637.57	26787.43
637.72	26373.16
637.87	26483.16
638.02	26544.02
638.17	26614.23
638.32	26487.84
638.46	26412.95
638.61	26412.95
638.76	26127.40
638.91	26541.68
639.06	26513.59
639.20	26153.15
639.35	26015.05
639.50	26377.84
639.65	26581.46
639.80	26623.59
639.94	26485.50
640.09	26426.99
640.24	26333.37
640.39	26272.51
640.54	26146.12
640.68	26125.06
640.83	25972.92
640.98	25956.54
641.13	26096.97
641.27	26340.39
641.42	26405.92
641.57	26267.83
641.72	26279.54
641.86	26188.25
642.01	25614.82
642.16	26171.87
642.31	25869.94
642.45	25951.86
642.60	25556.31
642.75	25846.54
642.90	25900.37
643.04	25727.17
643.19	25539.93
643.34	26022.08
643.48	26019.74
643.63	26148.46
643.78	25844.20
643.93	26052.50
644.07	26017.40
644.22	26197.62
644.37	25750.57
644.51	25933.14
644.66	25652.27
644.81	25783.34
644.95	25666.31
645.10	25692.06
645.25	25633.55
645.39	25701.42
645.54	25621.84
645.69	25659.29
645.83	25539.93
645.98	25633.55
646.13	26001.01
646.27	25806.75
646.42	25626.53
646.57	25671.00
646.71	25652.27
646.86	25612.48
647.00	25500.14
647.15	25612.48
647.30	25392.47
647.44	25441.62
647.59	25369.07
647.74	25612.48
647.88	25455.67
648.03	25685.04
648.17	25706.10
648.32	25612.48
648.47	25666.31
648.61	25624.18
648.76	25853.56
648.90	25678.02
649.05	25479.07
649.20	24907.98
649.34	25221.61
649.49	25233.32
649.63	24697.33
649.78	25404.17
649.92	24978.20
650.07	25432.26
650.21	25338.64
650.36	25312.89
650.51	25223.95
650.65	25165.44
650.80	25228.63
650.94	25216.93
651.09	25191.19
651.23	25102.25
651.38	25130.33
651.52	24687.97
651.67	25022.67
651.81	25017.99
651.96	25022.67
652.10	24842.45
652.25	24769.89
652.39	25200.55
652.54	25048.41
652.68	24671.59
652.83	24964.15
652.97	25181.82
653.12	24943.09
653.26	24797.98
653.41	24800.32
653.55	25109.27
653.70	24980.54
653.84	24589.67
653.99	24711.38
654.13	24723.08
654.27	24762.87
654.42	24788.61
654.56	24559.24
654.71	24739.46
654.85	25008.62
655.00	24655.20
655.14	24774.57
655.29	24477.32
655.43	24706.70
655.57	25099.90
655.72	24603.71
655.86	24779.25
656.01	24287.74
656.15	24430.51
656.30	24610.73
656.44	24477.32
656.58	24467.96
656.73	24233.91
656.87	24720.74
657.01	24154.33
657.16	24180.07
657.30	24774.57
657.45	24421.15
657.59	24442.21
657.73	24343.91
657.88	24512.43
658.02	24414.13
658.16	24128.58
658.31	24243.27
658.45	24540.52
658.60	24364.98
658.74	24465.62
658.88	24006.87
659.03	23772.82
659.17	23850.06
659.31	23793.89
659.46	24112.20
659.60	24116.88
659.74	23859.42
659.89	24032.62
660.03	23639.41
660.17	23894.53
660.32	23606.64
660.46	23948.36
660.60	23674.52
660.74	23971.77
660.89	23658.14
661.03	23714.31
661.17	23714.31
661.32	23775.16
661.46	24154.33
661.60	23522.38
661.74	23700.26
661.89	23644.09
662.03	24037.30
662.17	23718.99
662.31	23271.95
662.46	23915.59
662.60	23183.01
662.74	23527.06
662.88	23309.40
663.03	23365.57
663.17	22998.10
663.31	23206.41
663.45	22998.10
663.60	23293.01
663.74	22937.25
663.88	23068.32
664.02	23016.83
664.17	23218.11
664.31	22899.80
664.45	22958.31
664.59	23056.62
664.73	22967.68
664.88	22925.55
665.02	22803.84
665.16	22911.50
665.30	22768.73
665.44	22719.58
665.59	22668.09
665.73	22382.54
665.87	22211.68
666.01	22848.31
666.15	22583.83
666.29	22527.66
666.44	22721.92
666.58	22417.65
666.72	22452.76
666.86	22874.06
667.00	22600.21
667.14	22422.33
667.28	22445.74
667.43	22340.41
667.57	22309.99
667.71	22164.87
667.85	22375.52
667.99	22263.18
668.13	22066.57
668.27	22153.17
668.41	22195.30
668.56	22022.10
668.70	22092.32
668.84	22148.49
668.98	22295.94
669.12	22036.14
669.26	22132.11
669.40	21900.39
669.54	21876.99
669.68	21879.33
669.82	21661.66
669.96	21418.24
670.10	21682.72
670.25	21823.16
670.39	21610.17
670.53	21790.39
670.67	21612.51
670.81	21415.90
670.95	21717.83
671.09	21231.00
671.23	21778.68
671.37	21628.89
671.51	21675.70
671.65	21600.80
671.79	21322.28
671.93	21233.34
672.07	21233.34
672.21	21205.25
672.35	21060.14
672.49	21053.12
672.63	21163.12
672.77	21046.10
672.91	21060.14
673.05	20737.15
673.19	20746.51
673.33	21111.63
673.47	20992.26
673.61	21078.86
673.75	20790.98
673.89	20767.57
674.03	20748.85
674.17	20659.91
674.31	20423.51
674.45	20685.65
674.59	20472.67
674.73	20835.45
674.87	20189.46
675.01	20304.15
675.15	20374.36
675.29	20294.79
675.43	20100.52
675.56	20505.43
675.70	20320.53
675.84	20135.63
675.98	19840.72
676.12	20271.38
676.26	20011.58
676.40	19892.21
676.54	19939.02
676.68	19840.72
676.82	19681.56
676.96	19939.02
677.10	20072.43
677.23	19920.30
677.37	19309.42
677.51	19592.62
677.65	19637.09
677.79	19349.21
677.93	19302.40
678.07	19393.68
678.21	19178.35
678.34	19339.85
678.48	19131.54
678.62	19105.79
678.76	19054.30
678.90	18993.45
679.04	18998.13
679.18	19026.21
679.31	18897.49
679.45	18831.95
679.59	18560.45
679.73	18567.47
679.87	18525.34
680.00	18611.94
680.14	18436.40
680.28	18235.11
680.42	18424.70
680.56	18415.34
680.70	18291.29
680.83	18129.79
680.97	18359.16
681.11	17980.00
681.25	17949.57
681.39	18078.30
681.52	18031.49
681.66	17642.96
681.80	17853.61
681.94	17717.86
682.07	17914.46
682.21	17671.04
682.35	17420.61
682.49	17378.48
682.62	17425.29
682.76	17467.42
682.90	17245.07
683.04	17282.52
683.17	17664.02
683.31	17319.96
683.45	17483.80
683.59	17420.61
683.72	16966.54
683.86	17312.94
684.00	17078.89
684.13	17193.58
684.27	17137.40
684.41	16720.79
684.55	16655.25
684.68	16809.73
684.82	16744.19
684.96	16917.39
685.09	16505.46
685.23	16755.90
685.37	16315.87
685.50	16657.59
685.64	16482.05
685.78	16238.64
685.91	16510.14
686.05	16456.31
686.19	16290.13
686.32	16159.06
686.46	16112.25
686.60	16149.70
686.73	16002.24
686.87	15988.20
687.01	16060.76
687.14	15623.08
687.28	15772.87
687.42	15424.13
687.55	15618.39
687.69	15782.23
687.82	15810.32
687.96	15782.23
688.10	15543.50
688.23	15559.88
688.37	15506.05
688.50	14958.36
688.64	15431.15
688.78	15367.96
688.91	14993.47
689.05	15260.29
689.18	14930.28
689.32	14621.33
689.46	14932.62
689.59	14724.31
689.73	14586.22
689.86	14740.69
690.00	14785.16
690.13	14682.18
690.27	14761.76
690.41	14672.82
690.54	14462.17
690.68	14588.56
690.81	14516.00
690.95	14480.89
691.08	14721.97
691.22	14487.92
691.35	14183.65
691.49	14523.02
691.62	14424.72
691.76	13968.32
691.89	14370.89
692.03	14167.26
692.16	13970.66
692.30	13862.99
692.43	13624.26
692.57	14022.15
692.70	13752.99
692.84	13647.66
692.97	13886.40
693.11	13614.90
693.24	13790.44
693.38	13717.88
693.51	13788.10
693.65	13207.64
693.78	13469.78
693.92	13317.65
694.05	13324.67
694.19	13109.34
694.32	13062.53
694.45	13048.49
694.59	12975.93
694.72	13013.38
694.86	12882.31
694.99	12861.24
695.13	12910.40
695.26	12840.18
695.39	12613.15
695.53	12734.85
695.66	12664.64
695.80	12737.20
695.93	12744.22
696.07	12652.94
696.20	12439.95
696.33	12465.69
696.47	12542.93
696.60	12290.15
696.73	12526.55
696.87	12343.99
697.00	12098.23
697.14	11955.46
697.27	12009.29
697.40	12020.99
697.54	11915.67
697.67	11920.35
697.80	11620.76
697.94	11840.77
698.07	11580.97
698.21	11775.24
698.34	11889.92
698.47	11761.19
698.61	11592.67
698.74	11805.66
698.87	11700.34
699.01	11482.67
699.14	11449.90
699.27	11295.43
699.40	11353.94
699.54	11311.81
699.67	11318.83
699.80	11211.17
699.94	11131.59
700.07	11157.33
700.20	10979.45
700.34	11082.44
700.47	10862.43
700.60	11023.92
700.73	10981.79
700.87	10949.03
701.00	10682.20
701.13	10778.17
701.26	10775.83
701.40	10867.11
701.53	10773.49
701.66	10743.06
701.79	10427.09
701.93	10420.06
702.06	10560.50
702.19	10314.74
702.32	10267.93
702.46	10228.14
702.59	9914.51
702.72	9951.96
702.85	10017.49
702.99	10106.43
703.12	10141.54
703.25	9947.28
703.38	9888.76
703.51	10115.80
703.65	10012.81
703.78	9921.53
703.91	9884.08
704.04	9809.19
704.17	9940.26
704.31	9898.13
704.44	9558.75
704.57	9554.07
704.70	9568.11
704.83	9645.35
704.96	9423.00
705.10	9462.79
705.23	9322.35
>>>>>End Processed Spectral Data<<<<<
