SpectraSuite Data File
++++++++++++++++++++++++++++++++++++
Date: Fri Oct 18 13:57:55 GMT-05:00 2013
User: bianchi
Dark Spectrum Present: No
Reference Spectrum Present: No
Number of Sampled Component Spectra: 1
Spectrometers: USB2+H05261
Integration Time (usec): 50000 (USB2+H05261)
Spectra Averaged: 1 (USB2+H05261)
Boxcar Smoothing: 0 (USB2+H05261)
Correct for Electrical Dark: No (USB2+H05261)
Strobe/Lamp Enabled: No (USB2+H05261)
Correct for Detector Non-linearity: No (USB2+H05261)
Correct for Stray Light: No (USB2+H05261)
Number of Pixels in Processed Spectrum: 2048
>>>>>Begin Processed Spectral Data<<<<<
365.73	0.00
365.92	0.00
366.12	0.00
366.32	0.00
366.52	0.00
366.72	0.00
366.91	0.00
367.11	0.00
367.31	0.00
367.51	0.00
367.70	0.00
367.90	0.00
368.10	0.00
368.30	0.00
368.49	0.00
368.69	0.00
368.89	0.00
369.09	0.00
369.28	0.00
369.48	0.00
369.68	0.00
369.87	0.00
370.07	0.00
370.27	0.00
370.47	0.00
370.66	65.54
370.86	166.18
371.06	60.85
371.25	114.69
371.45	145.11
371.65	201.29
371.84	222.35
372.04	152.13
372.24	154.48
372.44	229.37
372.63	208.31
372.83	255.12
373.03	180.22
373.22	224.69
373.42	177.88
373.62	198.95
373.81	285.55
374.01	257.46
374.21	290.23
374.40	255.12
374.60	367.46
374.79	229.37
374.99	325.33
375.19	308.95
375.38	198.95
375.58	294.91
375.78	283.20
375.97	227.03
376.17	262.14
376.37	290.23
376.56	241.08
376.76	252.78
376.95	245.76
377.15	205.97
377.35	294.91
377.54	259.80
377.74	292.57
377.93	248.10
378.13	318.31
378.33	285.55
378.52	255.12
378.72	273.84
378.91	283.20
379.11	292.57
379.31	238.73
379.50	283.20
379.70	313.63
379.89	290.23
380.09	292.57
380.28	287.89
380.48	367.46
380.68	318.31
380.87	332.36
381.07	266.82
381.26	365.12
381.46	280.86
381.65	334.70
381.85	306.61
382.04	351.08
382.24	414.27
382.43	334.70
382.63	358.10
382.83	423.64
383.02	365.12
383.22	301.93
383.41	280.86
383.61	358.10
383.80	315.97
384.00	360.44
384.19	395.55
384.39	372.15
384.58	404.91
384.78	416.62
384.97	393.21
385.17	402.57
385.36	440.02
385.56	334.70
385.75	402.57
385.95	475.13
386.14	463.43
386.34	477.47
386.53	414.27
386.72	416.62
386.92	390.87
387.11	507.90
387.31	447.04
387.50	440.02
387.70	409.59
387.89	428.32
388.09	507.90
388.28	409.59
388.48	428.32
388.67	437.68
388.86	512.58
389.06	386.19
389.25	423.64
389.45	489.17
389.64	491.51
389.84	510.24
390.03	517.26
390.22	521.94
390.42	564.07
390.61	482.15
390.81	540.66
391.00	538.32
391.19	500.87
391.39	479.81
391.58	526.62
391.78	599.18
391.97	643.65
392.16	571.09
392.36	531.30
392.55	510.24
392.75	533.64
392.94	526.62
393.13	620.24
393.33	631.94
393.52	599.18
393.71	554.71
393.91	538.32
394.10	617.90
394.29	566.41
394.49	493.85
394.68	613.22
394.88	521.94
395.07	596.84
395.26	585.13
395.46	552.37
395.65	655.35
395.84	559.39
396.04	734.93
396.23	702.16
396.42	596.84
396.62	683.44
396.81	655.35
397.00	641.31
397.19	667.05
397.39	655.35
397.58	706.84
397.77	669.39
397.97	695.14
398.16	676.41
398.35	734.93
398.55	655.35
398.74	697.48
398.93	814.51
399.12	725.57
399.32	814.51
399.51	751.31
399.70	704.50
399.90	746.63
400.09	821.53
400.28	774.72
400.47	763.01
400.67	795.78
400.86	800.46
401.05	781.74
401.24	746.63
401.44	713.86
401.63	835.57
401.82	908.13
402.01	847.27
402.21	765.36
402.40	908.13
402.59	891.74
402.78	983.02
402.97	915.15
403.17	901.11
403.36	912.81
403.55	891.74
403.74	917.49
403.93	978.34
404.13	950.26
404.32	887.06
404.51	964.30
404.70	905.79
404.89	875.36
405.09	938.55
405.28	968.98
405.47	952.60
405.66	912.81
405.85	945.58
406.05	1029.84
406.24	1104.73
406.43	1071.97
406.62	985.37
406.81	1088.35
407.00	1097.71
407.20	1027.50
407.39	1116.44
407.58	1111.75
407.77	1071.97
407.96	1078.99
408.15	1074.31
408.34	1100.05
408.54	1153.88
408.73	1118.78
408.92	1137.50
409.11	1008.77
409.30	1181.97
409.49	1217.08
409.68	1186.65
409.87	1188.99
410.07	1177.29
410.26	1273.25
410.45	1177.29
410.64	1247.51
410.83	1249.85
411.02	1270.91
411.21	1270.91
411.40	1266.23
411.59	1390.28
411.78	1336.45
411.98	1355.17
412.17	1324.74
412.36	1364.53
412.55	1451.13
412.74	1320.06
412.93	1359.85
413.12	1364.53
413.31	1465.18
413.50	1444.11
413.69	1563.48
413.88	1500.28
414.07	1528.37
414.26	1596.25
414.45	1572.84
414.64	1533.05
414.83	1575.18
415.02	1465.18
415.22	1600.93
415.41	1572.84
415.60	1547.09
415.79	1645.40
415.98	1640.72
416.17	1724.97
416.36	1682.85
416.55	1584.54
416.74	1612.63
416.93	1708.59
417.12	1823.28
417.31	1792.85
417.50	1671.14
417.69	1680.50
417.88	1689.87
418.07	1776.47
418.26	1785.83
418.45	1998.82
418.64	1909.88
418.83	1811.57
419.02	1893.49
419.21	1865.41
419.39	1804.55
419.58	1956.69
419.77	1919.24
419.96	1952.01
420.15	1944.99
420.34	1900.52
420.53	1849.02
420.72	1942.64
420.91	2017.54
421.10	2113.50
421.29	2005.84
421.48	1991.80
421.67	1898.17
421.86	1970.73
422.05	2059.67
422.24	1975.41
422.43	1935.62
422.61	2092.44
422.80	2024.56
422.99	2099.46
423.18	2169.68
423.37	2043.29
423.56	2092.44
423.75	2113.50
423.94	2062.01
424.13	1923.92
424.32	1935.62
424.50	2052.65
424.69	2223.51
424.88	2207.13
425.07	2012.86
425.26	2066.69
425.45	2106.48
425.64	2239.89
425.83	1968.39
426.01	2059.67
426.20	2139.25
426.39	2066.69
426.58	2083.08
426.77	2125.21
426.96	2146.27
427.15	2169.68
427.33	2134.57
427.52	2141.59
427.71	2195.42
427.90	2202.44
428.09	2200.10
428.28	2146.27
428.46	2242.23
428.65	2186.06
428.84	2345.22
429.03	2307.77
429.22	2352.24
429.40	2230.53
429.59	2445.86
429.78	2286.70
429.97	2174.36
430.16	2335.85
430.34	2429.48
430.53	2389.69
430.72	2434.16
430.91	2235.21
431.10	2382.67
431.28	2401.39
431.47	2394.37
431.66	2424.80
431.85	2469.27
432.03	2410.75
432.22	2513.74
432.41	2445.86
432.60	2452.88
432.79	2434.16
432.97	2560.55
433.16	2656.51
433.35	2480.97
433.54	2656.51
433.72	2487.99
433.91	2562.89
434.10	2541.82
434.28	2590.97
434.47	2623.74
434.66	2656.51
434.85	2633.10
435.03	2754.81
435.22	2637.78
435.41	2672.89
435.59	2810.98
435.78	2822.69
435.97	2682.25
436.16	2677.57
436.34	2754.81
436.53	2822.69
436.72	3007.59
436.90	2724.38
437.09	2736.09
437.28	2686.94
437.46	2782.90
437.65	2834.39
437.84	2972.48
438.02	2944.39
438.21	2876.52
438.40	2864.82
438.58	3019.29
438.77	3052.06
438.96	2920.99
439.14	3089.51
439.33	2984.18
439.52	3049.72
439.70	3014.61
439.89	3080.14
440.08	3028.65
440.26	3033.33
440.45	3176.11
440.63	3087.17
440.82	3276.75
441.01	3169.09
441.19	3229.94
441.38	3309.52
441.57	3330.58
441.75	3386.76
441.94	3405.48
442.12	3304.84
442.31	3356.33
442.50	3393.78
442.68	3344.63
442.87	3501.44
443.05	3471.01
443.24	3520.17
443.43	3485.06
443.61	3569.32
443.80	3578.68
443.98	3454.63
444.17	3332.92
444.35	3592.72
444.54	3562.30
444.73	3529.53
444.91	3480.38
445.10	3433.57
445.28	3735.50
445.47	3527.19
445.65	3639.53
445.84	3590.38
446.02	3679.32
446.21	3665.28
446.39	3548.25
446.58	3618.47
446.77	3679.32
446.95	3550.59
447.14	3534.21
447.32	3688.68
447.51	3583.36
447.69	3646.55
447.88	3749.54
448.06	3592.72
448.25	3604.42
448.43	3613.79
448.62	3632.51
448.80	3634.85
448.99	3695.71
449.17	3742.52
449.36	3641.87
449.54	3749.54
449.73	3925.08
449.91	3639.53
450.10	3824.44
450.28	3857.20
450.46	3946.14
450.65	3854.86
450.83	3815.07
451.02	3812.73
451.20	3915.72
451.39	3927.42
451.57	3934.44
451.76	3866.56
451.94	3904.01
452.13	3976.57
452.31	4056.15
452.49	3950.82
452.68	3969.55
452.86	3978.91
453.05	4037.42
453.23	4002.32
453.42	3976.57
453.60	4035.08
453.78	3974.23
453.97	3941.46
454.15	4126.36
454.34	4018.70
454.52	4161.47
454.70	4140.41
454.89	4163.81
455.07	4091.26
455.26	4212.96
455.44	4292.54
455.62	4283.18
455.81	4189.56
455.99	4269.14
456.17	4208.28
456.36	4404.89
456.54	4358.08
456.73	4287.86
456.91	4519.57
457.09	4315.95
457.28	4304.25
457.46	4386.16
457.64	4447.02
457.83	4542.98
458.01	4442.34
458.19	4622.56
458.38	4505.53
458.56	4681.07
458.74	4526.60
458.93	4587.45
459.11	4564.04
459.29	4688.09
459.48	4648.30
459.66	4538.30
459.84	4706.82
460.03	4723.20
460.21	4727.88
460.39	4784.06
460.57	4613.20
460.76	4765.33
460.94	4692.77
461.12	4873.00
461.31	4601.49
461.49	4753.63
461.67	4688.09
461.85	4842.57
462.04	4734.90
462.22	5111.73
462.40	4968.96
462.59	4971.30
462.77	4938.53
462.95	5029.81
463.13	4950.23
463.32	4924.49
463.50	5018.11
463.68	5097.69
463.86	4938.53
464.05	4992.36
464.23	5188.97
464.41	5027.47
464.59	4936.19
464.78	4997.04
464.96	5163.22
465.14	4999.38
465.32	5172.58
465.50	5048.54
465.69	5139.82
465.87	5214.71
466.05	5203.01
466.23	5193.65
466.41	5109.39
466.60	5362.17
466.78	5233.44
466.96	5090.67
467.14	5214.71
467.32	5212.37
467.51	5413.66
467.69	5191.31
467.87	5460.47
468.05	5167.90
468.23	5172.58
468.41	5458.13
468.60	5336.42
468.78	5448.77
468.96	5406.64
469.14	5511.96
469.32	5598.56
469.50	5444.09
469.69	5439.40
469.87	5605.58
470.05	5570.48
470.23	5614.95
470.41	5706.23
470.59	5776.44
470.77	5568.13
470.95	5556.43
471.14	5813.89
471.32	5544.73
471.50	5884.11
471.68	5827.93
471.86	5849.00
472.04	5731.97
472.22	5940.28
472.40	5809.21
472.58	5881.77
472.77	5987.09
472.95	5954.32
473.13	6251.57
473.31	5919.21
473.49	5909.85
473.67	5919.21
473.85	6174.33
474.03	6361.58
474.21	6073.69
474.39	6314.77
474.57	6160.29
474.75	6244.55
474.93	6296.04
475.12	6289.02
475.30	6462.22
475.48	6265.61
475.66	6375.62
475.84	6548.82
476.02	6607.33
476.20	6541.80
476.38	6768.83
476.56	6801.60
476.74	6771.17
476.92	6614.35
477.10	6684.57
477.28	6860.11
477.46	6913.94
477.64	6867.13
477.82	7054.37
478.00	7194.81
478.18	7288.43
478.36	7208.85
478.54	7150.34
478.72	7152.68
478.90	7398.43
479.08	7351.62
479.26	7480.35
479.44	7688.66
479.62	7679.30
479.80	7606.74
479.98	7705.04
480.16	7735.47
480.34	7660.57
480.52	7838.45
480.70	7887.61
480.88	7826.75
481.06	7808.03
481.24	7857.18
481.41	8126.34
481.59	8147.40
481.77	8100.59
481.95	8212.94
482.13	8290.18
482.31	8456.36
482.49	8564.02
482.67	8659.98
482.85	8809.78
483.03	8713.81
483.21	8807.44
483.39	8870.63
483.57	9043.83
483.74	8755.94
483.92	9109.36
484.10	9048.51
484.28	9312.99
484.46	9350.44
484.64	9631.30
484.82	9364.48
485.00	9507.26
485.18	9722.59
485.35	9750.67
485.53	9776.42
485.71	9825.57
485.89	10080.69
486.07	9867.70
486.25	9823.23
486.43	9963.66
486.61	9914.51
486.78	10104.09
486.96	10293.68
487.14	10403.68
487.32	10527.73
487.50	10611.99
487.68	10476.24
487.85	10635.39
488.03	10815.62
488.21	10988.82
488.39	10841.36
488.57	10974.77
488.75	11239.25
488.92	11286.06
489.10	11330.53
489.28	11304.79
489.46	11587.99
489.64	11459.26
489.81	11929.71
489.99	11698.00
490.17	11714.38
490.35	11901.62
490.53	11749.49
490.70	12105.25
490.88	11831.41
491.06	12100.57
491.24	12329.94
491.41	12128.66
491.59	12248.02
491.77	12325.26
491.95	12524.21
492.13	12444.63
492.30	12812.09
492.48	12634.21
492.66	12683.36
492.84	12807.41
493.01	12905.71
493.19	12905.71
493.37	13130.41
493.54	13099.98
493.72	13345.73
493.90	13399.57
494.08	13427.65
494.25	13568.09
494.43	13617.24
494.61	14017.47
494.79	13811.50
494.96	13577.45
495.14	13877.04
495.32	14012.79
495.49	13919.17
495.67	14244.50
495.85	14228.12
496.02	14314.72
496.20	14464.51
496.38	14408.34
496.55	14363.87
496.73	14850.70
496.91	14527.71
497.09	14663.46
497.26	14939.64
497.44	14874.10
497.62	14796.87
497.79	15194.76
497.97	14937.30
498.14	15040.28
498.32	15211.14
498.50	15407.75
498.67	15583.29
498.85	15742.44
499.03	15538.82
499.20	15433.49
499.38	15597.33
499.56	15655.84
499.73	15733.08
499.91	15894.58
500.08	16210.55
500.26	16240.98
500.44	15950.75
500.61	15955.43
500.79	16109.91
500.97	16163.74
501.14	16463.33
501.32	16479.71
501.49	16545.25
501.67	16266.72
501.84	16723.13
502.02	16463.33
502.20	16805.05
502.37	16809.73
502.55	16669.30
502.72	16762.92
502.90	16751.21
503.07	16978.25
503.25	16753.55
503.43	16966.54
503.60	17317.62
503.78	17158.47
503.95	16975.91
504.13	17149.11
504.30	17287.20
504.48	17008.67
504.65	17462.74
504.83	17678.07
505.01	17488.48
505.18	17495.50
505.36	17680.41
505.53	17743.60
505.71	17720.20
505.88	17928.50
506.06	17476.78
506.23	17743.60
506.41	18101.70
506.58	17879.35
506.76	17954.25
506.93	18164.90
507.11	17954.25
507.28	18174.26
507.46	18305.33
507.63	18071.28
507.81	18347.46
507.98	18436.40
508.16	18436.40
508.33	18492.57
508.50	18628.32
508.68	18560.45
508.85	18965.36
509.03	18733.65
509.20	18789.82
509.38	18850.67
509.55	19176.01
509.73	18977.06
509.90	19023.87
510.08	19124.52
510.25	19129.20
510.42	18986.43
510.60	19520.07
510.77	19398.36
510.95	19491.98
511.12	19166.65
511.30	19658.16
511.47	19428.79
511.64	19396.02
511.82	19660.50
511.99	19852.42
512.17	19779.87
512.34	19793.91
512.51	19494.32
512.69	20091.16
512.86	19885.19
513.04	19964.77
513.21	19969.45
513.38	20074.77
513.56	20269.04
513.73	20393.09
513.90	19995.20
514.08	20255.00
514.25	20444.58
514.43	20634.16
514.60	20542.88
514.77	20709.06
514.95	20786.30
515.12	20496.07
515.29	20404.79
515.47	21008.65
515.64	20755.87
515.81	20732.47
515.99	21027.37
516.16	21179.51
516.33	21027.37
516.51	21018.01
516.68	21120.99
516.85	21343.35
517.03	20695.02
517.20	21357.39
517.37	21223.98
517.54	21399.52
517.72	21467.39
517.89	21518.89
518.06	21294.19
518.24	21415.90
518.41	21542.29
518.58	21830.18
518.75	21678.04
518.93	21654.64
519.10	21638.25
519.27	22022.10
519.45	22022.10
519.62	21956.57
519.79	21970.61
519.96	21825.50
520.14	21958.91
520.31	22064.23
520.48	22232.75
520.65	21914.44
520.83	22251.47
521.00	22441.06
521.17	22270.20
521.34	22183.60
521.52	22319.35
521.69	22347.44
521.86	22555.74
522.03	23257.90
522.20	22429.35
522.38	22656.39
522.55	22937.25
522.72	22562.76
522.89	22618.94
523.07	22960.66
523.24	22789.80
523.41	23482.59
523.58	22618.94
523.75	22721.92
523.92	22827.24
524.10	22955.97
524.27	23087.04
524.44	22948.95
524.61	23365.57
524.78	23232.16
524.96	23201.73
525.13	23253.22
525.30	23599.62
525.47	23594.94
525.64	23594.94
525.81	23452.17
525.98	23648.77
526.16	23623.03
526.33	23667.50
526.50	23826.65
526.67	23470.89
526.84	23716.65
527.01	23660.48
527.18	23978.79
527.36	23800.91
527.53	23803.25
527.70	24261.99
527.87	24201.14
528.04	24142.63
528.21	24276.04
528.38	23936.66
528.55	24332.21
528.72	24245.61
528.89	24285.40
529.07	24304.12
529.24	24222.20
529.41	24470.30
529.58	24556.90
529.75	24617.75
529.92	24690.31
530.09	24444.56
530.26	24519.45
530.43	24631.80
530.60	24573.28
530.77	24587.33
530.94	24844.79
531.11	24566.26
531.28	24596.69
531.46	24767.55
531.63	24889.26
531.80	24973.52
531.97	25200.55
532.14	24615.41
532.31	24891.60
532.48	25113.95
532.65	25036.71
532.82	24790.95
532.99	25263.74
533.16	25348.00
533.33	25212.25
533.50	25610.14
533.67	25170.12
533.84	24992.24
534.01	25401.83
534.18	25516.52
534.35	25558.65
534.52	25399.49
534.69	25713.13
534.86	26059.52
535.03	25603.12
535.20	25975.27
535.37	25425.24
535.54	25621.84
535.71	25495.46
535.88	25652.27
536.05	25495.46
536.22	25872.28
536.38	25867.60
536.55	26169.53
536.72	26085.27
536.89	25729.51
537.06	26101.65
537.23	26068.89
537.40	25975.27
537.57	25668.66
537.74	26223.36
537.91	26394.22
538.08	26132.08
538.25	25919.09
538.42	26008.03
538.59	26665.72
538.75	26054.84
538.92	26118.04
539.09	26342.73
539.26	26249.11
539.43	26394.22
539.60	26438.69
539.77	26167.19
539.94	26749.98
540.11	26693.81
540.28	26480.82
540.44	26478.48
540.61	26801.47
540.78	26625.93
540.95	26679.77
541.12	26375.50
541.29	26904.46
541.46	26522.95
541.62	26785.09
541.79	26817.86
541.96	26733.60
542.13	26352.09
542.30	26981.70
542.47	27058.93
542.63	26890.41
542.80	27278.94
542.97	27445.12
543.14	27541.08
543.31	27339.80
543.48	27168.94
543.64	27438.10
543.81	27772.80
543.98	27901.53
544.15	27761.09
544.32	27487.25
544.48	28194.09
544.65	27145.53
544.82	27496.61
544.99	27325.75
545.16	27597.26
545.32	27604.28
545.49	27971.74
545.66	27775.14
545.83	28004.51
546.00	27950.68
546.16	27721.30
546.33	27679.18
546.50	27709.60
546.67	27882.80
546.83	27513.00
547.00	28009.19
547.17	27969.40
547.34	27910.89
547.50	28247.93
547.67	28292.40
547.84	28336.87
548.00	28498.36
548.17	28498.36
548.34	28428.15
548.51	28577.94
548.67	28423.47
548.84	28533.47
549.01	28486.66
549.18	27978.76
549.34	28290.06
549.51	28498.36
549.68	28570.92
549.84	28460.91
550.01	28514.75
550.18	28584.96
550.34	28538.15
550.51	28893.91
550.68	28704.33
550.84	28367.29
551.01	28641.14
551.18	28776.89
551.34	28205.80
551.51	28556.88
551.68	28446.87
551.84	28851.78
552.01	28727.74
552.18	29205.20
552.34	28601.35
552.51	28893.91
552.68	28610.71
552.84	28741.78
553.01	28819.02
553.18	28992.22
553.34	29064.77
553.51	28931.36
553.67	28943.06
553.84	29408.83
554.01	29392.45
554.17	29064.77
554.34	29259.04
554.51	29074.13
554.67	29174.78
554.84	29036.69
555.00	29102.22
555.17	29385.43
555.33	29142.01
555.50	29333.93
555.67	29240.31
555.83	29504.79
556.00	29142.01
556.16	29570.33
556.33	29486.07
556.50	29493.09
556.66	29797.36
556.83	29387.77
556.99	29947.15
557.16	29715.44
557.32	29855.87
557.49	29806.72
557.65	29560.97
557.82	29586.71
557.98	29455.64
558.15	29504.79
558.32	29874.60
558.48	29958.86
558.65	29888.64
558.81	29553.94
558.98	29862.90
559.14	29357.34
559.31	29851.19
559.47	29649.91
559.64	29916.73
559.80	29905.02
559.97	29841.83
560.13	30204.61
560.30	29575.01
560.46	30132.06
560.63	30008.01
560.79	29858.21
560.96	30082.91
561.12	30101.63
561.29	29809.06
561.45	29867.58
561.61	30036.09
561.78	30536.97
561.94	30288.87
562.11	30361.43
562.27	30061.84
562.44	29982.26
562.60	30429.30
562.77	29951.84
562.93	30057.16
563.10	30270.15
563.26	29902.68
563.42	30433.99
563.59	30143.76
563.75	29853.53
563.92	30604.84
564.08	30125.04
564.24	30260.79
564.41	30092.27
564.57	30118.01
564.74	30277.17
564.90	30686.76
565.07	30302.92
565.23	29963.54
565.39	30415.26
565.56	30506.54
565.72	30352.07
565.88	30209.29
566.05	30211.64
566.21	30707.83
566.38	30448.03
566.54	30438.67
566.70	30572.08
566.87	30698.47
567.03	30632.93
567.19	30993.37
567.36	30485.48
567.52	30293.55
567.68	30719.53
567.85	30595.48
568.01	30518.25
568.17	30202.27
568.34	30354.41
568.50	30775.70
568.66	30829.54
568.83	30789.75
568.99	31033.16
569.15	30602.50
569.32	30918.48
569.48	30366.11
569.64	30595.48
569.81	30422.28
569.97	30675.06
570.13	30649.32
570.30	30733.57
570.46	31147.85
570.62	30871.67
570.78	30703.15
570.95	30705.49
571.11	30597.82
571.27	30775.70
571.43	30459.73
571.60	30712.51
571.76	30637.61
571.92	30953.58
572.09	30852.94
572.25	30661.02
572.41	30911.46
572.57	30920.82
572.74	31005.08
572.90	30895.07
573.06	30993.37
573.22	31072.95
573.38	31072.95
573.55	30766.34
573.71	31262.54
573.87	31087.00
574.03	31075.29
574.20	31309.35
574.36	31087.00
574.52	30668.04
574.68	30710.17
574.84	30920.82
575.01	30979.33
575.17	30866.98
575.33	30955.93
575.49	30817.83
575.65	31140.83
575.82	30792.09
575.98	30625.91
576.14	31386.58
576.30	31105.72
576.46	31026.14
576.62	31264.88
576.79	30848.26
576.95	30651.66
577.11	30930.18
577.27	31138.49
577.43	30946.56
577.59	30848.26
577.75	31257.85
577.92	30944.22
578.08	30787.41
578.24	30796.77
578.40	30946.56
578.56	31253.17
578.72	31339.77
578.88	31522.34
579.04	31281.26
579.21	31239.13
579.37	31215.72
579.53	31431.05
579.69	31171.25
579.85	30628.25
580.01	31058.91
580.17	30829.54
580.33	31129.12
580.49	31101.04
580.65	31061.25
580.82	31740.00
580.98	31054.23
581.14	31262.54
581.30	31150.19
581.46	31033.16
581.62	31407.65
581.78	30991.03
581.94	30866.98
582.10	31047.21
582.26	31199.34
582.42	30984.01
582.58	31522.34
582.74	31288.28
582.90	30984.01
583.06	31269.56
583.22	31377.22
583.38	31030.82
583.54	31356.16
583.70	31000.40
583.86	31398.29
584.02	30792.09
584.18	31473.18
584.34	31208.70
584.50	31512.97
584.66	31569.15
584.82	30792.09
584.98	31747.03
585.14	31346.79
585.30	31431.05
585.46	31281.26
585.62	31356.16
585.78	31131.47
585.94	30824.86
586.10	31365.52
586.26	31339.77
586.42	31477.86
586.58	31267.22
586.74	31257.85
586.90	31342.11
587.06	31246.15
587.22	30764.00
587.38	31660.43
587.54	31498.93
587.70	31370.20
587.86	31541.06
588.02	31501.27
588.18	31618.30
588.34	31487.23
588.49	31679.15
588.65	31311.69
588.81	31505.95
588.97	31417.01
589.13	31445.10
589.29	31438.08
589.45	31599.57
589.61	31379.56
589.77	31517.65
589.93	31564.46
590.08	31594.89
590.24	31370.20
590.40	31321.05
590.56	32004.49
590.72	31026.14
590.88	31402.97
591.04	31189.98
591.20	31840.65
591.35	31880.44
591.51	32041.93
591.67	31749.37
591.83	32077.04
591.99	31854.69
592.15	31491.91
592.31	32144.92
592.46	31325.73
592.62	31941.29
592.78	31800.86
592.94	31831.29
593.10	31672.13
593.26	31662.77
593.41	31864.05
593.57	31704.90
593.73	31880.44
593.89	32044.27
594.05	31826.60
594.20	31704.90
594.36	31683.83
594.52	31367.86
594.68	31732.98
594.84	31508.29
594.99	32011.51
595.15	31695.53
595.31	31721.28
595.47	31983.42
595.62	31901.50
595.78	31496.59
595.94	32034.91
596.10	31866.39
596.25	31735.32
596.41	31981.08
596.57	31557.44
596.73	31548.08
596.88	31721.28
597.04	31686.17
597.20	32016.19
597.36	31962.36
597.51	31892.14
597.67	31651.06
597.83	31934.27
597.99	32128.53
598.14	31571.49
598.30	31812.56
598.46	32039.59
598.61	31747.03
598.77	31590.21
598.93	32149.60
599.09	31960.02
599.24	32531.11
599.40	32095.77
599.56	32247.90
599.71	31707.24
599.87	31983.42
600.03	31892.14
600.18	31896.82
600.34	31587.87
600.50	31716.60
600.65	31985.76
600.81	31997.46
600.97	32732.39
601.12	31960.02
601.28	31763.41
601.44	32264.28
601.59	32163.64
601.75	32072.36
601.91	32339.18
602.06	32004.49
602.22	32018.53
602.37	31978.74
602.53	31957.67
602.69	32355.57
602.84	32418.76
603.00	32060.66
603.16	32055.98
603.31	31845.33
603.47	32086.40
603.62	31917.89
603.78	31920.23
603.94	31805.54
604.09	31644.04
604.25	31847.67
604.40	31789.16
604.56	31732.98
604.71	31707.24
604.87	31913.20
605.03	32151.94
605.18	31749.37
605.34	31716.60
605.49	31868.73
605.65	31915.54
605.80	31653.40
605.96	31880.44
606.12	31997.46
606.27	31967.04
606.43	31742.35
606.58	32283.01
606.74	31999.80
606.89	32074.70
607.05	31814.90
607.20	32133.21
607.36	32084.06
607.51	31910.86
607.67	31714.26
607.82	31632.34
607.98	31765.75
608.13	31599.57
608.29	31508.29
608.44	32170.66
608.60	31894.48
608.75	32421.10
608.91	32095.77
609.06	31878.10
609.22	31880.44
609.37	31323.39
609.53	31608.93
609.68	31398.29
609.84	31833.63
609.99	31824.26
610.15	31756.39
610.30	31571.49
610.46	31454.46
610.61	31379.56
610.76	31906.18
610.92	31805.54
611.07	31482.55
611.23	31527.02
611.38	31566.81
611.54	31377.22
611.69	31372.54
611.84	31129.12
612.00	31524.68
612.15	31292.96
612.31	31931.93
612.46	31955.33
612.62	31859.37
612.77	31442.76
612.92	31835.97
613.08	31564.46
613.23	31896.82
613.39	31365.52
613.54	31058.91
613.69	31604.25
613.85	31140.83
614.00	31314.03
614.15	31524.68
614.31	31386.58
614.46	31590.21
614.62	31580.85
614.77	31587.87
614.92	31700.22
615.08	31470.84
615.23	31295.30
615.38	31475.52
615.54	30965.29
615.69	31440.42
615.84	30923.16
616.00	31194.66
616.15	31197.00
616.30	31346.79
616.46	31108.06
616.61	31187.64
616.76	31468.50
616.92	31131.47
617.07	31047.21
617.22	30883.37
617.37	30864.64
617.53	31028.48
617.68	30967.63
617.83	30888.05
617.99	30976.99
618.14	31091.68
618.29	31335.09
618.45	31601.91
618.60	31065.93
618.75	31164.23
618.90	31005.08
619.06	30944.22
619.21	30595.48
619.36	31044.87
619.51	30532.29
619.67	30794.43
619.82	30356.75
619.97	31194.66
620.12	30691.44
620.28	30080.56
620.43	30719.53
620.58	30836.56
620.73	30899.75
620.89	30635.27
621.04	31133.81
621.19	30270.15
621.34	30815.49
621.49	30342.70
621.65	30939.54
621.80	30689.10
621.95	30359.09
622.10	30595.48
622.25	30623.57
622.41	30668.04
622.56	30433.99
622.71	30946.56
622.86	30506.54
623.01	30377.81
623.16	30499.52
623.32	30382.49
623.47	30457.39
623.62	30307.60
623.77	30071.20
623.92	30017.37
624.07	30412.92
624.23	30340.36
624.38	30263.13
624.53	30490.16
624.68	30480.80
624.83	30380.15
624.98	30618.89
625.13	30256.11
625.29	30775.70
625.44	30448.03
625.59	30213.98
625.74	30562.72
625.89	30087.59
626.04	30181.21
626.19	30071.20
626.34	30043.12
626.49	29951.84
626.65	29895.66
626.80	30366.11
626.95	30022.05
627.10	29848.85
627.25	29963.54
627.40	30040.78
627.55	30270.15
627.70	29979.92
627.85	29741.19
628.00	29624.16
628.15	29874.60
628.30	30024.39
628.45	29930.77
628.60	29745.87
628.76	29582.03
628.91	29656.93
629.06	29935.45
629.21	30061.84
629.36	29862.90
629.51	29869.92
629.66	29481.39
629.81	29797.36
629.96	29759.91
630.11	29544.58
630.26	29593.73
630.41	29476.71
630.56	29443.94
630.71	29764.59
630.86	29827.79
631.01	29731.83
631.16	29820.77
631.31	29500.11
631.46	29462.66
631.61	29591.39
631.76	29448.62
631.91	29523.52
632.06	29254.36
632.21	29167.76
632.36	28987.53
632.51	29001.58
632.66	29535.22
632.81	29097.54
632.96	29355.00
633.10	29310.53
633.25	29179.46
633.40	29614.80
633.55	29483.73
633.70	29226.27
633.85	28697.31
634.00	28952.43
634.15	29097.54
634.30	29216.91
634.45	28952.43
634.60	29064.77
634.75	29469.69
634.90	28828.38
635.05	29301.17
635.19	29106.90
635.34	29525.86
635.49	29113.92
635.64	29057.75
635.79	28929.02
635.94	29139.67
636.09	29111.58
636.24	28882.21
636.39	28868.17
636.53	28842.42
636.68	28783.91
636.83	28734.76
636.98	28865.83
637.13	28954.77
637.28	28926.68
637.43	29048.39
637.57	28821.36
637.72	28694.97
637.87	29003.92
638.02	28694.97
638.17	28622.41
638.32	28671.56
638.46	28435.17
638.61	28615.39
638.76	28098.13
638.91	28535.81
639.06	28322.82
639.20	28507.72
639.35	28519.43
639.50	28400.06
639.65	28526.45
639.80	28704.33
639.94	28264.31
640.09	28491.34
640.24	28449.21
640.39	28517.09
640.54	28416.44
640.68	28217.50
640.83	28084.09
640.98	28177.71
641.13	27978.76
641.27	28336.87
641.42	28198.77
641.57	27969.40
641.72	28348.57
641.86	28591.98
642.01	28009.19
642.16	28123.88
642.31	28301.76
642.45	28308.78
642.60	27828.97
642.75	27632.36
642.90	27569.17
643.04	28048.98
643.19	28283.03
643.34	28161.33
643.48	28182.39
643.63	27936.63
643.78	27861.74
643.93	28266.65
644.07	28425.81
644.22	27990.47
644.37	27711.94
644.51	28112.17
644.66	28081.75
644.81	27978.76
644.95	27885.14
645.10	27819.61
645.25	27826.63
645.39	27957.70
645.54	27969.40
645.69	27648.75
645.83	27658.11
645.98	27864.08
646.13	27716.62
646.27	27946.00
646.42	28095.79
646.57	27803.22
646.71	27655.77
646.86	27672.15
647.00	27641.73
647.15	27646.41
647.30	27740.03
647.44	27250.86
647.59	27351.50
647.74	27995.15
647.88	27510.66
648.03	27571.51
648.17	27878.12
648.32	27702.58
648.47	27761.09
648.61	27611.30
648.76	27515.34
648.90	27566.83
649.05	27295.33
649.20	27051.91
649.34	27154.90
649.49	27054.25
649.63	27197.02
649.78	27288.31
649.92	26881.05
650.07	27489.59
650.21	27145.53
650.36	27136.17
650.51	27047.23
650.65	27431.08
650.80	27550.45
650.94	27292.99
651.09	26953.61
651.23	26801.47
651.38	27044.89
651.52	27388.95
651.67	27199.37
651.81	26979.36
651.96	26869.35
652.10	26768.71
652.25	27295.33
652.39	27049.57
652.54	27180.64
652.68	27229.79
652.83	26918.50
652.97	27285.97
653.12	26941.91
653.26	26881.05
653.41	27070.64
653.55	26712.53
653.70	26611.89
653.84	26569.76
653.99	26731.26
654.13	26693.81
654.27	26838.92
654.42	26658.70
654.56	26771.05
654.71	26665.72
654.85	26438.69
655.00	27211.07
655.14	27136.17
655.29	26700.83
655.43	27070.64
655.57	26782.75
655.72	26672.74
655.86	26658.70
656.01	26845.94
656.15	26602.53
656.30	26464.44
656.44	26621.25
656.58	26298.26
656.73	26405.92
656.87	26670.40
657.01	26462.10
657.16	26345.07
657.30	26787.43
657.45	26803.82
657.59	26429.33
657.73	25879.30
657.88	26181.23
658.02	26160.17
658.16	26246.77
658.31	26286.56
658.45	26529.97
658.60	26256.13
658.74	26169.53
658.88	26237.41
659.03	26092.29
659.17	26059.52
659.31	26113.36
659.46	26089.95
659.60	26251.45
659.74	26036.12
659.89	26019.74
660.03	25996.33
660.17	26050.16
660.32	25972.92
660.46	25619.50
660.60	25481.41
660.74	25752.91
660.89	25654.61
661.03	25825.47
661.17	25773.98
661.32	25919.09
661.46	25317.57
661.60	25675.68
661.74	25614.82
661.89	25605.46
662.03	25502.48
662.17	25830.15
662.31	25678.02
662.46	25568.01
662.60	25188.85
662.74	25455.67
662.88	25343.32
663.03	25003.94
663.17	25369.07
663.31	24884.58
663.45	24985.22
663.60	25209.91
663.74	25081.18
663.88	25069.48
664.02	25151.40
664.17	25249.70
664.31	24886.92
664.45	25039.05
664.59	25177.14
664.73	24849.47
664.88	25230.98
665.02	24793.29
665.16	24823.72
665.30	24870.53
665.44	24760.53
665.59	24442.21
665.73	24769.89
665.87	24561.58
666.01	24449.24
666.15	24641.16
666.29	24610.73
666.44	24769.89
666.58	24535.84
666.72	24503.07
666.86	24592.01
667.00	24699.67
667.14	24491.37
667.28	24381.36
667.43	24390.72
667.57	23969.43
667.71	24247.95
667.85	24226.89
667.99	24524.13
668.13	23927.30
668.27	23887.51
668.41	24414.13
668.56	23683.88
668.70	24229.23
668.84	24261.99
668.98	23730.69
669.12	23892.19
669.26	23681.54
669.40	23564.51
669.54	23948.36
669.68	24297.10
669.82	23733.03
669.96	23571.54
670.10	23388.97
670.25	23623.03
670.39	23641.75
670.53	23438.12
670.67	23262.58
670.81	23515.36
670.95	23618.35
671.09	23550.47
671.23	23503.66
671.37	23269.61
671.51	23328.12
671.65	23538.77
671.79	23199.39
671.93	23285.99
672.07	23328.12
672.21	23049.60
672.35	23035.55
672.49	22918.53
672.63	22817.88
672.77	22850.65
672.91	22710.22
673.05	22778.09
673.19	22946.61
673.33	22766.39
673.47	22448.08
673.61	22640.00
673.75	22581.49
673.89	22934.91
674.03	22892.78
674.17	22871.72
674.31	22696.17
674.45	22485.53
674.59	22307.65
674.73	22537.02
674.87	22101.68
675.01	22038.48
675.15	21986.99
675.29	22218.71
675.43	22178.92
675.56	22085.30
675.70	21867.63
675.84	22183.60
675.98	21315.26
676.12	21764.64
676.26	21834.86
676.40	21881.67
676.54	21685.06
676.68	21820.81
676.82	21448.67
676.96	21731.87
677.10	21706.13
677.23	21223.98
677.37	21120.99
677.51	21191.21
677.65	21149.08
677.79	20943.11
677.93	21069.50
678.07	20730.12
678.21	21050.78
678.34	20952.48
678.48	20908.01
678.62	20781.62
678.76	20549.90
678.90	20872.90
679.04	20760.55
679.18	20877.58
679.31	20456.28
679.45	20318.19
679.59	20142.65
679.73	20201.16
679.87	20177.76
680.00	20388.41
680.14	20100.52
680.28	20058.39
680.42	20318.19
680.56	20098.18
680.70	20231.59
680.83	20095.84
680.97	19742.42
681.11	19899.23
681.25	19651.14
681.39	19517.73
681.52	19711.99
681.66	19665.18
681.80	19494.32
681.94	19695.61
682.07	19374.95
682.21	19199.41
682.35	19358.57
682.49	19379.64
682.62	19000.47
682.76	19150.26
682.90	19358.57
683.04	19101.11
683.17	19070.68
683.31	19042.60
683.45	18773.44
683.59	18946.64
683.72	18782.80
683.86	18574.49
684.00	18647.05
684.13	18551.09
684.27	18724.29
684.41	18436.40
684.55	18375.55
684.68	17933.18
684.82	17855.95
684.96	18092.34
685.09	18164.90
685.23	18164.90
685.37	17900.42
685.50	18188.30
685.64	18141.49
685.78	17991.70
685.91	17965.95
686.05	17919.14
686.19	17584.44
686.32	18143.83
686.46	17612.53
686.60	17298.90
686.73	17530.61
686.87	17298.90
687.01	17404.22
687.14	17174.85
687.28	17027.40
687.42	16840.15
687.55	16980.59
687.69	17125.70
687.82	16819.09
687.96	17046.12
688.10	16931.44
688.23	17036.76
688.37	16538.23
688.50	16847.18
688.64	16800.37
688.78	16730.15
688.91	16582.70
689.05	16676.32
689.18	16486.73
689.32	16187.14
689.46	16325.24
689.59	16130.97
689.73	16250.34
689.86	16142.67
690.00	16194.17
690.13	16039.69
690.27	15815.00
690.41	16187.14
690.54	15971.82
690.68	16215.23
690.81	16070.12
690.95	15648.82
691.08	15758.83
691.22	15660.52
691.35	15508.39
691.49	15719.04
691.62	15634.78
691.76	15466.26
691.89	15377.32
692.03	15136.24
692.16	15225.18
692.30	15131.56
692.43	15431.15
692.57	14841.34
692.70	14967.73
692.84	15089.43
692.97	14745.38
693.11	14904.53
693.24	14782.82
693.38	14853.04
693.51	14743.03
693.65	14803.89
693.78	14473.87
693.92	14546.43
694.05	14373.23
694.19	14314.72
694.32	14576.86
694.45	14300.67
694.59	14143.86
694.72	14277.27
694.86	14078.32
694.99	13963.64
695.13	13820.86
695.26	14071.30
695.39	13961.30
695.53	13862.99
695.66	13757.67
695.80	13722.56
695.93	13858.31
696.07	13631.28
696.20	13984.70
696.33	13532.98
696.47	13556.38
696.60	13682.77
696.73	13305.95
696.87	13551.70
697.00	12861.24
697.14	13387.86
697.27	12971.25
697.40	13008.70
697.54	13069.55
697.67	13345.73
697.80	12762.94
697.94	12767.62
698.07	12741.88
698.21	12802.73
698.34	12730.17
698.47	12805.07
698.61	12865.92
698.74	13018.06
698.87	12624.85
699.01	12531.23
699.14	12545.27
699.27	12418.88
699.40	12243.34
699.54	12430.59
699.67	12262.07
699.80	12170.79
699.94	12058.44
700.07	11990.56
700.20	11861.84
700.34	11861.84
700.47	11908.65
700.60	11892.26
700.73	11800.98
700.87	11716.72
701.00	11791.62
701.13	11831.41
701.26	11758.85
701.40	11843.11
701.53	11765.87
701.66	11728.42
701.79	11623.10
701.93	11592.67
702.06	11522.46
702.19	11248.61
702.32	11386.71
702.46	11098.82
702.59	11021.58
702.72	11260.32
702.85	10939.66
702.99	10876.47
703.12	10796.89
703.25	10878.81
703.38	10909.24
703.51	10803.91
703.65	10932.64
703.78	10679.86
703.91	10637.73
704.04	10649.44
704.17	10623.69
704.31	10602.63
704.44	10649.44
704.57	10602.63
704.70	10466.88
704.83	10307.72
704.96	10279.63
705.10	10225.80
705.23	10129.84
>>>>>End Processed Spectral Data<<<<<
