SpectraSuite Data File
++++++++++++++++++++++++++++++++++++
Date: Fri Oct 18 13:58:27 GMT-05:00 2013
User: bianchi
Dark Spectrum Present: No
Reference Spectrum Present: No
Number of Sampled Component Spectra: 1
Spectrometers: USB2+H05261
Integration Time (usec): 50000 (USB2+H05261)
Spectra Averaged: 1 (USB2+H05261)
Boxcar Smoothing: 0 (USB2+H05261)
Correct for Electrical Dark: No (USB2+H05261)
Strobe/Lamp Enabled: No (USB2+H05261)
Correct for Detector Non-linearity: No (USB2+H05261)
Correct for Stray Light: No (USB2+H05261)
Number of Pixels in Processed Spectrum: 2048
>>>>>Begin Processed Spectral Data<<<<<
365.73	0.00
365.92	0.00
366.12	0.00
366.32	0.00
366.52	0.00
366.72	0.00
366.91	0.00
367.11	0.00
367.31	0.00
367.51	0.00
367.70	0.00
367.90	0.00
368.10	0.00
368.30	0.00
368.49	0.00
368.69	0.00
368.89	0.00
369.09	0.00
369.28	0.00
369.48	0.00
369.68	0.00
369.87	0.00
370.07	0.00
370.27	0.00
370.47	0.00
370.66	91.28
370.86	105.32
371.06	156.82
371.25	147.45
371.45	105.32
371.65	182.56
371.84	187.24
372.04	114.69
372.24	149.79
372.44	140.43
372.63	320.65
372.83	252.78
373.03	215.33
373.22	236.39
373.42	234.05
373.62	231.71
373.81	248.10
374.01	198.95
374.21	227.03
374.40	292.57
374.60	201.29
374.79	224.69
374.99	266.82
375.19	229.37
375.38	290.23
375.58	205.97
375.78	252.78
375.97	266.82
376.17	292.57
376.37	238.73
376.56	220.01
376.76	215.33
376.95	222.35
377.15	276.18
377.35	294.91
377.54	222.35
377.74	269.16
377.93	271.50
378.13	201.29
378.33	210.65
378.52	297.25
378.72	259.80
378.91	276.18
379.11	220.01
379.31	252.78
379.50	187.24
379.70	304.27
379.89	294.91
380.09	315.97
380.28	243.42
380.48	304.27
380.68	208.31
380.87	393.21
381.07	325.33
381.26	374.49
381.46	299.59
381.65	313.63
381.85	351.08
382.04	341.72
382.24	397.89
382.43	372.15
382.63	311.29
382.83	358.10
383.02	393.21
383.22	308.95
383.41	341.72
383.61	418.96
383.80	351.08
384.00	390.87
384.19	358.10
384.39	334.70
384.58	327.68
384.78	339.38
384.97	437.68
385.17	411.93
385.36	390.87
385.56	400.23
385.75	379.17
385.95	400.23
386.14	334.70
386.34	421.30
386.53	353.42
386.72	418.96
386.92	393.21
387.11	454.06
387.31	397.89
387.50	388.53
387.70	486.83
387.89	402.57
388.09	430.66
388.28	416.62
388.48	437.68
388.67	475.13
388.86	465.77
389.06	468.11
389.25	475.13
389.45	456.40
389.64	362.78
389.84	491.51
390.03	465.77
390.22	484.49
390.42	472.79
390.61	547.69
390.81	510.24
391.00	493.85
391.19	484.49
391.39	592.16
391.58	589.82
391.78	430.66
391.97	533.64
392.16	475.13
392.36	587.47
392.55	479.81
392.75	533.64
392.94	610.88
393.13	580.45
393.33	535.98
393.52	585.13
393.71	601.52
393.91	606.20
394.10	535.98
394.29	557.05
394.49	589.82
394.68	629.60
394.88	634.29
395.07	564.07
395.26	603.86
395.46	634.29
395.65	571.09
395.84	690.46
396.04	697.48
396.23	547.69
396.42	627.26
396.62	678.76
396.81	631.94
397.00	589.82
397.19	594.50
397.39	627.26
397.58	638.97
397.77	734.93
397.97	650.67
398.16	664.71
398.35	755.99
398.55	695.14
398.74	702.16
398.93	732.59
399.12	732.59
399.32	709.18
399.51	828.55
399.70	690.46
399.90	734.93
400.09	699.82
400.28	781.74
400.47	784.08
400.67	737.27
400.86	699.82
401.05	772.38
401.24	821.53
401.44	798.12
401.63	826.21
401.82	758.33
402.01	725.57
402.21	819.19
402.40	854.30
402.59	800.46
402.78	858.98
402.97	812.17
403.17	847.27
403.36	894.08
403.55	894.08
403.74	957.28
403.93	898.77
404.13	889.40
404.32	915.15
404.51	917.49
404.70	919.83
404.89	908.13
405.09	990.05
405.28	908.13
405.47	887.06
405.66	950.26
405.85	973.66
406.05	959.62
406.24	1011.11
406.43	966.64
406.62	1046.22
406.81	1083.67
407.00	1088.35
407.20	1041.54
407.39	931.53
407.58	1074.31
407.77	1095.37
407.96	1078.99
408.15	1071.97
408.34	1027.50
408.54	1048.56
408.73	1015.79
408.92	1116.44
409.11	1100.05
409.30	1083.67
409.49	1151.54
409.68	1188.99
409.87	1090.69
410.07	1142.18
410.26	1071.97
410.45	1193.67
410.64	1160.91
410.83	1205.38
411.02	1167.93
411.21	1235.80
411.40	1107.07
411.59	1259.21
411.78	1306.02
411.98	1254.53
412.17	1238.14
412.36	1313.04
412.55	1343.47
412.74	1416.02
412.93	1397.30
413.12	1310.70
413.31	1397.30
413.50	1233.46
413.69	1366.87
413.88	1516.67
414.07	1439.43
414.26	1376.24
414.45	1376.24
414.64	1453.47
414.83	1425.39
415.02	1490.92
415.22	1530.71
415.41	1507.30
415.60	1488.58
415.79	1490.92
415.98	1617.31
416.17	1511.99
416.36	1556.46
416.55	1542.41
416.74	1596.25
416.93	1624.33
417.12	1729.66
417.31	1629.01
417.50	1673.48
417.69	1699.23
417.88	1774.13
418.07	1577.52
418.26	1713.27
418.45	1806.89
418.64	1790.51
418.83	1788.17
419.02	1767.10
419.21	1755.40
419.39	1837.32
419.58	1722.63
419.77	1783.49
419.96	1767.10
420.15	1867.75
420.34	1834.98
420.53	1959.03
420.72	1877.11
420.91	1839.66
421.10	1954.35
421.29	1928.60
421.48	1865.41
421.67	1923.92
421.86	1832.64
422.05	1888.81
422.24	1984.77
422.43	1959.03
422.61	1858.39
422.80	2031.58
422.99	2008.18
423.18	1975.41
423.37	2078.40
423.56	2076.06
423.75	2038.61
423.94	1905.20
424.13	1877.11
424.32	1923.92
424.50	2010.52
424.69	1935.62
424.88	2083.08
425.07	1966.05
425.26	1996.48
425.45	2066.69
425.64	1937.96
425.83	2022.22
426.01	2139.25
426.20	2069.03
426.39	2029.24
426.58	1975.41
426.77	2050.31
426.96	2085.42
427.15	2118.18
427.33	2148.61
427.52	2104.14
427.71	2073.71
427.90	2143.93
428.09	2200.10
428.28	2174.36
428.46	2150.95
428.65	2228.19
428.84	2209.47
429.03	2188.40
429.22	2111.16
429.40	2242.23
429.59	2200.10
429.78	2165.00
429.97	2080.74
430.16	2188.40
430.34	2312.45
430.53	2352.24
430.72	2193.08
430.91	2232.87
431.10	2303.09
431.28	2324.15
431.47	2286.70
431.66	2403.73
431.85	2333.51
432.03	2342.88
432.22	2356.92
432.41	2410.75
432.60	2466.92
432.79	2312.45
432.97	2466.92
433.16	2422.45
433.35	2406.07
433.54	2466.92
433.72	2497.35
433.91	2516.08
434.10	2565.23
434.28	2380.32
434.47	2530.12
434.66	2518.42
434.85	2502.03
435.03	2593.31
435.22	2506.71
435.41	2656.51
435.59	2616.72
435.78	2583.95
435.97	2497.35
436.16	2626.08
436.34	2548.84
436.53	2705.66
436.72	2705.66
436.90	2581.61
437.09	2757.15
437.28	2609.70
437.46	2700.98
437.65	2691.62
437.84	2815.66
438.02	2640.12
438.21	2839.07
438.40	2743.11
438.58	2773.53
438.77	2911.63
438.96	2663.53
439.14	2892.90
439.33	2888.22
439.52	2977.16
439.70	3056.74
439.89	2984.18
440.08	2995.89
440.26	2970.14
440.45	2925.67
440.63	3108.23
440.82	3105.89
441.01	3171.43
441.19	2972.48
441.38	3213.56
441.57	3218.24
441.75	3269.73
441.94	3042.70
442.12	3293.13
442.31	3311.86
442.50	3241.64
442.68	3283.77
442.87	3316.54
443.05	3377.39
443.24	3403.14
443.43	3323.56
443.61	3332.92
443.80	3400.80
443.98	3332.92
444.17	3201.85
444.35	3447.61
444.54	3344.63
444.73	3424.20
444.91	3583.36
445.10	3489.74
445.28	3361.01
445.47	3283.77
445.65	3337.60
445.84	3482.72
446.02	3524.85
446.21	3356.33
446.39	3452.29
446.58	3536.55
446.77	3503.78
446.95	3543.57
447.14	3485.06
447.32	3623.15
447.51	3393.78
447.69	3428.88
447.88	3426.54
448.06	3468.67
448.25	3534.21
448.43	3585.70
448.62	3529.53
448.80	3417.18
448.99	3555.27
449.17	3473.36
449.36	3459.31
449.54	3655.92
449.73	3510.80
449.91	3669.96
450.10	3595.06
450.28	3569.32
450.46	3765.92
450.65	3737.84
450.83	3768.26
451.02	3784.65
451.20	3737.84
451.39	3794.01
451.57	3803.37
451.76	3630.17
451.94	3836.14
452.13	3995.29
452.31	3889.97
452.49	3838.48
452.68	3896.99
452.86	3747.20
453.05	4014.02
453.23	3943.80
453.42	3864.22
453.60	3838.48
453.78	3829.12
453.97	3857.20
454.15	3845.50
454.34	3840.82
454.52	3922.74
454.70	3899.33
454.89	4032.74
455.07	4002.32
455.26	4070.19
455.44	4133.39
455.62	3990.61
455.81	3964.87
455.99	4091.26
456.17	4105.30
456.36	3997.64
456.54	4208.28
456.73	4194.24
456.91	4360.42
457.09	4271.48
457.28	4184.88
457.46	4177.86
457.64	4217.65
457.83	4236.37
458.01	4170.83
458.19	4554.68
458.38	4280.84
458.56	4259.78
458.74	4386.16
458.93	4407.23
459.11	4454.04
459.29	4458.72
459.48	4472.76
459.66	4407.23
459.84	4395.53
460.03	4571.07
460.21	4542.98
460.39	4479.79
460.57	4493.83
460.76	4479.79
460.94	4702.14
461.12	4524.26
461.31	4674.05
461.49	4578.09
461.67	4493.83
461.85	4634.26
462.04	4580.43
462.22	4814.48
462.40	4795.76
462.59	4667.03
462.77	4877.68
462.95	4802.78
463.13	4800.44
463.32	4660.01
463.50	4889.38
463.68	4929.17
463.86	4765.33
464.05	4849.59
464.23	4779.37
464.41	5055.56
464.59	4667.03
464.78	4947.89
464.96	4945.55
465.14	4807.46
465.32	4952.57
465.50	4947.89
465.69	5006.41
465.87	5062.58
466.05	4896.40
466.23	4961.94
466.41	4896.40
466.60	5034.49
466.78	5043.85
466.96	4910.44
467.14	5011.09
467.32	4954.91
467.51	5172.58
467.69	4891.72
467.87	5011.09
468.05	5055.56
468.23	5069.60
468.41	5107.05
468.60	5146.84
468.78	5111.73
468.96	5088.32
469.14	5235.78
469.32	5369.19
469.50	4922.15
469.69	5341.10
469.87	5259.18
470.05	5252.16
470.23	5432.38
470.41	5247.48
470.59	5348.12
470.77	5231.10
470.95	5341.10
471.14	5621.97
471.32	5493.24
471.50	5760.06
471.68	5706.23
471.86	5551.75
472.04	5685.16
472.22	5687.50
472.40	5628.99
472.58	5713.25
472.77	5708.57
472.95	5792.83
473.13	5874.74
473.31	5830.27
473.49	5755.38
473.67	5753.04
473.85	5858.36
474.03	5851.34
474.21	5909.85
474.39	5984.75
474.57	5923.90
474.75	6230.51
474.93	6061.99
475.12	6141.57
475.30	6157.95
475.48	6113.48
475.66	6218.80
475.84	6202.42
476.02	6361.58
476.20	6235.19
476.38	6361.58
476.56	6415.41
476.74	6389.66
476.92	6534.78
477.10	6518.39
477.28	6614.35
477.46	6621.38
477.64	6747.76
477.82	6775.85
478.00	6935.01
478.18	6981.82
478.36	6827.34
478.54	7070.76
478.72	6944.37
478.90	7082.46
479.08	7091.82
479.26	7070.76
479.44	7227.57
479.62	7405.46
479.80	7269.70
479.98	7412.48
480.16	7527.16
480.34	7517.80
480.52	7531.84
480.70	7480.35
480.88	7524.82
481.06	7644.19
481.24	7632.49
481.41	7709.72
481.59	7667.60
481.77	7899.31
481.95	8065.49
482.13	8072.51
482.31	8065.49
482.49	8290.18
482.67	8145.06
482.85	8468.06
483.03	8435.29
483.21	8351.03
483.39	8477.42
483.57	8463.38
483.74	8395.50
483.92	8592.11
484.10	8634.24
484.28	8809.78
484.46	8975.95
484.64	8954.89
484.82	8802.75
485.00	8903.40
485.18	9083.62
485.35	9341.08
485.53	9282.56
485.71	9327.03
485.89	9558.75
486.07	9376.19
486.25	9441.72
486.43	9549.39
486.61	9879.40
486.78	9809.19
486.96	9799.82
487.14	9909.83
487.32	10052.60
487.50	10347.51
487.68	10155.58
487.85	10092.39
488.03	10361.55
488.21	10429.43
488.39	10457.51
488.57	10527.73
488.75	10586.24
488.92	10871.79
489.10	10977.11
489.28	10565.18
489.46	11009.88
489.64	11042.65
489.81	11239.25
489.99	11077.76
490.17	11204.14
490.35	11522.46
490.53	11375.00
490.70	11630.12
490.88	11375.00
491.06	11658.21
491.24	11674.59
491.41	11688.64
491.59	11587.99
491.77	11686.29
491.95	11932.05
492.13	12161.42
492.30	12168.45
492.48	12051.42
492.66	12109.93
492.84	12126.32
493.01	12465.69
493.19	12526.55
493.37	12645.91
493.54	12730.17
493.72	12662.30
493.90	12655.28
494.08	12643.57
494.25	13022.74
494.43	12809.75
494.61	13249.77
494.79	13055.51
494.96	12943.16
495.14	13376.16
495.32	13343.39
495.49	13556.38
495.67	13465.10
495.85	13699.16
496.02	13909.80
496.20	13441.70
496.38	13750.65
496.55	13865.33
496.73	14050.24
496.91	14038.53
497.09	14127.47
497.26	14218.75
497.44	14101.73
497.62	14160.24
497.79	14511.32
497.97	14375.57
498.14	14738.35
498.32	14640.05
498.50	14808.57
498.67	14899.85
498.85	14682.18
499.03	14895.17
499.20	14920.92
499.38	15007.52
499.56	14937.30
499.73	15005.17
499.91	15061.35
500.08	15091.77
500.26	15164.33
500.44	15304.76
500.61	15035.60
500.79	15330.51
500.97	15529.45
501.14	15941.39
501.32	15693.29
501.49	15697.97
501.67	15822.02
501.84	15662.86
502.02	15807.98
502.20	16102.89
502.37	15953.09
502.55	15805.64
502.72	16315.87
502.90	16027.99
503.07	15873.51
503.25	15749.46
503.43	16044.37
503.60	16554.61
503.78	16542.91
503.95	16671.64
504.13	16093.52
504.30	16248.00
504.48	16304.17
504.65	16704.40
504.83	16837.81
505.01	16592.06
505.18	16987.61
505.36	16975.91
505.53	16835.47
505.71	16980.59
505.88	16830.79
506.06	16826.11
506.23	17060.16
506.41	17125.70
506.58	17425.29
506.76	17458.06
506.93	17228.68
507.11	17277.83
507.28	17315.28
507.46	17474.44
507.63	17579.76
507.81	17439.33
507.98	17364.43
508.16	17633.60
508.33	17813.82
508.50	17968.29
508.68	17575.08
508.85	17921.48
509.03	18029.15
509.20	17846.58
509.38	18197.67
509.55	18277.24
509.73	17933.18
509.90	17961.27
510.08	18225.75
510.25	18279.58
510.42	18518.32
510.60	18663.43
510.77	18724.29
510.95	18656.41
511.12	18658.75
511.30	18310.01
511.47	18448.10
511.64	18558.11
511.82	18927.91
511.99	18902.17
512.17	18892.80
512.34	18979.40
512.51	18920.89
512.69	19075.37
512.86	19033.24
513.04	19281.33
513.21	19215.80
513.38	19321.12
513.56	19428.79
513.73	19293.04
513.90	19264.95
514.08	19007.49
514.25	19433.47
514.43	19456.87
514.60	19555.18
514.77	19674.54
514.95	19541.13
515.12	19665.18
515.29	19613.69
515.47	19864.13
515.64	19508.37
515.81	19637.09
515.99	20084.14
516.16	19948.39
516.33	20053.71
516.51	20208.19
516.68	19829.02
516.85	19974.13
517.03	20147.33
517.20	20390.75
517.37	20240.95
517.54	20496.07
517.72	20116.90
517.89	20489.05
518.06	20524.16
518.24	20638.84
518.41	20659.91
518.58	20648.21
518.75	20662.25
518.93	20840.13
519.10	20620.12
519.27	20786.30
519.45	20882.26
519.62	20692.68
519.79	20837.79
519.96	20903.32
520.14	21106.95
520.31	20723.10
520.48	21125.68
520.65	20922.05
520.83	21158.44
521.00	21113.97
521.17	20781.62
521.34	21284.83
521.52	21455.69
521.69	21158.44
521.86	21572.72
522.03	21701.45
522.20	21465.05
522.38	21806.77
522.55	21507.18
522.72	21888.69
522.89	21738.90
523.07	21797.41
523.24	21937.84
523.41	21818.47
523.58	21977.63
523.75	21972.95
523.92	22104.02
524.10	21823.16
524.27	22120.40
524.44	22260.84
524.61	22625.96
524.78	22031.46
524.96	22178.92
525.13	22492.55
525.30	22513.61
525.47	22235.09
525.64	22326.37
525.81	22773.41
525.98	22560.42
526.16	22607.23
526.33	22574.47
526.50	22906.82
526.67	22565.10
526.84	22572.13
527.01	22532.34
527.18	22654.05
527.36	22958.31
527.53	22691.49
527.70	22852.99
527.87	22742.99
528.04	22988.74
528.21	22834.27
528.38	23054.28
528.55	23384.29
528.72	23065.98
528.89	23339.82
529.07	23096.41
529.24	23520.04
529.41	23381.95
529.58	23339.82
529.75	23145.56
529.92	23110.45
530.09	23030.87
530.26	23236.84
530.43	23370.25
530.60	23293.01
530.77	23491.96
530.94	23316.42
531.11	23456.85
531.28	23428.76
531.46	23606.64
531.63	23634.73
531.80	23857.08
531.97	23931.98
532.14	23728.35
532.31	23648.77
532.48	23885.17
532.65	24020.92
532.82	23730.69
532.99	23744.73
533.16	23887.51
533.33	23885.17
533.50	24390.72
533.67	24004.53
533.84	24177.73
534.01	24121.56
534.18	23711.97
534.35	24421.15
534.52	24304.12
534.69	24409.45
534.86	24538.18
535.03	24095.82
535.20	24292.42
535.37	24566.26
535.54	24496.05
535.71	24482.00
535.88	24292.42
536.05	24472.64
536.22	24482.00
536.38	24987.56
536.55	24807.34
536.72	24606.05
536.89	24500.73
537.06	24423.49
537.23	24669.25
537.40	24741.80
537.57	24891.60
537.74	25097.56
537.91	25071.82
538.08	24975.86
538.25	24662.22
538.42	25247.36
538.59	24861.17
538.75	24840.11
538.92	25120.97
539.09	25223.95
539.26	25113.95
539.43	25142.03
539.60	25275.45
539.77	25046.07
539.94	25191.19
540.11	25296.51
540.28	25195.87
540.44	25163.10
540.61	25238.00
540.78	25186.50
540.95	25481.41
541.12	25343.32
541.29	25149.06
541.46	25429.92
541.62	25350.34
541.79	25724.83
541.96	25319.92
542.13	25626.53
542.30	25610.14
542.47	25809.09
542.63	25797.38
542.80	26012.71
542.97	25993.99
543.14	25851.22
543.31	25902.71
543.48	25762.28
543.64	26181.23
543.81	26221.02
543.98	26305.28
544.15	26363.79
544.32	26230.38
544.48	26316.98
544.65	26497.20
544.82	26103.99
544.99	26087.61
545.16	26214.00
545.32	26181.23
545.49	26445.71
545.66	26752.32
545.83	26387.20
546.00	26852.97
546.16	26522.95
546.33	26494.86
546.50	26302.94
546.67	26714.87
546.83	26202.30
547.00	26782.75
547.17	26375.50
547.34	26462.10
547.50	26742.96
547.67	26834.24
547.84	26616.57
548.00	26984.04
548.17	26829.56
548.34	26705.51
548.51	26913.82
548.67	27342.14
548.84	27033.19
549.01	27080.00
549.18	27035.53
549.34	27211.07
549.51	26766.37
549.68	26642.32
549.84	26600.19
550.01	27185.32
550.18	26962.97
550.34	27302.35
550.51	27185.32
550.68	27185.32
550.84	26904.46
551.01	27061.27
551.18	27117.45
551.34	26918.50
551.51	26972.33
551.68	27587.89
551.84	27454.48
552.01	27283.62
552.18	27337.46
552.34	27332.78
552.51	27541.08
552.68	27510.66
552.84	27623.00
553.01	27367.88
553.18	27700.24
553.34	27662.79
553.51	27449.80
553.67	27885.14
553.84	27658.11
554.01	27777.48
554.17	27866.42
554.34	27770.46
554.51	27634.71
554.67	27641.73
554.84	27969.40
555.00	27740.03
555.17	27915.57
555.33	27756.41
555.50	28091.11
555.67	27686.20
555.83	27805.56
556.00	28147.28
556.16	28161.33
556.33	27922.59
556.50	27779.82
556.66	28025.57
556.83	27819.61
556.99	28133.24
557.16	28472.62
557.32	28613.05
557.49	28224.52
557.65	27889.82
557.82	27885.14
557.98	28065.36
558.15	28236.22
558.32	28491.34
558.48	28135.58
558.65	28521.77
558.81	28311.12
558.98	28397.72
559.14	28250.27
559.31	28217.50
559.47	28261.97
559.64	28493.68
559.80	28044.30
559.97	28783.91
560.13	28367.29
560.30	28266.65
560.46	28549.85
560.63	28739.44
560.79	28472.62
560.96	28327.50
561.12	28322.82
561.29	28423.47
561.45	28341.55
561.61	28498.36
561.78	28444.53
561.94	28561.56
562.11	28659.86
562.27	28617.73
562.44	28697.31
562.60	28587.30
562.77	28711.35
562.93	28442.19
563.10	29057.75
563.26	28521.77
563.42	28968.81
563.59	28882.21
563.75	28788.59
563.92	28561.56
564.08	28730.08
564.24	28875.19
564.41	28489.00
564.57	28437.51
564.74	28542.83
564.90	28975.83
565.07	28975.83
565.23	29024.98
565.39	29142.01
565.56	28936.04
565.72	28975.83
565.88	28322.82
566.05	28811.99
566.21	28673.90
566.38	28811.99
566.54	29062.43
566.70	28950.09
566.87	28954.77
567.03	29277.76
567.19	29001.58
567.36	29301.17
567.52	28786.25
567.68	29015.62
567.85	29450.96
568.01	29078.82
568.17	28870.51
568.34	28835.40
568.50	29221.59
568.66	29055.41
568.83	29385.43
568.99	29062.43
569.15	29198.18
569.32	29074.13
569.48	28720.71
569.64	29317.55
569.81	28760.50
569.97	28898.59
570.13	29432.24
570.30	28678.58
570.46	29289.46
570.62	29317.55
570.78	28922.00
570.95	28788.59
571.11	29214.57
571.27	28840.08
571.43	28744.12
571.60	29387.77
571.76	29132.65
571.92	29268.40
572.09	29008.60
572.25	29230.95
572.41	29219.25
572.57	29104.56
572.74	29352.66
572.90	28978.17
573.06	28924.34
573.22	29228.61
573.38	29427.56
573.55	29408.83
573.71	29551.60
573.87	29607.78
574.03	29443.94
574.20	29642.88
574.36	29420.53
574.52	29329.25
574.68	29153.71
574.84	29106.90
575.01	29116.26
575.17	29509.47
575.33	29259.04
575.49	29083.50
575.65	29479.05
575.82	29455.64
575.98	29118.60
576.14	29170.10
576.30	29752.89
576.46	28975.83
576.62	29469.69
576.79	29118.60
576.95	29179.46
577.11	29701.40
577.27	29006.26
577.43	29596.07
577.59	29399.47
577.75	29462.66
577.92	28781.57
578.08	29425.22
578.24	29062.43
578.40	29504.79
578.56	29366.70
578.72	29282.44
578.88	29661.61
579.04	29799.70
579.21	29649.91
579.37	29750.55
579.53	29364.36
579.69	29310.53
579.85	29076.48
580.01	29392.45
580.17	29024.98
580.33	29324.57
580.49	29188.82
580.65	29565.65
580.82	29507.13
580.98	29628.84
581.14	29687.36
581.30	29553.94
581.46	29352.66
581.62	29486.07
581.78	29598.41
581.94	29603.10
582.10	29235.63
582.26	29575.01
582.42	29577.35
582.58	29769.27
582.74	29383.09
582.90	29565.65
583.06	29699.06
583.22	29205.20
583.38	29572.67
583.54	29577.35
583.70	29820.77
583.86	29649.91
584.02	29535.22
584.18	29635.86
584.34	29521.18
584.50	29752.89
584.66	29607.78
584.82	29509.47
584.98	29745.87
585.14	29369.04
585.30	29514.16
585.46	29961.20
585.62	29497.77
585.78	29324.57
585.94	29252.02
586.10	29518.84
586.26	29783.32
586.42	29738.85
586.58	29780.98
586.74	29137.33
586.90	29284.78
587.06	29757.57
587.22	29165.42
587.38	29404.15
587.54	29905.02
587.70	30005.67
587.86	29713.10
588.02	29710.76
588.18	30033.75
588.34	30005.67
588.49	29902.68
588.65	29362.02
588.81	29549.26
588.97	29685.01
589.13	29659.27
589.29	29301.17
589.45	29413.51
589.61	29923.75
589.77	30146.10
589.93	29993.97
590.08	29898.00
590.24	30412.92
590.40	30183.55
590.56	29898.00
590.72	29862.90
590.88	29441.60
591.04	29617.14
591.20	29961.20
591.35	30195.25
591.51	30155.46
591.67	30078.22
591.83	30174.19
591.99	30237.38
592.15	30230.36
592.31	30029.07
592.46	29614.80
592.62	30031.41
592.78	30096.95
592.94	29827.79
593.10	30197.59
593.26	30061.84
593.41	30436.33
593.57	29977.58
593.73	29783.32
593.89	30064.18
594.05	30019.71
594.20	30040.78
594.36	29872.26
594.52	29855.87
594.68	30059.50
594.84	29876.94
594.99	30345.05
595.15	30075.88
595.31	30143.76
595.47	29858.21
595.62	30515.90
595.78	29947.15
595.94	30249.08
596.10	30087.59
596.25	30089.93
596.41	29692.04
596.57	29907.37
596.73	30113.33
596.88	29905.02
597.04	30260.79
597.20	30431.65
597.36	30022.05
597.51	30691.44
597.67	29888.64
597.83	30033.75
597.99	30389.52
598.14	29935.45
598.30	30125.04
598.46	30029.07
598.61	30333.34
598.77	29890.98
598.93	30211.64
599.09	30129.72
599.24	30637.61
599.40	30352.07
599.56	30380.15
599.71	30656.34
599.87	30096.95
600.03	30061.84
600.18	30127.38
600.34	30204.61
600.50	30068.86
600.65	30239.72
600.81	30333.34
600.97	30071.20
601.12	30249.08
601.28	30672.72
601.44	30480.80
601.59	30082.91
601.75	30096.95
601.91	30558.03
602.06	30033.75
602.22	30225.68
602.37	30513.56
602.53	29743.53
602.69	30536.97
602.84	30651.66
603.00	30199.93
603.16	30515.90
603.31	30061.84
603.47	30043.12
603.62	30441.01
603.78	30188.23
603.94	30143.76
604.09	30459.73
604.25	30380.15
604.40	30258.45
604.56	30012.69
604.71	30363.77
604.87	30466.75
605.03	30235.04
605.18	30225.68
605.34	30307.60
605.49	29970.56
605.65	30223.34
605.80	29879.28
605.96	30265.47
606.12	30178.87
606.27	30047.80
606.43	30366.11
606.58	30272.49
606.74	30139.08
606.89	30127.38
607.05	30092.27
607.20	30415.26
607.36	29916.73
607.51	30122.69
607.67	29982.26
607.82	29862.90
607.98	29572.67
608.13	29944.81
608.29	29422.87
608.44	30005.67
608.60	29649.91
608.75	30118.01
608.91	29743.53
609.06	29788.00
609.22	29972.90
609.37	30015.03
609.53	29827.79
609.68	29830.13
609.84	29565.65
609.99	29902.68
610.15	29759.91
610.30	29865.24
610.46	29837.15
610.61	29809.06
610.76	29902.68
610.92	29883.96
611.07	29888.64
611.23	29640.54
611.38	30045.46
611.54	29586.71
611.69	30029.07
611.84	29406.49
612.00	29345.64
612.15	29628.84
612.31	29923.75
612.46	29748.21
612.62	29778.64
612.77	29907.37
612.92	29989.28
613.08	29689.70
613.23	29790.34
613.39	29855.87
613.54	29553.94
613.69	29851.19
613.85	29324.57
614.00	29773.95
614.15	29909.71
614.31	29582.03
614.46	29429.90
614.62	29546.92
614.77	29818.42
614.92	29872.26
615.08	29710.76
615.23	29773.95
615.38	29291.80
615.54	29275.42
615.69	29345.64
615.84	29198.18
616.00	29495.43
616.15	29188.82
616.30	29731.83
616.46	29434.58
616.61	29443.94
616.76	29474.37
616.92	29338.62
617.07	29694.38
617.22	29235.63
617.37	29406.49
617.53	29216.91
617.68	29312.87
617.83	29046.05
617.99	29060.09
618.14	29401.81
618.29	29605.44
618.45	29453.30
618.60	29041.37
618.75	29263.72
618.90	29118.60
619.06	28971.15
619.21	28936.04
619.36	29200.52
619.51	28994.56
619.67	28772.21
619.82	28886.89
619.97	29142.01
620.12	29102.22
620.28	28971.15
620.43	29006.26
620.58	29172.44
620.73	29170.10
620.89	28959.45
621.04	29249.67
621.19	28889.23
621.34	28662.20
621.49	28786.25
621.65	28687.95
621.80	29200.52
621.95	28545.17
622.10	28652.84
622.25	28835.40
622.41	28917.32
622.56	29062.43
622.71	29020.30
622.86	29036.69
623.01	28685.61
623.16	28933.70
623.32	28374.31
623.47	28470.28
623.62	28575.60
623.77	28336.87
623.92	29003.92
624.07	28697.31
624.23	28622.41
624.38	28584.96
624.53	28451.55
624.68	28458.57
624.83	28634.11
624.98	28596.67
625.13	28271.33
625.29	28854.12
625.44	28278.35
625.59	28870.51
625.74	28423.47
625.89	28128.56
626.04	28041.96
626.19	28489.00
626.34	28226.86
626.49	28379.00
626.65	28268.99
626.80	28402.40
626.95	28070.04
627.10	28313.46
627.25	28229.20
627.40	28198.77
627.55	28002.17
627.70	28245.58
627.85	27828.97
628.00	28173.03
628.15	28004.51
628.30	28182.39
628.45	27885.14
628.60	27957.70
628.76	28217.50
628.91	28095.79
629.06	27763.43
629.21	27845.35
629.36	28063.02
629.51	27798.54
629.66	28243.24
629.81	27435.76
629.96	27761.09
630.11	27704.92
630.26	27608.96
630.41	27641.73
630.56	27632.36
630.71	27754.07
630.86	27927.27
631.01	27702.58
631.16	28093.45
631.31	27597.26
631.46	27487.25
631.61	27424.06
631.76	27894.50
631.91	27974.08
632.06	27838.33
632.21	27522.36
632.36	27438.10
632.51	27407.67
632.66	27716.62
632.81	27541.08
632.96	27498.95
633.10	27461.51
633.25	27704.92
633.40	27772.80
633.55	27749.39
633.70	27410.01
633.85	27178.30
634.00	27115.11
634.15	26888.07
634.30	27515.34
634.45	27332.78
634.60	27325.75
634.75	27089.36
634.90	27246.18
635.05	27456.82
635.19	27594.92
635.34	27321.07
635.49	27613.64
635.64	27283.62
635.79	27250.86
635.94	27335.12
636.09	27192.34
636.24	27096.38
636.39	27367.88
636.53	27218.09
636.68	27204.05
636.83	27192.34
636.98	27112.77
637.13	26623.59
637.28	27283.62
637.43	27302.35
637.57	27290.65
637.72	27094.04
637.87	27030.85
638.02	26625.93
638.17	27140.85
638.32	26969.99
638.46	27061.27
638.61	27133.83
638.76	26848.29
638.91	26710.19
639.06	26618.91
639.20	26988.72
639.35	26885.73
639.50	26920.84
639.65	26721.90
639.80	27087.02
639.94	27068.30
640.09	26965.31
640.24	27012.12
640.39	26845.94
640.54	26728.92
640.68	26953.61
640.83	26902.12
640.98	26515.93
641.13	25993.99
641.27	26717.22
641.42	26665.72
641.57	26857.65
641.72	26387.20
641.86	26466.78
642.01	26380.18
642.16	26291.24
642.31	26373.16
642.45	26448.05
642.60	26195.28
642.75	25956.54
642.90	26134.42
643.04	26455.08
643.19	26459.76
643.34	26478.48
643.48	26464.44
643.63	26209.32
643.78	26389.54
643.93	26295.92
644.07	26272.51
644.22	26485.50
644.37	26221.02
644.51	26267.83
644.66	26092.29
644.81	25975.27
644.95	25949.52
645.10	26176.55
645.25	25724.83
645.39	26043.14
645.54	26242.09
645.69	26017.40
645.83	26094.63
645.98	25694.40
646.13	26050.16
646.27	26164.85
646.42	26192.94
646.57	26401.24
646.71	26136.76
646.86	25699.08
647.00	25776.32
647.15	25879.30
647.30	25682.70
647.44	25500.14
647.59	25649.93
647.74	25591.42
647.88	26066.55
648.03	26057.18
648.17	25916.75
648.32	25858.24
648.47	25727.17
648.61	25792.70
648.76	25907.39
648.90	25790.36
649.05	25848.88
649.20	25696.74
649.34	25921.43
649.49	25717.81
649.63	25645.25
649.78	25633.55
649.92	25497.80
650.07	25846.54
650.21	25390.13
650.36	25638.23
650.51	25427.58
650.65	25696.74
650.80	25640.57
650.94	25411.20
651.09	25340.98
651.23	25399.49
651.38	25458.01
651.52	25558.65
651.67	25188.85
651.81	25198.21
651.96	25460.35
652.10	25563.33
652.25	25532.90
652.39	25685.04
652.54	25352.68
652.68	25294.17
652.83	25364.39
652.97	25493.12
653.12	25380.77
653.26	25296.51
653.41	25252.04
653.55	25032.03
653.70	25076.50
653.84	25127.99
653.99	25247.36
654.13	25043.73
654.27	25216.93
654.42	24952.45
654.56	25179.48
654.71	25289.49
654.85	25191.19
655.00	25238.00
655.14	24999.26
655.29	25104.59
655.43	25294.17
655.57	25317.57
655.72	25219.27
655.86	25219.27
656.01	24512.43
656.15	25167.78
656.30	24971.18
656.44	24851.81
656.58	24886.92
656.73	24933.73
656.87	24751.17
657.01	25216.93
657.16	24985.22
657.30	25125.65
657.45	24650.52
657.59	24800.32
657.73	24652.86
657.88	24999.26
658.02	24589.67
658.16	24896.28
658.31	24521.79
658.45	24453.92
658.60	24357.96
658.74	24482.00
658.88	24479.66
659.03	24297.10
659.17	24226.89
659.31	24528.81
659.46	24854.15
659.60	24730.10
659.74	24510.09
659.89	24538.18
660.03	24313.48
660.17	24357.96
660.32	24243.27
660.46	24011.56
660.60	23946.02
660.74	24226.89
660.89	23964.75
661.03	24233.91
661.17	24294.76
661.32	23779.84
661.46	24081.77
661.60	24304.12
661.74	23899.21
661.89	24498.39
662.03	24278.38
662.17	23756.44
662.31	23683.88
662.46	23960.06
662.60	23934.32
662.74	23480.25
662.88	23674.52
663.03	23468.55
663.17	23349.18
663.31	23410.04
663.45	23300.03
663.60	23349.18
663.74	23276.63
663.88	23807.93
664.02	23513.02
664.17	23934.32
664.31	23658.14
664.45	23697.92
664.59	23381.95
664.73	23695.58
664.88	23318.76
665.02	23133.86
665.16	23262.58
665.30	23274.29
665.44	23695.58
665.59	22981.72
665.73	23112.79
665.87	22684.47
666.01	23047.26
666.15	23293.01
666.29	23391.31
666.44	23005.13
666.58	22888.10
666.72	22803.84
666.86	22602.55
667.00	23384.29
667.14	22986.40
667.28	22988.74
667.43	22464.46
667.57	22663.41
667.71	22635.32
667.85	22717.24
667.99	22562.76
668.13	22572.13
668.27	22553.40
668.41	22621.28
668.56	22438.72
668.70	22382.54
668.84	22230.41
668.98	22637.66
669.12	22658.73
669.26	22504.25
669.40	22319.35
669.54	22436.38
669.68	22583.83
669.82	22232.75
669.96	21909.75
670.10	21841.88
670.25	22059.55
670.39	22017.42
670.53	22143.81
670.67	22087.64
670.81	21919.12
670.95	22031.46
671.09	21759.96
671.23	21965.93
671.37	22164.87
671.51	21898.05
671.65	21741.24
671.79	21891.03
671.93	21998.70
672.07	21781.03
672.21	21296.53
672.35	21523.57
672.49	21603.14
672.63	21308.24
672.77	21413.56
672.91	21399.52
673.05	21348.03
673.19	21298.88
673.33	21301.22
673.47	21158.44
673.61	21296.53
673.75	21317.60
673.89	21083.55
674.03	21532.93
674.17	20971.20
674.31	21041.42
674.45	21032.05
674.59	20926.73
674.73	21025.03
674.87	20650.55
675.01	20416.49
675.15	20835.45
675.29	20465.64
675.43	20383.73
675.56	20807.36
675.70	20662.25
675.84	20690.34
675.98	19892.21
676.12	20486.71
676.26	20322.87
676.40	20739.49
676.54	20123.93
676.68	20566.29
676.82	19829.02
676.96	20107.54
677.10	20020.94
677.23	19658.16
677.37	19674.54
677.51	19875.83
677.65	20219.89
677.79	19564.54
677.93	19873.49
678.07	19894.55
678.21	19393.68
678.34	19709.65
678.48	19782.21
678.62	19552.84
678.76	19377.30
678.90	19421.77
679.04	19250.91
679.18	19143.24
679.31	19433.47
679.45	18972.38
679.59	18857.70
679.73	18801.52
679.87	18876.42
680.00	18644.71
680.14	18827.27
680.28	18913.87
680.42	18752.37
680.56	18768.76
680.70	18862.38
680.83	18913.87
680.97	18544.06
681.11	18649.39
681.25	18728.97
681.39	18539.38
681.52	18300.65
681.66	18270.22
681.80	18335.76
681.94	17956.59
682.07	18188.30
682.21	17888.71
682.35	17799.77
682.49	17554.02
682.62	18178.94
682.76	17816.16
682.90	17916.80
683.04	17762.33
683.17	18017.44
683.31	17755.30
683.45	17593.81
683.59	17649.98
683.72	17638.28
683.86	17640.62
684.00	17156.13
684.13	17216.98
684.27	17242.73
684.41	17001.65
684.55	17025.06
684.68	17151.45
684.82	16835.47
684.96	16835.47
685.09	16732.49
685.23	16718.45
685.37	16685.68
685.50	16886.97
685.64	16943.14
685.78	16917.39
685.91	16563.97
686.05	16580.36
686.19	16706.74
686.32	16505.46
686.46	16381.41
686.60	16145.02
686.73	16400.13
686.87	16130.97
687.01	16109.91
687.14	16020.97
687.28	15960.11
687.42	15868.83
687.55	16039.69
687.69	15936.71
687.82	16046.71
687.96	16023.31
688.10	15681.59
688.23	15903.94
688.37	15573.92
688.50	15456.90
688.64	15761.17
688.78	15735.42
688.91	15571.58
689.05	15573.92
689.18	15405.41
689.32	14918.57
689.46	15328.17
689.59	15185.40
689.73	15145.61
689.86	14869.42
690.00	14787.50
690.13	15110.50
690.27	14839.00
690.41	14993.47
690.54	14780.48
690.68	14689.20
690.81	14843.68
690.95	14855.38
691.08	15176.03
691.22	14792.19
691.35	14579.20
691.49	14757.08
691.62	14143.86
691.76	14314.72
691.89	14363.87
692.03	14148.54
692.16	14193.01
692.30	14225.78
692.43	14031.51
692.57	14171.94
692.70	13963.64
692.84	13729.58
692.97	13774.05
693.11	13998.74
693.24	14073.64
693.38	13788.10
693.51	13710.86
693.65	13680.43
693.78	13642.98
693.92	13666.39
694.05	13680.43
694.19	13617.24
694.32	13062.53
694.45	13523.62
694.59	13121.04
694.72	13069.55
694.86	13099.98
694.99	13036.78
695.13	13092.96
695.26	13254.45
695.39	12968.91
695.53	13200.62
695.66	12968.91
695.80	12947.84
695.93	13076.57
696.07	12753.58
696.20	12980.61
696.33	12592.08
696.47	12599.10
696.60	12519.53
696.73	12617.83
696.87	12503.14
697.00	12390.80
697.14	12379.09
697.27	11906.31
697.40	12149.72
697.54	12187.17
697.67	12203.55
697.80	11929.71
697.94	11929.71
698.07	11859.49
698.21	11925.03
698.34	11800.98
698.47	11960.14
698.61	11950.78
698.74	11791.62
698.87	11721.40
699.01	11716.72
699.14	11566.93
699.27	11506.07
699.40	11716.72
699.54	11309.47
699.67	11309.47
699.80	11566.93
699.94	11487.35
700.07	11318.83
700.20	11028.60
700.34	11103.50
700.47	11089.46
700.60	11157.33
700.73	11133.93
700.87	11033.29
701.00	10780.51
701.13	10956.05
701.26	10970.09
701.40	10937.32
701.53	10846.04
701.66	10904.56
701.79	10848.38
701.93	10604.97
702.06	10469.22
702.19	10483.26
702.32	10368.57
702.46	10413.04
702.59	10260.91
702.72	10394.32
702.85	10237.50
702.99	10335.81
703.12	10085.37
703.25	10333.47
703.38	10303.04
703.51	10197.71
703.65	10195.37
703.78	10148.56
703.91	10010.47
704.04	10010.47
704.17	10050.26
704.31	9689.82
704.44	9923.87
704.57	9823.23
704.70	9734.29
704.83	9865.36
704.96	9521.30
705.10	9645.35
705.23	9465.13
>>>>>End Processed Spectral Data<<<<<
