SpectraSuite Data File
++++++++++++++++++++++++++++++++++++
Date: Fri Oct 18 13:58:11 GMT-05:00 2013
User: bianchi
Dark Spectrum Present: No
Reference Spectrum Present: No
Number of Sampled Component Spectra: 1
Spectrometers: USB2+H05261
Integration Time (usec): 50000 (USB2+H05261)
Spectra Averaged: 1 (USB2+H05261)
Boxcar Smoothing: 0 (USB2+H05261)
Correct for Electrical Dark: No (USB2+H05261)
Strobe/Lamp Enabled: No (USB2+H05261)
Correct for Detector Non-linearity: No (USB2+H05261)
Correct for Stray Light: No (USB2+H05261)
Number of Pixels in Processed Spectrum: 2048
>>>>>Begin Processed Spectral Data<<<<<
365.73	0.00
365.92	0.00
366.12	0.00
366.32	0.00
366.52	0.00
366.72	0.00
366.91	0.00
367.11	0.00
367.31	0.00
367.51	0.00
367.70	0.00
367.90	0.00
368.10	0.00
368.30	0.00
368.49	0.00
368.69	0.00
368.89	0.00
369.09	0.00
369.28	0.00
369.48	0.00
369.68	0.00
369.87	0.00
370.07	0.00
370.27	0.00
370.47	0.00
370.66	32.77
370.86	88.94
371.06	126.39
371.25	198.95
371.45	159.16
371.65	170.86
371.84	161.50
372.04	147.45
372.24	145.11
372.44	196.60
372.63	198.95
372.83	215.33
373.03	161.50
373.22	187.24
373.42	238.73
373.62	180.22
373.81	229.37
374.01	184.90
374.21	241.08
374.40	276.18
374.60	285.55
374.79	210.65
374.99	259.80
375.19	234.05
375.38	337.04
375.58	224.69
375.78	278.52
375.97	269.16
376.17	297.25
376.37	220.01
376.56	283.20
376.76	287.89
376.95	358.10
377.15	252.78
377.35	212.99
377.54	215.33
377.74	269.16
377.93	250.44
378.13	318.31
378.33	299.59
378.52	322.99
378.72	269.16
378.91	283.20
379.11	311.29
379.31	294.91
379.50	294.91
379.70	308.95
379.89	339.38
380.09	311.29
380.28	301.93
380.48	344.06
380.68	318.31
380.87	311.29
381.07	327.68
381.26	353.42
381.46	337.04
381.65	334.70
381.85	344.06
382.04	308.95
382.24	294.91
382.43	297.25
382.63	306.61
382.83	355.76
383.02	400.23
383.22	374.49
383.41	353.42
383.61	313.63
383.80	374.49
384.00	348.74
384.19	351.08
384.39	479.81
384.58	339.38
384.78	397.89
384.97	379.17
385.17	388.53
385.36	374.49
385.56	444.70
385.75	428.32
385.95	332.36
386.14	423.64
386.34	440.02
386.53	337.04
386.72	337.04
386.92	461.09
387.11	400.23
387.31	477.47
387.50	440.02
387.70	365.12
387.89	381.51
388.09	437.68
388.28	423.64
388.48	449.38
388.67	475.13
388.86	498.53
389.06	496.19
389.25	461.09
389.45	463.43
389.64	517.26
389.84	418.96
390.03	458.74
390.22	573.43
390.42	596.84
390.61	400.23
390.81	545.34
391.00	404.91
391.19	468.11
391.39	580.45
391.58	538.32
391.78	582.79
391.97	564.07
392.16	578.11
392.36	538.32
392.55	547.69
392.75	608.54
392.94	564.07
393.13	547.69
393.33	507.90
393.52	566.41
393.71	592.16
393.91	608.54
394.10	533.64
394.29	594.50
394.49	617.90
394.68	566.41
394.88	540.66
395.07	578.11
395.26	573.43
395.46	622.58
395.65	627.26
395.84	641.31
396.04	671.73
396.23	636.63
396.42	653.01
396.62	706.84
396.81	657.69
397.00	662.37
397.19	748.97
397.39	688.12
397.58	727.91
397.77	781.74
397.97	685.78
398.16	711.52
398.35	683.44
398.55	702.16
398.74	688.12
398.93	692.80
399.12	737.27
399.32	730.25
399.51	704.50
399.70	837.91
399.90	723.23
400.09	751.31
400.28	760.67
400.47	737.27
400.67	884.72
400.86	760.67
401.05	837.91
401.24	875.36
401.44	793.44
401.63	777.06
401.82	767.70
402.01	767.70
402.21	816.85
402.40	858.98
402.59	887.06
402.78	835.57
402.97	875.36
403.17	901.11
403.36	816.85
403.55	828.55
403.74	915.15
403.93	940.90
404.13	1048.56
404.32	1006.43
404.51	964.30
404.70	1018.13
404.89	983.02
405.09	1001.75
405.28	1048.56
405.47	992.39
405.66	985.37
405.85	1027.50
406.05	999.41
406.24	994.73
406.43	1053.24
406.62	1149.20
406.81	1022.81
407.00	1050.90
407.20	978.34
407.39	1116.44
407.58	1086.01
407.77	1083.67
407.96	1069.62
408.15	1095.37
408.34	1137.50
408.54	1163.25
408.73	1083.67
408.92	1149.20
409.11	1179.63
409.30	1177.29
409.49	1114.10
409.68	1200.69
409.87	1177.29
410.07	1186.65
410.26	1160.91
410.45	1160.91
410.64	1165.59
410.83	1291.98
411.02	1245.16
411.21	1240.48
411.40	1275.59
411.59	1296.66
411.78	1287.29
411.98	1228.78
412.17	1282.61
412.36	1357.51
412.55	1301.34
412.74	1313.04
412.93	1465.18
413.12	1399.64
413.31	1444.11
413.50	1399.64
413.69	1441.77
413.88	1528.37
414.07	1610.29
414.26	1455.81
414.45	1451.13
414.64	1612.63
414.83	1516.67
415.02	1586.88
415.22	1586.88
415.41	1558.80
415.60	1554.12
415.79	1584.54
415.98	1570.50
416.17	1685.19
416.36	1643.06
416.55	1671.14
416.74	1638.38
416.93	1806.89
417.12	1678.16
417.31	1694.55
417.50	1652.42
417.69	1757.74
417.88	1703.91
418.07	1755.40
418.26	1713.27
418.45	1870.09
418.64	1956.69
418.83	1762.42
419.02	1853.70
419.21	1844.34
419.39	1781.15
419.58	1849.02
419.77	1891.15
419.96	1923.92
420.15	1849.02
420.34	1900.52
420.53	1884.13
420.72	1893.49
420.91	1975.41
421.10	1952.01
421.29	2040.95
421.48	1947.33
421.67	2087.76
421.86	1963.71
422.05	1937.96
422.24	2073.71
422.43	2073.71
422.61	1966.05
422.80	2118.18
422.99	2097.12
423.18	2083.08
423.37	2036.27
423.56	1870.09
423.75	1996.48
423.94	2033.93
424.13	1886.47
424.32	1909.88
424.50	1937.96
424.69	2040.95
424.88	2150.95
425.07	2148.61
425.26	2080.74
425.45	2083.08
425.64	2141.59
425.83	2153.29
426.01	2017.54
426.20	2108.82
426.39	2106.48
426.58	2162.66
426.77	2059.67
426.96	2150.95
427.15	2251.60
427.33	2143.93
427.52	2211.81
427.71	2256.28
427.90	2188.40
428.09	2200.10
428.28	2169.68
428.46	2246.91
428.65	2272.66
428.84	2265.64
429.03	2349.90
429.22	2214.15
429.40	2256.28
429.59	2300.75
429.78	2207.13
429.97	2314.79
430.16	2314.79
430.34	2359.26
430.53	2279.68
430.72	2403.73
430.91	2202.44
431.10	2282.02
431.28	2420.11
431.47	2445.86
431.66	2602.68
431.85	2410.75
432.03	2448.20
432.22	2455.22
432.41	2420.11
432.60	2469.27
432.79	2502.03
432.97	2553.52
433.16	2555.86
433.35	2464.58
433.54	2476.29
433.72	2703.32
433.91	2588.63
434.10	2546.50
434.28	2586.29
434.47	2583.95
434.66	2691.62
434.85	2675.23
435.03	2567.57
435.22	2546.50
435.41	2686.94
435.59	2710.34
435.78	2668.21
435.97	2754.81
436.16	2630.76
436.34	2682.25
436.53	2722.04
436.72	2881.20
436.90	2738.43
437.09	2932.69
437.28	2668.21
437.46	2782.90
437.65	2757.15
437.84	2782.90
438.02	2876.52
438.21	2860.13
438.40	2761.83
438.58	2956.10
438.77	2958.44
438.96	2864.82
439.14	2981.84
439.33	2979.50
439.52	3014.61
439.70	3073.12
439.89	3171.43
440.08	3026.31
440.26	3063.76
440.45	3012.27
440.63	3192.49
440.82	3138.66
441.01	3218.24
441.19	3211.22
441.38	3323.56
441.57	3276.75
441.75	3243.98
441.94	3318.88
442.12	3260.37
442.31	3400.80
442.50	3272.07
442.68	3440.59
442.87	3471.01
443.05	3503.78
443.24	3574.00
443.43	3382.07
443.61	3510.80
443.80	3559.95
443.98	3353.99
444.17	3300.16
444.35	3641.87
444.54	3550.59
444.73	3590.38
444.91	3599.74
445.10	3641.87
445.28	3475.70
445.47	3536.55
445.65	3557.61
445.84	3574.00
446.02	3597.40
446.21	3569.32
446.39	3506.12
446.58	3515.48
446.77	3487.40
446.95	3473.36
447.14	3531.87
447.32	3588.04
447.51	3513.14
447.69	3557.61
447.88	3693.37
448.06	3541.23
448.25	3517.83
448.43	3651.24
448.62	3576.34
448.80	3569.32
448.99	3548.25
449.17	3536.55
449.36	3632.51
449.54	3747.20
449.73	3637.19
449.91	3786.99
450.10	3754.22
450.28	3812.73
450.46	3735.50
450.65	3838.48
450.83	3896.99
451.02	3859.54
451.20	3824.44
451.39	3833.80
451.57	3779.97
451.76	3770.60
451.94	3875.93
452.13	4011.68
452.31	3880.61
452.49	3845.50
452.68	3943.80
452.86	3976.57
453.05	4077.21
453.23	3990.61
453.42	3875.93
453.60	3843.16
453.78	3887.63
453.97	3953.16
454.15	4049.13
454.34	3950.82
454.52	4014.02
454.70	4042.11
454.89	4124.02
455.07	4184.88
455.26	4182.54
455.44	4259.78
455.62	4152.11
455.81	4109.98
455.99	4196.58
456.17	4250.41
456.36	4114.66
456.54	4198.92
456.73	4369.78
456.91	4348.72
457.09	4440.00
457.28	4449.36
457.46	4252.75
457.64	4571.07
457.83	4482.13
458.01	4369.78
458.19	4465.74
458.38	4592.13
458.56	4386.16
458.74	4615.54
458.93	4486.81
459.11	4486.81
459.29	4610.86
459.48	4608.51
459.66	4526.60
459.84	4505.53
460.03	4498.51
460.21	4629.58
460.39	4610.86
460.57	4566.39
460.76	4748.95
460.94	4713.84
461.12	4688.09
461.31	4711.50
461.49	4802.78
461.67	4748.95
461.85	4856.61
462.04	4746.61
462.22	5107.05
462.40	4931.51
462.59	4835.55
462.77	4891.72
462.95	4868.31
463.13	4933.85
463.32	4980.66
463.50	4971.30
463.68	5039.17
463.86	4990.02
464.05	4805.12
464.23	5172.58
464.41	4919.81
464.59	4833.21
464.78	5109.39
464.96	5013.43
465.14	5046.20
465.32	5195.99
465.50	5095.35
465.69	5036.83
465.87	5104.71
466.05	5057.90
466.23	5090.67
466.41	5137.48
466.60	5385.57
466.78	5294.29
466.96	5093.01
467.14	5158.54
467.32	5158.54
467.51	5296.63
467.69	5008.75
467.87	5387.91
468.05	5336.42
468.23	5156.20
468.41	5170.24
468.60	5277.91
468.78	5373.87
468.96	5350.46
469.14	5575.16
469.32	5533.03
469.50	5282.59
469.69	5413.66
469.87	5724.95
470.05	5659.42
470.23	5469.83
470.41	5516.64
470.59	5575.16
470.77	5570.48
470.95	5738.99
471.14	5706.23
471.32	5647.71
471.50	5694.52
471.68	5874.74
471.86	5926.24
472.04	5706.23
472.22	5996.45
472.40	5802.19
472.58	5806.87
472.77	6033.90
472.95	5811.55
473.13	5930.92
473.31	5954.32
473.49	5916.87
473.67	6047.94
473.85	5982.41
474.03	6148.59
474.21	6026.88
474.39	6197.74
474.57	6279.66
474.75	6200.08
474.93	6436.47
475.12	6169.65
475.30	6237.53
475.48	6314.77
475.66	6415.41
475.84	6176.67
476.02	6384.98
476.20	6609.67
476.38	6696.27
476.56	6663.51
476.74	6693.93
476.92	6686.91
477.10	6759.47
477.28	6642.44
477.46	6764.15
477.64	6949.05
477.82	6944.37
478.00	6953.73
478.18	7103.53
478.36	7283.75
478.54	7218.21
478.72	7082.46
478.90	7260.34
479.08	7311.83
479.26	7405.46
479.44	7447.58
479.62	7489.71
479.80	7435.88
479.98	7637.17
480.16	7641.85
480.34	7658.23
480.52	7796.32
480.70	8060.80
480.88	7791.64
481.06	7927.39
481.24	7700.36
481.41	7971.86
481.59	7983.57
481.77	8278.47
481.95	8203.58
482.13	8311.24
482.31	8496.14
482.49	8372.10
482.67	8400.18
482.85	8472.74
483.03	8557.00
483.21	8655.30
483.39	8748.92
483.57	8748.92
483.74	8898.72
483.92	9050.85
484.10	8929.14
484.28	9114.05
484.46	9217.03
484.64	9423.00
484.82	9275.54
485.00	9259.16
485.18	9322.35
485.35	9795.14
485.53	9600.88
485.71	9650.03
485.89	9830.25
486.07	9797.48
486.25	9991.75
486.43	9951.96
486.61	10003.45
486.78	10078.35
486.96	10160.27
487.14	10279.63
487.32	10321.76
487.50	10494.96
487.68	10354.53
487.85	10523.05
488.03	10595.61
488.21	10696.25
488.39	11002.86
488.57	10970.09
488.75	10853.06
488.92	11225.21
489.10	11187.76
489.28	11143.29
489.46	11463.94
489.64	11267.34
489.81	11543.52
489.99	11585.65
490.17	11541.18
490.35	11829.07
490.53	11777.58
490.70	11910.99
490.88	12133.34
491.06	12102.91
491.24	12294.83
491.41	12187.17
491.59	12285.47
491.77	12346.33
491.95	12395.48
492.13	12453.99
492.30	12615.49
492.48	12376.75
492.66	12372.07
492.84	12720.81
493.01	12711.45
493.19	12828.48
493.37	12898.69
493.54	12971.25
493.72	13378.50
493.90	13004.02
494.08	13107.00
494.25	13380.84
494.43	13348.08
494.61	13626.60
494.79	13558.72
494.96	13846.61
495.14	13589.15
495.32	14003.43
495.49	13935.55
495.67	13956.61
495.85	14010.45
496.02	14150.88
496.20	14228.12
496.38	14202.37
496.55	14291.31
496.73	14363.87
496.91	14588.56
497.09	14565.15
497.26	14623.67
497.44	14710.27
497.62	14712.61
497.79	15138.58
497.97	15000.49
498.14	15279.02
498.32	14951.34
498.50	15220.50
498.67	15353.91
498.85	15309.44
499.03	15157.31
499.20	15499.03
499.38	15365.62
499.56	15730.74
499.73	15726.06
499.91	15906.28
500.08	15805.64
500.26	15499.03
500.44	15751.81
500.61	15852.45
500.79	15929.69
500.97	16060.76
501.14	16362.69
501.32	16442.26
501.49	16287.79
501.67	16152.04
501.84	16329.92
502.02	16077.14
502.20	16430.56
502.37	16610.78
502.55	16386.09
502.72	16458.65
502.90	16657.59
503.07	16538.23
503.25	16966.54
503.43	16800.37
503.60	16748.87
503.78	16875.26
503.95	17053.14
504.13	16968.88
504.30	17142.08
504.48	17046.12
504.65	17174.85
504.83	17422.95
505.01	17493.16
505.18	17394.86
505.36	17640.62
505.53	17163.15
505.71	17600.83
505.88	17685.09
506.06	17371.46
506.23	17483.80
506.41	17757.64
506.58	17888.71
506.76	17642.96
506.93	18038.51
507.11	17930.84
507.28	17961.27
507.46	17839.56
507.63	18111.07
507.81	18291.29
507.98	18068.94
508.16	18209.37
508.33	18228.09
508.50	18195.32
508.68	18200.01
508.85	18537.04
509.03	18710.24
509.20	18963.02
509.38	18721.95
509.55	18808.54
509.73	18876.42
509.90	18679.82
510.08	18951.32
510.25	18920.89
510.42	18923.23
510.60	18981.74
510.77	18675.13
510.95	19157.28
511.12	19232.18
511.30	19389.00
511.47	19482.62
511.64	19557.52
511.82	19482.62
511.99	19620.71
512.17	19541.13
512.34	19601.99
512.51	19960.09
512.69	19866.47
512.86	19941.36
513.04	20018.60
513.21	19983.49
513.38	20109.88
513.56	20074.77
513.73	20226.91
513.90	19969.45
514.08	19939.02
514.25	20091.16
514.43	20046.69
514.60	20311.17
514.77	20489.05
514.95	20451.60
515.12	20348.62
515.29	20187.12
515.47	20456.28
515.64	20563.95
515.81	20758.21
515.99	20610.76
516.16	20725.44
516.33	20947.79
516.51	20929.07
516.68	20844.81
516.85	20685.65
517.03	21071.84
517.20	21111.63
517.37	20936.09
517.54	20992.26
517.72	21348.03
517.89	20999.29
518.06	21125.68
518.24	21671.02
518.41	21268.45
518.58	21350.37
518.75	21493.14
518.93	21479.10
519.10	21680.38
519.27	21558.67
519.45	21509.52
519.62	21750.60
519.79	21411.22
519.96	21600.80
520.14	21841.88
520.31	21724.85
520.48	21717.83
520.65	22132.11
520.83	21792.73
521.00	22101.68
521.17	21649.96
521.34	22167.21
521.52	21905.07
521.69	22380.20
521.86	22157.85
522.03	22295.94
522.20	22326.37
522.38	22061.89
522.55	22405.95
522.72	22527.66
522.89	22602.55
523.07	22813.20
523.24	22588.51
523.41	22855.33
523.58	22602.55
523.75	22902.14
523.92	22714.90
524.10	22916.19
524.27	23133.86
524.44	23058.96
524.61	23087.04
524.78	22998.10
524.96	22988.74
525.13	22953.63
525.30	23323.44
525.47	23307.05
525.64	23082.36
525.81	23236.84
525.98	23426.42
526.16	23278.97
526.33	23466.21
526.50	23672.18
526.67	23215.77
526.84	23463.87
527.01	23374.93
527.18	23302.37
527.36	23840.70
527.53	23594.94
527.70	24018.58
527.87	24278.38
528.04	23920.28
528.21	23789.20
528.38	23847.72
528.55	24009.22
528.72	23833.68
528.89	24126.24
529.07	24030.28
529.24	23800.91
529.41	24245.61
529.58	24409.45
529.75	24070.07
529.92	24383.70
530.09	24449.24
530.26	24182.42
530.43	24341.57
530.60	24229.23
530.77	24449.24
530.94	24411.79
531.11	24341.57
531.28	24709.04
531.46	24402.43
531.63	24496.05
531.80	24702.01
531.97	24926.71
532.14	24947.77
532.31	25109.27
532.48	24996.92
532.65	24812.02
532.82	24664.57
532.99	24980.54
533.16	24699.67
533.33	24992.24
533.50	25083.52
533.67	24978.20
533.84	25029.69
534.01	24863.51
534.18	24451.58
534.35	25188.85
534.52	25270.76
534.69	25099.90
534.86	25582.06
535.03	25390.13
535.20	25256.72
535.37	25441.62
535.54	25600.78
535.71	25195.87
535.88	25172.46
536.05	25495.46
536.22	25802.07
536.38	25509.50
536.55	25680.36
536.72	25776.32
536.89	25530.56
537.06	25666.31
537.23	25687.38
537.40	25577.37
537.57	25572.69
537.74	25879.30
537.91	25820.79
538.08	26270.17
538.25	25977.61
538.42	26185.91
538.59	26127.40
538.75	26129.74
538.92	26120.38
539.09	25951.86
539.26	25975.27
539.43	26426.99
539.60	26101.65
539.77	26211.66
539.94	26513.59
540.11	26508.91
540.28	26703.17
540.44	26277.19
540.61	26419.97
540.78	26270.17
540.95	26665.72
541.12	26434.01
541.29	26501.89
541.46	26391.88
541.62	26380.18
541.79	26476.14
541.96	26356.77
542.13	26321.66
542.30	26581.46
542.47	26731.26
542.63	26801.47
542.80	26703.17
542.97	27035.53
543.14	27068.30
543.31	27288.31
543.48	27058.93
543.64	27442.78
543.81	27325.75
543.98	27236.81
544.15	27562.15
544.32	27555.13
544.48	27653.43
544.65	27241.50
544.82	27136.17
544.99	27197.02
545.16	27515.34
545.32	27648.75
545.49	27613.64
545.66	27360.86
545.83	27274.26
546.00	27847.69
546.16	27454.48
546.33	27601.94
546.50	27395.97
546.67	27508.32
546.83	27592.58
547.00	27828.97
547.17	27730.67
547.34	28128.56
547.50	27747.05
547.67	28020.89
547.84	28060.68
548.00	28016.21
548.17	28109.83
548.34	27868.76
548.51	27805.56
548.67	28400.06
548.84	27917.91
549.01	28350.91
549.18	27908.55
549.34	28004.51
549.51	27971.74
549.68	27683.86
549.84	28095.79
550.01	28180.05
550.18	27903.87
550.34	28446.87
550.51	28371.97
550.68	28271.33
550.84	27978.76
551.01	28339.21
551.18	27995.15
551.34	27955.36
551.51	28327.50
551.68	28533.47
551.84	28264.31
552.01	28278.35
552.18	28421.13
552.34	28430.49
552.51	28676.24
552.68	28709.01
552.84	28739.44
553.01	28636.45
553.18	28407.08
553.34	28797.95
553.51	28907.96
553.67	28952.43
553.84	29048.39
554.01	29261.38
554.17	28767.52
554.34	28664.54
554.51	28781.57
554.67	28987.53
554.84	28732.42
555.00	28898.59
555.17	28982.85
555.33	28964.13
555.50	28652.84
555.67	29064.77
555.83	28526.45
556.00	29097.54
556.16	29324.57
556.33	29153.71
556.50	29429.90
556.66	29397.13
556.83	29008.60
556.99	29338.62
557.16	29780.98
557.32	29504.79
557.49	29558.63
557.65	28814.34
557.82	29006.26
557.98	28982.85
558.15	29387.77
558.32	29146.69
558.48	29179.46
558.65	29326.91
558.81	29420.53
558.98	29647.57
559.14	29652.25
559.31	29298.83
559.47	29303.51
559.64	29589.05
559.80	29773.95
559.97	29736.51
560.13	29514.16
560.30	29600.76
560.46	30005.67
560.63	29905.02
560.79	29666.29
560.96	29575.01
561.12	29860.55
561.29	29670.97
561.45	29462.66
561.61	29837.15
561.78	30164.82
561.94	29584.37
562.11	29708.42
562.27	29783.32
562.44	29958.86
562.60	29626.50
562.77	29848.85
562.93	29750.55
563.10	30003.33
563.26	29919.07
563.42	30188.23
563.59	29846.51
563.75	29834.81
563.92	30066.52
564.08	30106.31
564.24	29951.84
564.41	30153.12
564.57	30113.33
564.74	29706.08
564.90	30008.01
565.07	30171.85
565.23	30015.03
565.39	29816.08
565.56	30017.37
565.72	29902.68
565.88	29989.28
566.05	30195.25
566.21	29851.19
566.38	29970.56
566.54	30209.29
566.70	30115.67
566.87	30436.33
567.03	30211.64
567.19	30675.06
567.36	30349.73
567.52	30749.96
567.68	29965.88
567.85	29837.15
568.01	30286.53
568.17	30242.06
568.34	30569.74
568.50	30279.51
568.66	30164.82
568.83	30707.83
568.99	30237.38
569.15	30279.51
569.32	30064.18
569.48	30228.02
569.64	30061.84
569.81	30235.04
569.97	30190.57
570.13	30223.34
570.30	30431.65
570.46	30066.52
570.62	30555.69
570.78	30373.13
570.95	30249.08
571.11	30309.94
571.27	30707.83
571.43	30316.96
571.60	30548.67
571.76	30328.66
571.92	30632.93
572.09	30532.29
572.25	30731.23
572.41	30314.62
572.57	30316.96
572.74	30852.94
572.90	30199.93
573.06	30391.86
573.22	30192.91
573.38	30520.59
573.55	30223.34
573.71	30892.73
573.87	30810.81
574.03	30623.57
574.20	30487.82
574.36	30221.00
574.52	30822.51
574.68	30361.43
574.84	30466.75
575.01	30646.97
575.17	30534.63
575.33	30749.96
575.49	30539.31
575.65	30668.04
575.82	30202.27
575.98	30560.37
576.14	30609.53
576.30	30525.27
576.46	30677.40
576.62	30445.69
576.79	30326.32
576.95	30532.29
577.11	30813.15
577.27	30714.85
577.43	31056.57
577.59	30574.42
577.75	30838.90
577.92	30586.12
578.08	30565.06
578.24	30555.69
578.40	30583.78
578.56	30731.23
578.72	31051.89
578.88	30604.84
579.04	30661.02
579.21	30448.03
579.37	31129.12
579.53	30759.32
579.69	30415.26
579.85	30410.58
580.01	30408.24
580.17	30806.13
580.33	30595.48
580.49	31288.28
580.65	30927.84
580.82	30906.77
580.98	30431.65
581.14	30696.13
581.30	30962.95
581.46	30726.55
581.62	30471.43
581.78	30675.06
581.94	30623.57
582.10	30693.79
582.26	30808.47
582.42	30883.37
582.58	31077.63
582.74	30764.00
582.90	31026.14
583.06	30838.90
583.22	30595.48
583.38	30892.73
583.54	30918.48
583.70	30902.09
583.86	30764.00
584.02	30670.38
584.18	31065.93
584.34	31194.66
584.50	30724.21
584.66	30909.11
584.82	30679.74
584.98	31002.74
585.14	30471.43
585.30	30691.44
585.46	30740.60
585.62	30890.39
585.78	31047.21
585.94	30710.17
586.10	30792.09
586.26	30930.18
586.42	31335.09
586.58	31229.77
586.74	30831.88
586.90	30848.26
587.06	30712.51
587.22	30724.21
587.38	31009.76
587.54	31236.79
587.70	31374.88
587.86	31257.85
588.02	31381.90
588.18	31440.42
588.34	31129.12
588.49	31173.60
588.65	30719.53
588.81	31424.03
588.97	30808.47
589.13	30782.73
589.29	30885.71
589.45	31204.02
589.61	31178.28
589.77	31054.23
589.93	30892.73
590.08	31063.59
590.24	31220.41
590.40	31402.97
590.56	31049.55
590.72	31133.81
590.88	30967.63
591.04	30862.30
591.20	31534.04
591.35	31414.67
591.51	31351.48
591.67	31094.02
591.83	31468.50
591.99	31950.65
592.15	31496.59
592.31	31534.04
592.46	31433.39
592.62	30916.14
592.78	31496.59
592.94	31117.42
593.10	31229.77
593.26	31559.78
593.41	31356.16
593.57	31161.89
593.73	31608.93
593.89	31325.73
594.05	31463.82
594.20	31218.07
594.36	31365.52
594.52	31136.15
594.68	31250.83
594.84	31222.75
594.99	31264.88
595.15	31255.51
595.31	31529.36
595.47	31344.45
595.62	31332.75
595.78	31562.12
595.94	31573.83
596.10	31398.29
596.25	31634.68
596.41	31302.32
596.57	31206.36
596.73	31445.10
596.88	31309.35
597.04	31756.39
597.20	31391.26
597.36	31681.49
597.51	31454.46
597.67	31225.09
597.83	31243.81
597.99	31740.00
598.14	31461.48
598.30	31351.48
598.46	31452.12
598.61	31435.74
598.77	31606.59
598.93	31592.55
599.09	31534.04
599.24	31842.99
599.40	31732.98
599.56	31908.52
599.71	31445.10
599.87	31831.29
600.03	31889.80
600.18	31356.16
600.34	31709.58
600.50	31302.32
600.65	31454.46
600.81	31941.29
600.97	31552.76
601.12	31314.03
601.28	31807.88
601.44	31545.74
601.59	31777.45
601.75	31608.93
601.91	31487.23
602.06	31344.45
602.22	31580.85
602.37	31274.24
602.53	31468.50
602.69	31243.81
602.84	31512.97
603.00	31826.60
603.16	31721.28
603.31	31323.39
603.47	31676.81
603.62	31482.55
603.78	31723.62
603.94	31452.12
604.09	31129.12
604.25	31220.41
604.40	31309.35
604.56	31688.51
604.71	31817.24
604.87	31204.02
605.03	31601.91
605.18	31707.24
605.34	31342.11
605.49	31447.44
605.65	31608.93
605.80	31323.39
605.96	31302.32
606.12	31337.43
606.27	31522.34
606.43	31374.88
606.58	31716.60
606.74	31246.15
606.89	31896.82
607.05	31545.74
607.20	31428.71
607.36	31945.97
607.51	31662.77
607.67	31351.48
607.82	31384.24
607.98	31501.27
608.13	31386.58
608.29	31379.56
608.44	31339.77
608.60	31384.24
608.75	31681.49
608.91	31391.26
609.06	31627.66
609.22	31578.51
609.37	30625.91
609.53	31505.95
609.68	31267.22
609.84	31213.38
609.99	31154.87
610.15	31061.25
610.30	31248.49
610.46	31318.71
610.61	30897.41
610.76	31180.62
610.92	31012.10
611.07	31398.29
611.23	31089.34
611.38	31276.58
611.54	31335.09
611.69	31138.49
611.84	30953.58
612.00	31346.79
612.15	30834.22
612.31	31489.57
612.46	31243.81
612.62	31096.36
612.77	31239.13
612.92	31063.59
613.08	30834.22
613.23	31395.95
613.39	31042.53
613.54	30712.51
613.69	30855.28
613.85	30916.14
614.00	30857.62
614.15	31220.41
614.31	31054.23
614.46	31365.52
614.62	31082.31
614.77	31173.60
614.92	31082.31
615.08	31014.44
615.23	30817.83
615.38	30543.99
615.54	30855.28
615.69	30874.01
615.84	30497.18
616.00	30848.26
616.15	30551.01
616.30	30829.54
616.46	30565.06
616.61	30518.25
616.76	30913.80
616.92	30780.39
617.07	30731.23
617.22	30766.34
617.37	30899.75
617.53	30312.28
617.68	30733.57
617.83	30270.15
617.99	30679.74
618.14	30693.79
618.29	30323.98
618.45	30785.07
618.60	30625.91
618.75	30752.30
618.90	30874.01
619.06	30569.74
619.21	30424.62
619.36	30452.71
619.51	30073.54
619.67	30211.64
619.82	30391.86
619.97	30305.26
620.12	30033.75
620.28	30141.42
620.43	30939.54
620.58	30471.43
620.73	30464.41
620.89	30333.34
621.04	30567.40
621.19	30155.46
621.34	30218.66
621.49	30113.33
621.65	30471.43
621.80	30436.33
621.95	29867.58
622.10	30464.41
622.25	30008.01
622.41	30239.72
622.56	30478.46
622.71	30302.92
622.86	30085.25
623.01	29699.06
623.16	29998.65
623.32	30024.39
623.47	30342.70
623.62	30066.52
623.77	29673.31
623.92	29937.79
624.07	29839.49
624.23	29912.05
624.38	29666.29
624.53	29799.70
624.68	30260.79
624.83	30251.42
624.98	30328.66
625.13	29701.40
625.29	30178.87
625.44	30375.47
625.59	29972.90
625.74	29521.18
625.89	30202.27
626.04	29713.10
626.19	29656.93
626.34	29659.27
626.49	29329.25
626.65	29776.30
626.80	30150.78
626.95	29649.91
627.10	29694.38
627.25	29633.52
627.40	29598.41
627.55	29682.67
627.70	29448.62
627.85	29703.74
628.00	29303.51
628.15	29446.28
628.30	29614.80
628.45	29266.06
628.60	29364.36
628.76	29448.62
628.91	29273.08
629.06	29359.68
629.21	29282.44
629.36	29198.18
629.51	29397.13
629.66	29263.72
629.81	29336.27
629.96	29151.37
630.11	28856.46
630.26	28889.23
630.41	29837.15
630.56	29233.29
630.71	29296.49
630.86	29165.42
631.01	29090.52
631.16	29404.15
631.31	29146.69
631.46	28975.83
631.61	29186.48
631.76	29216.91
631.91	29144.35
632.06	28856.46
632.21	28746.46
632.36	29034.35
632.51	29017.96
632.66	28856.46
632.81	28613.05
632.96	28666.88
633.10	29027.32
633.25	29401.81
633.40	29027.32
633.55	28680.92
633.70	28596.67
633.85	28446.87
634.00	29163.08
634.15	28638.80
634.30	28620.07
634.45	28973.49
634.60	28599.01
634.75	28840.08
634.90	28568.58
635.05	28531.13
635.19	28680.92
635.34	29006.26
635.49	28608.37
635.64	29329.25
635.79	28814.34
635.94	28240.90
636.09	28898.59
636.24	28336.87
636.39	27985.79
636.53	28744.12
636.68	28388.36
636.83	28589.64
636.98	28266.65
637.13	27950.68
637.28	28804.97
637.43	28666.88
637.57	28493.68
637.72	28552.20
637.87	28259.63
638.02	28142.60
638.17	28304.10
638.32	28285.37
638.46	27971.74
638.61	28086.43
638.76	28091.11
638.91	28215.16
639.06	28032.60
639.20	28231.54
639.35	28355.59
639.50	28308.78
639.65	28423.47
639.80	28318.14
639.94	28194.09
640.09	28107.49
640.24	28191.75
640.39	28060.68
640.54	28231.54
640.68	27871.10
640.83	28053.66
640.98	27665.13
641.13	27779.82
641.27	27873.44
641.42	28004.51
641.57	27765.78
641.72	27782.16
641.86	27824.29
642.01	27777.48
642.16	28023.23
642.31	27711.94
642.45	27920.25
642.60	27384.27
642.75	27824.29
642.90	27419.38
643.04	27314.05
643.19	27545.76
643.34	27583.21
643.48	27814.93
643.63	27557.47
643.78	28030.26
643.93	27871.10
644.07	27674.49
644.22	27515.34
644.37	27660.45
644.51	27730.67
644.66	27321.07
644.81	27253.20
644.95	27178.30
645.10	27330.44
645.25	27541.08
645.39	27789.18
645.54	27290.65
645.69	27585.55
645.83	27246.18
645.98	27550.45
646.13	27693.22
646.27	27569.17
646.42	27536.40
646.57	27309.37
646.71	27288.31
646.86	27276.60
647.00	27508.32
647.15	27087.02
647.30	27065.96
647.44	27042.55
647.59	27843.01
647.74	27250.86
647.88	27349.16
648.03	26824.88
648.17	27370.22
648.32	27300.01
648.47	27119.79
648.61	27185.32
648.76	27211.07
648.90	27019.14
649.05	27374.91
649.20	27152.55
649.34	26710.19
649.49	26890.41
649.63	26785.09
649.78	26979.36
649.92	26955.95
650.07	27154.90
650.21	26920.84
650.36	27143.19
650.51	26808.50
650.65	27168.94
650.80	27009.78
650.94	27014.46
651.09	26742.96
651.23	26588.49
651.38	26710.19
651.52	26436.35
651.67	26817.86
651.81	26862.33
651.96	26775.73
652.10	26567.42
652.25	26728.92
652.39	26934.88
652.54	27016.80
652.68	26686.79
652.83	26665.72
652.97	26787.43
653.12	26614.23
653.26	26787.43
653.41	27023.83
653.55	26209.32
653.70	26281.88
653.84	26572.10
653.99	26541.68
654.13	26541.68
654.27	25954.20
654.42	26485.50
654.56	26740.62
654.71	26888.07
654.85	26593.17
655.00	26422.31
655.14	26548.70
655.29	26417.63
655.43	26630.62
655.57	26230.38
655.72	26216.34
655.86	26513.59
656.01	26263.15
656.15	26143.78
656.30	26199.96
656.44	26302.94
656.58	26253.79
656.73	25982.29
656.87	26136.76
657.01	26099.31
657.16	26225.70
657.30	26190.59
657.45	26410.60
657.59	26061.87
657.73	26054.84
657.88	26005.69
658.02	26082.93
658.16	25610.14
658.31	26178.89
658.45	25752.91
658.60	26146.12
658.74	25916.75
658.88	25621.84
659.03	25785.68
659.17	25781.00
659.31	25902.71
659.46	25986.97
659.60	25860.58
659.74	25900.37
659.89	26057.18
660.03	26019.74
660.17	25532.90
660.32	25450.99
660.46	25254.38
660.60	25453.33
660.74	25355.02
660.89	25254.38
661.03	25055.43
661.17	25724.83
661.32	25413.54
661.46	25458.01
661.60	25371.41
661.74	25631.21
661.89	25514.18
662.03	25797.38
662.17	25619.50
662.31	25170.12
662.46	25443.96
662.60	25223.95
662.74	25179.48
662.88	25167.78
663.03	24680.95
663.17	24940.75
663.31	24891.60
663.45	24723.08
663.60	24659.88
663.74	24636.48
663.88	24821.38
664.02	24643.50
664.17	25057.78
664.31	24727.76
664.45	24943.09
664.59	25195.87
664.73	24690.31
664.88	24559.24
665.02	24584.99
665.16	24437.53
665.30	24739.46
665.44	24407.11
665.59	24084.11
665.73	24208.16
665.87	24210.50
666.01	24074.75
666.15	24067.73
666.29	24336.89
666.44	24226.89
666.58	24051.34
666.72	23997.51
666.86	24219.86
667.00	24222.20
667.14	24280.72
667.28	23997.51
667.43	23906.23
667.57	24037.30
667.71	23969.43
667.85	23695.58
667.99	23756.44
668.13	23672.18
668.27	23648.77
668.41	23812.61
668.56	23913.25
668.70	23941.34
668.84	23740.05
668.98	23679.20
669.12	23744.73
669.26	23943.68
669.40	23384.29
669.54	23704.95
669.68	23496.64
669.82	23527.06
669.96	23129.17
670.10	23531.75
670.25	23180.67
670.39	23073.00
670.53	23138.54
670.67	23026.19
670.81	23307.05
670.95	23012.15
671.09	23318.76
671.23	23173.64
671.37	23084.70
671.51	23377.27
671.65	23150.24
671.79	22955.97
671.93	23002.78
672.07	22815.54
672.21	22817.88
672.35	22338.07
672.49	22558.08
672.63	22735.96
672.77	22820.22
672.91	22754.69
673.05	22298.28
673.19	22726.60
673.33	22377.86
673.47	22436.38
673.61	22209.34
673.75	22597.87
673.89	21816.13
674.03	22174.24
674.17	22293.60
674.31	22015.08
674.45	21851.24
674.59	22061.89
674.73	21989.33
674.87	21961.25
675.01	21766.98
675.15	22164.87
675.29	21848.90
675.43	21448.67
675.56	21956.57
675.70	21748.26
675.84	21860.60
675.98	21301.22
676.12	21455.69
676.26	21469.73
676.40	21860.60
676.54	21460.37
676.68	21284.83
676.82	20964.18
676.96	21195.89
677.10	21029.71
677.23	20968.86
677.37	20961.84
677.51	21039.08
677.65	20900.98
677.79	20456.28
677.93	21006.31
678.07	20760.55
678.21	20556.93
678.34	20339.26
678.48	20524.16
678.62	20507.77
678.76	20322.87
678.90	20278.40
679.04	20320.53
679.18	20128.61
679.31	20011.58
679.45	20184.78
679.59	20004.56
679.73	19906.26
679.87	19873.49
680.00	19756.46
680.14	19520.07
680.28	19749.44
680.42	19665.18
680.56	19632.41
680.70	19824.34
680.83	19641.78
680.97	19641.78
681.11	19271.97
681.25	19709.65
681.39	19454.53
681.52	19548.15
681.66	19267.29
681.80	19400.70
681.94	19218.14
682.07	19271.97
682.21	19012.17
682.35	18813.23
682.49	18761.73
682.62	18775.78
682.76	18534.70
682.90	19150.26
683.04	18553.43
683.17	18682.16
683.31	18462.15
683.45	18906.85
683.59	18345.12
683.72	18721.95
683.86	18668.11
684.00	18618.96
684.13	18417.68
684.27	18347.46
684.41	18038.51
684.55	18068.94
684.68	17881.69
684.82	17844.24
684.96	17919.14
685.09	17727.22
685.23	17741.26
685.37	17743.60
685.50	17799.77
685.64	17823.18
685.78	17626.57
685.91	17972.97
686.05	17476.78
686.19	17547.00
686.32	17371.46
686.46	17109.32
686.60	17261.45
686.73	17167.83
686.87	17289.54
687.01	17191.23
687.14	17149.11
687.28	16814.41
687.42	16929.09
687.55	16741.85
687.69	16835.47
687.82	16638.87
687.96	16868.24
688.10	16608.44
688.23	16734.83
688.37	16510.14
688.50	16465.67
688.64	16915.05
688.78	16311.19
688.91	16397.79
689.05	16423.54
689.18	16496.10
689.32	15836.06
689.46	15971.82
689.59	15953.09
689.73	16018.63
689.86	16170.76
690.00	15756.49
690.13	15899.26
690.27	15957.77
690.41	15892.24
690.54	15777.55
690.68	15672.23
690.81	15676.91
690.95	15618.39
691.08	15679.25
691.22	15403.07
691.35	15337.53
691.49	15374.98
691.62	15199.44
691.76	15133.90
691.89	15166.67
692.03	15054.33
692.16	14743.03
692.30	15021.56
692.43	14897.51
692.57	15068.37
692.70	14623.67
692.84	14768.78
692.97	14658.78
693.11	14516.00
693.24	14408.34
693.38	14586.22
693.51	14555.79
693.65	14298.33
693.78	14380.25
693.92	14518.34
694.05	14504.30
694.19	14195.35
694.32	14190.67
694.45	14097.05
694.59	14015.13
694.72	14092.37
694.86	13664.05
694.99	13638.30
695.13	13724.90
695.26	13767.03
695.39	13593.83
695.53	13823.20
695.66	13516.59
695.80	13509.57
695.93	13682.77
696.07	13654.69
696.20	13745.97
696.33	13579.79
696.47	13359.78
696.60	13427.65
696.73	13275.52
696.87	13385.52
697.00	13226.37
697.14	12891.67
697.27	12840.18
697.40	12755.92
697.54	12765.28
697.67	12734.85
697.80	12624.85
697.94	12620.17
698.07	12549.95
698.21	12615.49
698.34	12868.27
698.47	12861.24
698.61	12453.99
698.74	12493.78
698.87	12449.31
699.01	12463.35
699.14	12320.58
699.27	12109.93
699.40	12306.54
699.54	12121.63
699.67	12191.85
699.80	12161.42
699.94	12212.92
700.07	11981.20
700.20	11976.52
700.34	11606.72
700.47	11590.33
700.60	11803.32
700.73	11775.24
700.87	11700.34
701.00	11587.99
701.13	11543.52
701.26	11763.53
701.40	11637.14
701.53	11520.12
701.66	11304.79
701.79	11449.90
701.93	11325.85
702.06	11393.73
702.19	11122.23
702.32	11042.65
702.46	10846.04
702.59	11108.18
702.72	10855.40
702.85	10827.32
702.99	10787.53
703.12	10897.53
703.25	10890.51
703.38	10377.94
703.51	10516.03
703.65	10600.29
703.78	10399.00
703.91	10544.11
704.04	10721.99
704.17	10731.36
704.31	10649.44
704.44	10403.68
704.57	10389.64
704.70	10040.90
704.83	10047.92
704.96	9977.70
705.10	10059.62
705.23	10141.54
>>>>>End Processed Spectral Data<<<<<
