SpectraSuite Data File
++++++++++++++++++++++++++++++++++++
Date: Fri Oct 18 13:58:25 GMT-05:00 2013
User: bianchi
Dark Spectrum Present: No
Reference Spectrum Present: No
Number of Sampled Component Spectra: 1
Spectrometers: USB2+H05261
Integration Time (usec): 50000 (USB2+H05261)
Spectra Averaged: 1 (USB2+H05261)
Boxcar Smoothing: 0 (USB2+H05261)
Correct for Electrical Dark: No (USB2+H05261)
Strobe/Lamp Enabled: No (USB2+H05261)
Correct for Detector Non-linearity: No (USB2+H05261)
Correct for Stray Light: No (USB2+H05261)
Number of Pixels in Processed Spectrum: 2048
>>>>>Begin Processed Spectral Data<<<<<
365.73	0.00
365.92	0.00
366.12	0.00
366.32	0.00
366.52	0.00
366.72	0.00
366.91	0.00
367.11	0.00
367.31	0.00
367.51	0.00
367.70	0.00
367.90	0.00
368.10	0.00
368.30	0.00
368.49	0.00
368.69	0.00
368.89	0.00
369.09	0.00
369.28	0.00
369.48	0.00
369.68	0.00
369.87	0.00
370.07	0.00
370.27	0.00
370.47	0.00
370.66	107.66
370.86	117.03
371.06	135.75
371.25	156.82
371.45	124.05
371.65	133.41
371.84	60.85
372.04	105.32
372.24	119.37
372.44	175.54
372.63	236.39
372.83	198.95
373.03	196.60
373.22	121.71
373.42	184.90
373.62	252.78
373.81	236.39
374.01	266.82
374.21	245.76
374.40	224.69
374.60	234.05
374.79	238.73
374.99	318.31
375.19	262.14
375.38	163.84
375.58	264.48
375.78	269.16
375.97	259.80
376.17	257.46
376.37	205.97
376.56	292.57
376.76	245.76
376.95	208.31
377.15	269.16
377.35	280.86
377.54	252.78
377.74	278.52
377.93	262.14
378.13	376.83
378.33	248.10
378.52	341.72
378.72	299.59
378.91	234.05
379.11	315.97
379.31	273.84
379.50	269.16
379.70	290.23
379.89	362.78
380.09	290.23
380.28	315.97
380.48	283.20
380.68	271.50
380.87	304.27
381.07	259.80
381.26	379.17
381.46	367.46
381.65	388.53
381.85	313.63
382.04	337.04
382.24	376.83
382.43	358.10
382.63	341.72
382.83	269.16
383.02	318.31
383.22	397.89
383.41	344.06
383.61	337.04
383.80	315.97
384.00	372.15
384.19	318.31
384.39	346.40
384.58	430.66
384.78	376.83
384.97	348.74
385.17	360.44
385.36	376.83
385.56	414.27
385.75	353.42
385.95	330.02
386.14	353.42
386.34	433.00
386.53	355.76
386.72	374.49
386.92	369.80
387.11	416.62
387.31	402.57
387.50	383.85
387.70	376.83
387.89	456.40
388.09	430.66
388.28	447.04
388.48	386.19
388.67	379.17
388.86	418.96
389.06	524.28
389.25	503.22
389.45	472.79
389.64	475.13
389.84	456.40
390.03	461.09
390.22	500.87
390.42	451.72
390.61	440.02
390.81	472.79
391.00	538.32
391.19	533.64
391.39	498.53
391.58	500.87
391.78	447.04
391.97	475.13
392.16	477.47
392.36	538.32
392.55	554.71
392.75	535.98
392.94	526.62
393.13	526.62
393.33	500.87
393.52	573.43
393.71	559.39
393.91	535.98
394.10	568.75
394.29	533.64
394.49	503.22
394.68	524.28
394.88	620.24
395.07	631.94
395.26	629.60
395.46	603.86
395.65	568.75
395.84	610.88
396.04	734.93
396.23	636.63
396.42	599.18
396.62	608.54
396.81	606.20
397.00	533.64
397.19	725.57
397.39	645.99
397.58	629.60
397.77	615.56
397.97	671.73
398.16	571.09
398.35	704.50
398.55	638.97
398.74	671.73
398.93	718.54
399.12	711.52
399.32	713.86
399.51	716.20
399.70	770.04
399.90	681.10
400.09	751.31
400.28	629.60
400.47	657.69
400.67	847.27
400.86	770.04
401.05	725.57
401.24	695.14
401.44	772.38
401.63	819.19
401.82	812.17
402.01	774.72
402.21	875.36
402.40	816.85
402.59	767.70
402.78	767.70
402.97	805.14
403.17	868.34
403.36	868.34
403.55	791.10
403.74	868.34
403.93	901.11
404.13	835.57
404.32	875.36
404.51	940.90
404.70	880.04
404.89	849.61
405.09	985.37
405.28	819.19
405.47	901.11
405.66	870.68
405.85	908.13
406.05	1076.65
406.24	896.43
406.43	992.39
406.62	1057.92
406.81	1004.09
407.00	950.26
407.20	1130.48
407.39	1006.43
407.58	1004.09
407.77	1041.54
407.96	1041.54
408.15	1053.24
408.34	1100.05
408.54	1118.78
408.73	1088.35
408.92	1153.88
409.11	1135.16
409.30	1020.47
409.49	1025.15
409.68	1067.28
409.87	1095.37
410.07	1142.18
410.26	1186.65
410.45	1179.63
410.64	1261.55
410.83	1273.25
411.02	1167.93
411.21	1207.72
411.40	1280.27
411.59	1289.64
411.78	1315.38
411.98	1196.01
412.17	1380.92
412.36	1266.23
412.55	1275.59
412.74	1284.95
412.93	1392.62
413.12	1273.25
413.31	1474.54
413.50	1355.17
413.69	1453.47
413.88	1362.19
414.07	1441.77
414.26	1380.92
414.45	1411.34
414.64	1390.28
414.83	1530.71
415.02	1544.75
415.22	1526.03
415.41	1462.83
415.60	1577.52
415.79	1551.78
415.98	1621.99
416.17	1589.22
416.36	1610.29
416.55	1605.61
416.74	1610.29
416.93	1614.97
417.12	1687.53
417.31	1750.72
417.50	1687.53
417.69	1778.81
417.88	1811.57
418.07	1776.47
418.26	1741.36
418.45	1753.06
418.64	1799.87
418.83	1678.16
419.02	1741.36
419.21	1804.55
419.39	1825.62
419.58	1760.08
419.77	1863.07
419.96	1834.98
420.15	1839.66
420.34	1877.11
420.53	1825.62
420.72	1813.92
420.91	1900.52
421.10	1877.11
421.29	1806.89
421.48	1895.83
421.67	1982.43
421.86	1795.19
422.05	1940.30
422.24	2010.52
422.43	1980.09
422.61	1928.60
422.80	1980.09
422.99	1973.07
423.18	1935.62
423.37	1963.71
423.56	2052.65
423.75	1994.14
423.94	1947.33
424.13	1863.07
424.32	1961.37
424.50	2097.12
424.69	2071.37
424.88	2106.48
425.07	2118.18
425.26	1977.75
425.45	1996.48
425.64	1996.48
425.83	2031.58
426.01	2052.65
426.20	2111.16
426.39	1954.35
426.58	2057.33
426.77	2073.71
426.96	2050.31
427.15	2139.25
427.33	2040.95
427.52	2078.40
427.71	2153.29
427.90	2162.66
428.09	2256.28
428.28	2204.78
428.46	2113.50
428.65	2232.87
428.84	2221.17
429.03	2197.76
429.22	2239.89
429.40	2282.02
429.59	2190.74
429.78	2113.50
429.97	2120.53
430.16	2361.60
430.34	2258.62
430.53	2317.13
430.72	2286.70
430.91	2230.53
431.10	2291.38
431.28	2359.26
431.47	2520.76
431.66	2499.69
431.85	2368.62
432.03	2300.75
432.22	2366.28
432.41	2392.03
432.60	2356.92
432.79	2492.67
432.97	2408.41
433.16	2448.20
433.35	2417.77
433.54	2532.46
433.72	2462.24
433.91	2555.86
434.10	2516.08
434.28	2480.97
434.47	2544.16
434.66	2600.34
434.85	2597.99
435.03	2642.46
435.22	2546.50
435.41	2747.79
435.59	2623.74
435.78	2586.29
435.97	2717.36
436.16	2654.17
436.34	2719.70
436.53	2630.76
436.72	2782.90
436.90	2600.34
437.09	2726.72
437.28	2684.59
437.46	2614.38
437.65	2696.30
437.84	2675.23
438.02	2677.57
438.21	2771.19
438.40	2717.36
438.58	2710.34
438.77	2871.84
438.96	2848.43
439.14	2867.16
439.33	2972.48
439.52	2951.42
439.70	3000.57
439.89	2965.46
440.08	3023.97
440.26	3136.32
440.45	3178.45
440.63	2991.20
440.82	3094.19
441.01	3173.77
441.19	3131.64
441.38	3274.41
441.57	3176.11
441.75	3213.56
441.94	3346.97
442.12	3346.97
442.31	3379.73
442.50	3243.98
442.68	3419.52
442.87	3155.04
443.05	3323.56
443.24	3370.37
443.43	3330.58
443.61	3370.37
443.80	3449.95
443.98	3386.76
444.17	3325.90
444.35	3419.52
444.54	3403.14
444.73	3403.14
444.91	3314.20
445.10	3445.27
445.28	3452.29
445.47	3222.92
445.65	3454.63
445.84	3386.76
446.02	3286.11
446.21	3412.50
446.39	3386.76
446.58	3510.80
446.77	3555.27
446.95	3428.88
447.14	3391.44
447.32	3557.61
447.51	3492.08
447.69	3651.24
447.88	3522.51
448.06	3449.95
448.25	3555.27
448.43	3524.85
448.62	3508.46
448.80	3548.25
448.99	3548.25
449.17	3524.85
449.36	3447.61
449.54	3616.13
449.73	3669.96
449.91	3669.96
450.10	3653.58
450.28	3686.34
450.46	3770.60
450.65	3726.13
450.83	3728.47
451.02	3772.94
451.20	3761.24
451.39	3768.26
451.57	3698.05
451.76	3674.64
451.94	3950.82
452.13	3861.88
452.31	3803.37
452.49	3852.52
452.68	3840.82
452.86	3782.31
453.05	3791.67
453.23	3988.27
453.42	3866.56
453.60	3880.61
453.78	3985.93
453.97	3925.08
454.15	3803.37
454.34	3929.76
454.52	3999.98
454.70	3967.21
454.89	3995.29
455.07	3939.12
455.26	4159.13
455.44	4102.96
455.62	3995.29
455.81	4114.66
455.99	3999.98
456.17	4081.89
456.36	4159.13
456.54	4142.75
456.73	4322.97
456.91	4351.06
457.09	4215.30
457.28	4308.93
457.46	4219.99
457.64	4463.40
457.83	4273.82
458.01	4119.34
458.19	4257.43
458.38	4463.40
458.56	4397.87
458.74	4409.57
458.93	4362.76
459.11	4535.96
459.29	4447.02
459.48	4465.74
459.66	4379.14
459.84	4442.34
460.03	4568.73
460.21	4564.04
460.39	4393.19
460.57	4514.89
460.76	4507.87
460.94	4753.63
461.12	4524.26
461.31	4652.98
461.49	4601.49
461.67	4727.88
461.85	4889.38
462.04	4674.05
462.22	4865.97
462.40	4648.30
462.59	4774.69
462.77	4746.61
462.95	4751.29
463.13	4786.40
463.32	4940.87
463.50	4704.48
463.68	4814.48
463.86	4891.72
464.05	4716.18
464.23	4940.87
464.41	4837.89
464.59	4779.37
464.78	4910.44
464.96	4994.70
465.14	4826.18
465.32	4901.08
465.50	4987.68
465.69	5027.47
465.87	4957.25
466.05	4966.62
466.23	4835.55
466.41	5057.90
466.60	5373.87
466.78	5046.20
466.96	5008.75
467.14	4961.94
467.32	5158.54
467.51	5149.18
467.69	5011.09
467.87	5118.75
468.05	5205.35
468.23	5254.50
468.41	5191.31
468.60	5043.85
468.78	5118.75
468.96	5163.22
469.14	5282.59
469.32	5207.69
469.50	5191.31
469.69	5266.21
469.87	5376.21
470.05	5406.64
470.23	5350.46
470.41	5298.97
470.59	5495.58
470.77	5334.08
470.95	5418.34
471.14	5575.16
471.32	5338.76
471.50	5469.83
471.68	5507.28
471.86	5673.46
472.04	5575.16
472.22	5659.42
472.40	5647.71
472.58	5762.40
472.77	5802.19
472.95	5762.40
473.13	5877.09
473.31	5806.87
473.49	5823.25
473.67	5713.25
473.85	5832.62
474.03	5994.11
474.21	5844.32
474.39	6033.90
474.57	6038.58
474.75	6207.10
474.93	6127.52
475.12	6022.20
475.30	6246.89
475.48	6125.18
475.66	6228.17
475.84	6202.42
476.02	6324.13
476.20	6363.92
476.38	6333.49
476.56	6422.43
476.74	6511.37
476.92	6520.73
477.10	6509.03
477.28	6450.52
477.46	6647.12
477.64	6602.65
477.82	6654.14
478.00	7009.90
478.18	6911.60
478.36	6942.03
478.54	7105.87
478.72	6963.09
478.90	7199.49
479.08	7157.36
479.26	7260.34
479.44	7222.89
479.62	7225.23
479.80	7382.05
479.98	7302.47
480.16	7412.48
480.34	7524.82
480.52	7681.64
480.70	7571.63
480.88	7623.12
481.06	7676.96
481.24	7644.19
481.41	7744.83
481.59	7981.23
481.77	8168.47
481.95	7871.22
482.13	8070.17
482.31	7969.52
482.49	8187.19
482.67	8248.05
482.85	8238.69
483.03	8456.36
483.21	8636.58
483.39	8599.13
483.57	8517.21
483.74	8575.72
483.92	8732.54
484.10	8723.18
484.28	8908.08
484.46	8753.60
484.64	9135.11
484.82	8994.68
485.00	9055.53
485.18	9025.11
485.35	9397.25
485.53	9174.90
485.71	9338.74
485.89	9444.06
486.07	9401.93
486.25	9502.58
486.43	9483.85
486.61	9680.46
486.78	9736.63
486.96	9680.46
487.14	9893.44
487.32	10068.98
487.50	10281.97
487.68	10127.50
487.85	10347.51
488.03	10562.84
488.21	10471.56
488.39	10382.62
488.57	10693.91
488.75	10663.48
488.92	10810.93
489.10	10860.09
489.28	11110.52
489.46	10979.45
489.64	10993.50
489.81	11220.53
489.99	11108.18
490.17	11300.11
490.35	11487.35
490.53	11410.11
490.70	11576.29
490.88	11777.58
491.06	11688.64
491.24	11726.08
491.41	11653.53
491.59	11983.54
491.77	11726.08
491.95	12025.67
492.13	12060.78
492.30	12091.21
492.48	12414.20
492.66	12142.70
492.84	12248.02
493.01	12374.41
493.19	12533.57
493.37	12741.88
493.54	12538.25
493.72	12877.63
493.90	12812.09
494.08	13062.53
494.25	13212.32
494.43	13060.19
494.61	13212.32
494.79	13245.09
494.96	13078.91
495.14	13298.92
495.32	13631.28
495.49	13350.42
495.67	13397.23
495.85	13568.09
496.02	13916.83
496.20	13706.18
496.38	13619.58
496.55	13802.14
496.73	14143.86
496.91	14008.11
497.09	14118.11
497.26	14291.31
497.44	14195.35
497.62	14513.66
497.79	14457.49
497.97	14424.72
498.14	14684.52
498.32	14710.27
498.50	14972.41
498.67	14785.16
498.85	14874.10
499.03	14960.70
499.20	15080.07
499.38	14939.64
499.56	15229.87
499.73	15260.29
499.91	15087.09
500.08	15295.40
500.26	15220.50
500.44	15585.63
500.61	15330.51
500.79	15239.23
500.97	15868.83
501.14	15817.34
501.32	15967.13
501.49	15798.62
501.67	15822.02
501.84	15861.81
502.02	16023.31
502.20	16032.67
502.37	16173.10
502.55	15695.63
502.72	16018.63
502.90	15894.58
503.07	16114.59
503.25	16196.51
503.43	16276.09
503.60	16517.16
503.78	16439.92
503.95	16580.36
504.13	16531.20
504.30	16278.43
504.48	16505.46
504.65	16634.19
504.83	17071.87
505.01	16725.47
505.18	17067.19
505.36	16947.82
505.53	17067.19
505.71	16868.24
505.88	16851.86
506.06	17240.39
506.23	17284.86
506.41	17029.74
506.58	17341.03
506.76	17240.39
506.93	17153.79
507.11	17252.09
507.28	17624.23
507.46	17699.13
507.63	17556.36
507.81	17734.24
507.98	17844.24
508.16	17933.18
508.33	17596.15
508.50	17909.78
508.68	17954.25
508.85	17965.95
509.03	17879.35
509.20	18134.47
509.38	18239.79
509.55	18237.45
509.73	18331.08
509.90	18466.83
510.08	18356.82
510.25	18230.43
510.42	18480.87
510.60	18583.85
510.77	18459.81
510.95	18775.78
511.12	18492.57
511.30	18668.11
511.47	18899.83
511.64	18480.87
511.82	19040.26
511.99	18953.66
512.17	19101.11
512.34	18705.56
512.51	19112.81
512.69	18841.31
512.86	19101.11
513.04	19613.69
513.21	19351.55
513.38	19496.66
513.56	19421.77
513.73	19346.87
513.90	19161.97
514.08	19248.57
514.25	19466.24
514.43	19550.49
514.60	19634.75
514.77	19433.47
514.95	19859.45
515.12	19653.48
515.29	19468.58
515.47	19854.76
515.64	20166.06
515.81	19915.62
515.99	19953.07
516.16	20257.34
516.33	20107.54
516.51	20496.07
516.68	20208.19
516.85	20004.56
517.03	20276.06
517.20	20404.79
517.37	20315.85
517.54	20315.85
517.72	20493.73
517.89	20262.02
518.06	20346.28
518.24	20652.89
518.41	20512.46
518.58	20636.50
518.75	20676.29
518.93	20978.22
519.10	20879.92
519.27	20938.43
519.45	20706.72
519.62	20926.73
519.79	21025.03
519.96	21254.40
520.14	21104.61
520.31	21050.78
520.48	20980.56
520.65	21385.47
520.83	21160.78
521.00	21130.36
521.17	21228.66
521.34	21184.19
521.52	21507.18
521.69	21589.10
521.86	21659.32
522.03	21783.37
522.20	21289.51
522.38	21518.89
522.55	21235.68
522.72	21610.17
522.89	22024.44
523.07	22132.11
523.24	21820.81
523.41	21994.01
523.58	21809.11
523.75	22017.42
523.92	22082.95
524.10	22033.80
524.27	22012.74
524.44	22293.60
524.61	22740.64
524.78	22087.64
524.96	22340.41
525.13	22281.90
525.30	22457.44
525.47	22391.91
525.64	22483.19
525.81	22588.51
525.98	22778.09
526.16	22728.94
526.33	22567.45
526.50	22796.82
526.67	22607.23
526.84	22567.45
527.01	23040.23
527.18	22862.35
527.36	22696.17
527.53	22689.15
527.70	23161.94
527.87	23342.16
528.04	22991.08
528.21	23005.13
528.38	22979.38
528.55	22974.70
528.72	23028.53
528.89	23070.66
529.07	23555.15
529.24	23201.73
529.41	23220.45
529.58	23323.44
529.75	23426.42
529.92	23297.69
530.09	23091.73
530.26	23775.16
530.43	23274.29
530.60	23597.28
530.77	23489.62
530.94	23903.89
531.11	23573.88
531.28	23723.67
531.46	23590.26
531.63	23634.73
531.80	23459.19
531.97	23630.05
532.14	23903.89
532.31	23894.53
532.48	24140.29
532.65	23821.97
532.82	23896.87
532.99	24599.03
533.16	24023.26
533.33	24479.66
533.50	24498.39
533.67	24416.47
533.84	24081.77
534.01	24240.93
534.18	24198.80
534.35	24379.02
534.52	24400.08
534.69	24383.70
534.86	24521.79
535.03	24212.84
535.20	24662.22
535.37	24697.33
535.54	24709.04
535.71	24276.04
535.88	24615.41
536.05	24332.21
536.22	24760.53
536.38	24968.84
536.55	24790.95
536.72	24587.33
536.89	24762.87
537.06	24683.29
537.23	24683.29
537.40	24954.79
537.57	25202.89
537.74	25240.34
537.91	25069.48
538.08	25226.29
538.25	24980.54
538.42	25216.93
538.59	25242.68
538.75	25048.41
538.92	24978.20
539.09	25462.69
539.26	25228.63
539.43	25310.55
539.60	25329.28
539.77	25392.47
539.94	25539.93
540.11	25245.02
540.28	25338.64
540.44	25649.93
540.61	25497.80
540.78	25366.73
540.95	25556.31
541.12	25132.67
541.29	25469.71
541.46	25743.55
541.62	25413.54
541.79	25378.43
541.96	25624.18
542.13	25228.63
542.30	25823.13
542.47	25752.91
542.63	25722.49
542.80	26246.77
542.97	26436.35
543.14	26085.27
543.31	25682.70
543.48	26005.69
543.64	26335.71
543.81	26300.60
543.98	26370.82
544.15	26319.32
544.32	26162.51
544.48	26745.30
544.65	26326.35
544.82	26349.75
544.99	26024.42
545.16	26581.46
545.32	26214.00
545.49	26593.17
545.66	26476.14
545.83	26810.84
546.00	26639.98
546.16	26597.85
546.33	26576.78
546.50	26321.66
546.67	26300.60
546.83	26548.70
547.00	26764.03
547.17	26731.26
547.34	26965.31
547.50	26656.36
547.67	27061.27
547.84	26780.41
548.00	27080.00
548.17	26871.69
548.34	27049.57
548.51	27194.68
548.67	27012.12
548.84	26932.54
549.01	26602.53
549.18	26862.33
549.34	27054.25
549.51	27012.12
549.68	27157.24
549.84	27187.66
550.01	27213.41
550.18	26857.65
550.34	27042.55
550.51	27431.08
550.68	27246.18
550.84	26953.61
551.01	27377.25
551.18	26977.01
551.34	27264.90
551.51	26946.59
551.68	27080.00
551.84	27510.66
552.01	27438.10
552.18	27634.71
552.34	27798.54
552.51	27623.00
552.68	27498.95
552.84	27791.52
553.01	27709.60
553.18	27803.22
553.34	27491.93
553.51	27590.24
553.67	27606.62
553.84	28147.28
554.01	28217.50
554.17	27805.56
554.34	27828.97
554.51	27777.48
554.67	27833.65
554.84	27786.84
555.00	27461.51
555.17	28112.17
555.33	28107.49
555.50	27477.89
555.67	28051.32
555.83	28027.92
556.00	28397.72
556.16	28437.51
556.33	27988.13
556.50	28460.91
556.66	27889.82
556.83	28182.39
556.99	28182.39
557.16	28327.50
557.32	28301.76
557.49	28416.44
557.65	27871.10
557.82	28353.25
557.98	28322.82
558.15	28041.96
558.32	27981.10
558.48	28395.38
558.65	28203.46
558.81	28685.61
558.98	28283.03
559.14	28479.64
559.31	28631.77
559.47	28575.60
559.64	28416.44
559.80	28407.08
559.97	28694.97
560.13	28517.09
560.30	28261.97
560.46	28580.28
560.63	28486.66
560.79	28493.68
560.96	28381.34
561.12	28636.45
561.29	28449.21
561.45	28629.43
561.61	28961.79
561.78	28910.30
561.94	29032.00
562.11	29184.14
562.27	28669.22
562.44	28980.51
562.60	28212.82
562.77	28673.90
562.93	28575.60
563.10	28765.18
563.26	28741.78
563.42	28744.12
563.59	28903.28
563.75	28594.32
563.92	28903.28
564.08	28659.86
564.24	28966.47
564.41	28711.35
564.57	29003.92
564.74	28709.01
564.90	28886.89
565.07	29429.90
565.23	28601.35
565.39	28893.91
565.56	29333.93
565.72	29057.75
565.88	28800.29
566.05	29062.43
566.21	28788.59
566.38	28790.93
566.54	28732.42
566.70	29233.29
566.87	29434.58
567.03	29397.13
567.19	29390.11
567.36	29333.93
567.52	29202.86
567.68	29125.63
567.85	29060.09
568.01	29495.43
568.17	29132.65
568.34	29055.41
568.50	29032.00
568.66	29532.88
568.83	29460.32
568.99	29282.44
569.15	28975.83
569.32	29120.95
569.48	28802.63
569.64	29163.08
569.81	29376.06
569.97	29116.26
570.13	29394.79
570.30	29104.56
570.46	29127.97
570.62	29479.05
570.78	28882.21
570.95	29359.68
571.11	28919.66
571.27	28851.78
571.43	29308.19
571.60	29233.29
571.76	29149.03
571.92	29425.22
572.09	29317.55
572.25	29319.89
572.41	29401.81
572.57	29465.00
572.74	29434.58
572.90	29369.04
573.06	29411.17
573.22	29422.87
573.38	29139.67
573.55	29357.34
573.71	29685.01
573.87	29544.58
574.03	29738.85
574.20	29282.44
574.36	29237.97
574.52	28886.89
574.68	29441.60
574.84	29734.17
575.01	29378.40
575.17	29872.26
575.33	29256.70
575.49	29270.74
575.65	29425.22
575.82	29546.92
575.98	29106.90
576.14	29610.12
576.30	29647.57
576.46	29317.55
576.62	29640.54
576.79	29649.91
576.95	29244.99
577.11	29699.06
577.27	29390.11
577.43	29317.55
577.59	29626.50
577.75	29816.08
577.92	29450.96
578.08	29453.30
578.24	29457.98
578.40	29427.56
578.56	29329.25
578.72	29696.72
578.88	29869.92
579.04	29649.91
579.21	29319.89
579.37	29579.69
579.53	29488.41
579.69	29165.42
579.85	29717.78
580.01	29706.08
580.17	29465.00
580.33	29631.18
580.49	29340.96
580.65	29612.46
580.82	29900.34
580.98	29905.02
581.14	29476.71
581.30	29724.80
581.46	29525.86
581.62	29472.03
581.78	29472.03
581.94	29736.51
582.10	29556.28
582.26	29771.61
582.42	29560.97
582.58	29558.63
582.74	29577.35
582.90	29546.92
583.06	29670.97
583.22	29645.23
583.38	29633.52
583.54	29490.75
583.70	29219.25
583.86	29715.44
584.02	29813.74
584.18	30019.71
584.34	29453.30
584.50	29792.68
584.66	29062.43
584.82	29605.44
584.98	29834.81
585.14	29614.80
585.30	29099.88
585.46	29778.64
585.62	29535.22
585.78	29703.74
585.94	29207.55
586.10	29617.14
586.26	29837.15
586.42	30010.35
586.58	29729.48
586.74	29764.59
586.90	29200.52
587.06	29350.32
587.22	29766.93
587.38	29244.99
587.54	29476.71
587.70	29991.62
587.86	29991.62
588.02	30281.85
588.18	30335.68
588.34	29497.77
588.49	29741.19
588.65	29537.56
588.81	29710.76
588.97	29673.31
589.13	29813.74
589.29	29862.90
589.45	29851.19
589.61	30000.99
589.77	30190.57
589.93	30258.45
590.08	30438.67
590.24	29907.37
590.40	30096.95
590.56	30075.88
590.72	29493.09
590.88	29612.46
591.04	29685.01
591.20	30256.11
591.35	29872.26
591.51	30721.87
591.67	30225.68
591.83	30380.15
591.99	29792.68
592.15	30370.79
592.31	30183.55
592.46	29785.66
592.62	29729.48
592.78	29844.17
592.94	29724.80
593.10	30127.38
593.26	30253.76
593.41	29862.90
593.57	30368.45
593.73	30167.16
593.89	30429.30
594.05	30071.20
594.20	29591.39
594.36	29846.51
594.52	29776.30
594.68	30068.86
594.84	29912.05
594.99	30274.83
595.15	30319.30
595.31	30333.34
595.47	30473.78
595.62	30338.02
595.78	30033.75
595.94	30054.82
596.10	30237.38
596.25	30153.12
596.41	30022.05
596.57	29722.46
596.73	29895.66
596.88	30232.70
597.04	30270.15
597.20	30572.08
597.36	30230.36
597.51	30347.39
597.67	30045.46
597.83	30115.67
597.99	30483.14
598.14	29984.60
598.30	30251.42
598.46	29956.52
598.61	30113.33
598.77	29935.45
598.93	30242.06
599.09	30307.60
599.24	30478.46
599.40	30579.10
599.56	30302.92
599.71	30305.26
599.87	30356.75
600.03	30366.11
600.18	30506.54
600.34	30457.39
600.50	30141.42
600.65	30199.93
600.81	30419.94
600.97	30635.27
601.12	30525.27
601.28	30213.98
601.44	30251.42
601.59	30590.80
601.75	30298.23
601.91	30452.71
602.06	30136.74
602.22	30127.38
602.37	30312.28
602.53	30625.91
602.69	30417.60
602.84	30604.84
603.00	30391.86
603.16	30298.23
603.31	30441.01
603.47	30274.83
603.62	30249.08
603.78	30174.19
603.94	29935.45
604.09	30209.29
604.25	29902.68
604.40	29942.47
604.56	30256.11
604.71	30752.30
604.87	30354.41
605.03	30218.66
605.18	30272.49
605.34	30595.48
605.49	29806.72
605.65	29930.77
605.80	29914.39
605.96	29961.20
606.12	30064.18
606.27	30319.30
606.43	30312.28
606.58	30277.17
606.74	30328.66
606.89	30572.08
607.05	30597.82
607.20	30125.04
607.36	30338.02
607.51	30277.17
607.67	30129.72
607.82	30017.37
607.98	30359.09
608.13	30038.44
608.29	30246.74
608.44	30586.12
608.60	30012.69
608.75	30174.19
608.91	30492.50
609.06	30087.59
609.22	30256.11
609.37	29748.21
609.53	29841.83
609.68	29949.50
609.84	29914.39
609.99	30106.31
610.15	30157.80
610.30	30398.88
610.46	30047.80
610.61	29619.48
610.76	30178.87
610.92	29858.21
611.07	30052.48
611.23	29741.19
611.38	29888.64
611.54	29827.79
611.69	29598.41
611.84	29558.63
612.00	29619.48
612.15	29308.19
612.31	30101.63
612.46	29965.88
612.62	29968.22
612.77	29567.99
612.92	30017.37
613.08	29647.57
613.23	30094.61
613.39	29806.72
613.54	29462.66
613.69	29685.01
613.85	29439.26
614.00	29401.81
614.15	30015.03
614.31	29516.50
614.46	29895.66
614.62	29724.80
614.77	29984.60
614.92	29645.23
615.08	29687.36
615.23	29563.31
615.38	29785.66
615.54	29308.19
615.69	29481.39
615.84	29216.91
616.00	29673.31
616.15	29532.88
616.30	29666.29
616.46	29893.32
616.61	29567.99
616.76	29736.51
616.92	29214.57
617.07	29645.23
617.22	29240.31
617.37	29249.67
617.53	29479.05
617.68	29390.11
617.83	29357.34
617.99	28737.10
618.14	29235.63
618.29	29357.34
618.45	29359.68
618.60	29350.32
618.75	29469.69
618.90	29565.65
619.06	29490.75
619.21	29221.59
619.36	29347.98
619.51	29113.92
619.67	28811.99
619.82	29624.16
619.97	29420.53
620.12	28917.32
620.28	28442.19
620.43	29254.36
620.58	29465.00
620.73	29081.16
620.89	29043.71
621.04	29158.39
621.19	29118.60
621.34	28959.45
621.49	28914.98
621.65	28821.36
621.80	29252.02
621.95	28919.66
622.10	29179.46
622.25	28692.63
622.41	29151.37
622.56	28865.83
622.71	29064.77
622.86	28914.98
623.01	28924.34
623.16	28849.44
623.32	29102.22
623.47	28961.79
623.62	28556.88
623.77	28559.22
623.92	28788.59
624.07	28713.69
624.23	28919.66
624.38	28748.80
624.53	28840.08
624.68	28900.94
624.83	28807.31
624.98	28781.57
625.13	28690.29
625.29	28891.57
625.44	28517.09
625.59	28624.75
625.74	28479.64
625.89	28739.44
626.04	28472.62
626.19	28559.22
626.34	28559.22
626.49	28107.49
626.65	28325.16
626.80	28589.64
626.95	28182.39
627.10	28226.86
627.25	28386.02
627.40	28044.30
627.55	28205.80
627.70	28102.81
627.85	27866.42
628.00	28058.34
628.15	28400.06
628.30	27974.08
628.45	27805.56
628.60	28168.35
628.76	28341.55
628.91	28084.09
629.06	28051.32
629.21	28196.43
629.36	28500.70
629.51	27922.59
629.66	28194.09
629.81	28060.68
629.96	27716.62
630.11	27784.50
630.26	27697.90
630.41	28184.73
630.56	28011.53
630.71	27861.74
630.86	28041.96
631.01	27826.63
631.16	28112.17
631.31	27931.95
631.46	27768.12
631.61	28177.71
631.76	27789.18
631.91	27552.79
632.06	27534.06
632.21	27599.60
632.36	28105.15
632.51	27374.91
632.66	27754.07
632.81	27522.36
632.96	27796.20
633.10	27620.66
633.25	27784.50
633.40	27548.11
633.55	27653.43
633.70	27431.08
633.85	27545.76
634.00	27484.91
634.15	27459.16
634.30	27665.13
634.45	27527.04
634.60	27445.12
634.75	27552.79
634.90	27199.37
635.05	27751.73
635.19	27304.69
635.34	27555.13
635.49	27695.56
635.64	27632.36
635.79	27660.45
635.94	27297.67
636.09	27372.57
636.24	27115.11
636.39	27068.30
636.53	27271.92
636.68	27028.51
636.83	27009.78
636.98	27672.15
637.13	27190.00
637.28	27360.86
637.43	27433.42
637.57	27339.80
637.72	27164.26
637.87	27449.80
638.02	27229.79
638.17	26918.50
638.32	27091.70
638.46	26588.49
638.61	26902.12
638.76	26448.05
638.91	26658.70
639.06	26892.76
639.20	26883.39
639.35	27115.11
639.50	27250.86
639.65	27185.32
639.80	27044.89
639.94	27213.41
640.09	27145.53
640.24	26955.95
640.39	26867.01
640.54	26824.88
640.68	26845.94
640.83	27023.83
640.98	26574.44
641.13	26480.82
641.27	26656.36
641.42	26918.50
641.57	26817.86
641.72	26574.44
641.86	26623.59
642.01	26539.33
642.16	26518.27
642.31	26796.79
642.45	26185.91
642.60	26389.54
642.75	26953.61
642.90	26405.92
643.04	26515.93
643.19	26628.27
643.34	26422.31
643.48	26483.16
643.63	26476.14
643.78	26527.63
643.93	26511.25
644.07	26513.59
644.22	26679.77
644.37	26185.91
644.51	26670.40
644.66	26190.59
644.81	26267.83
644.95	26286.56
645.10	26403.58
645.25	26068.89
645.39	25956.54
645.54	26335.71
645.69	26153.15
645.83	26160.17
645.98	26380.18
646.13	26096.97
646.27	26621.25
646.42	26038.46
646.57	26347.41
646.71	25895.69
646.86	26183.57
647.00	26445.71
647.15	26260.81
647.30	26134.42
647.44	25956.54
647.59	25783.34
647.74	26127.40
647.88	25965.90
648.03	25926.11
648.17	26057.18
648.32	26094.63
648.47	25965.90
648.61	25647.59
648.76	26185.91
648.90	25790.36
649.05	25912.07
649.20	25975.27
649.34	25923.77
649.49	25579.71
649.63	25518.86
649.78	25685.04
649.92	25404.17
650.07	25771.64
650.21	25610.14
650.36	25638.23
650.51	25455.67
650.65	25558.65
650.80	25722.49
650.94	25804.41
651.09	25371.41
651.23	25591.42
651.38	25376.09
651.52	25142.03
651.67	25607.80
651.81	25605.46
651.96	25795.04
652.10	25439.28
652.25	25380.77
652.39	25937.82
652.54	25633.55
652.68	25570.35
652.83	26071.23
652.97	25757.60
653.12	25455.67
653.26	25493.12
653.41	25621.84
653.55	25376.09
653.70	25458.01
653.84	25127.99
653.99	25078.84
654.13	25350.34
654.27	25202.89
654.42	24959.47
654.56	25371.41
654.71	25680.36
654.85	25247.36
655.00	25151.40
655.14	25502.48
655.29	25516.52
655.43	25249.70
655.57	24847.13
655.72	25324.60
655.86	25020.33
656.01	25312.89
656.15	24769.89
656.30	24959.47
656.44	24926.71
656.58	24816.70
656.73	24973.52
656.87	24472.64
657.01	24936.07
657.16	25102.25
657.30	25067.14
657.45	25135.01
657.59	24776.91
657.73	24870.53
657.88	24669.25
658.02	24809.68
658.16	24762.87
658.31	24720.74
658.45	24563.92
658.60	24489.03
658.74	24982.88
658.88	24205.82
659.03	24510.09
659.17	24402.43
659.31	25102.25
659.46	24582.65
659.60	24402.43
659.74	24507.75
659.89	24458.60
660.03	24238.59
660.17	24540.52
660.32	24257.31
660.46	24273.70
660.60	24402.43
660.74	24025.60
660.89	24383.70
661.03	23843.04
661.17	24053.69
661.32	24453.92
661.46	24224.54
661.60	23819.63
661.74	24222.20
661.89	24212.84
662.03	24364.98
662.17	23957.72
662.31	23763.46
662.46	24247.95
662.60	24121.56
662.74	23697.92
662.88	23779.84
663.03	23866.44
663.17	23293.01
663.31	23150.24
663.45	23501.32
663.60	23859.42
663.74	23370.25
663.88	23833.68
664.02	23522.38
664.17	23807.93
664.31	23805.59
664.45	23714.31
664.59	23604.30
664.73	23442.81
664.88	23227.48
665.02	22951.29
665.16	23058.96
665.30	23658.14
665.44	23330.46
665.59	22885.76
665.73	23293.01
665.87	22913.84
666.01	23073.00
666.15	23543.45
666.29	23058.96
666.44	23426.42
666.58	23056.62
666.72	22789.80
666.86	23152.58
667.00	22930.23
667.14	22670.43
667.28	22611.92
667.43	22745.33
667.57	23318.76
667.71	22593.19
667.85	22628.30
667.99	22527.66
668.13	22803.84
668.27	22548.72
668.41	23026.19
668.56	22569.79
668.70	22436.38
668.84	22827.24
668.98	22867.03
669.12	22574.47
669.26	22686.81
669.40	22728.94
669.54	22424.67
669.68	22202.32
669.82	22389.56
669.96	22197.64
670.10	22335.73
670.25	22101.68
670.39	22150.83
670.53	22249.13
670.67	22036.14
670.81	22089.98
670.95	21738.90
671.09	22073.59
671.23	22221.05
671.37	22101.68
671.51	22097.00
671.65	22298.28
671.79	21781.03
671.93	22001.04
672.07	21947.20
672.21	21561.02
672.35	21310.58
672.49	21469.73
672.63	21778.68
672.77	21617.19
672.91	21418.24
673.05	21535.27
673.19	21731.87
673.33	21383.13
673.47	21624.21
673.61	21357.39
673.75	21626.55
673.89	21642.93
674.03	21481.44
674.17	20971.20
674.31	21364.41
674.45	20727.78
674.59	20931.41
674.73	21184.19
674.87	20980.56
675.01	20828.43
675.15	20840.13
675.29	20664.59
675.43	20746.51
675.56	20592.03
675.70	20940.77
675.84	20683.31
675.98	20432.88
676.12	20762.89
676.26	20709.06
676.40	20601.40
676.54	20547.56
676.68	20229.25
676.82	20039.67
676.96	20435.22
677.10	20294.79
677.23	19924.98
677.37	20177.76
677.51	20109.88
677.65	20018.60
677.79	19585.60
677.93	19814.98
678.07	19482.62
678.21	19784.55
678.34	19482.62
678.48	19419.42
678.62	19824.34
678.76	19527.09
678.90	19140.90
679.04	19515.39
679.18	19407.72
679.31	19054.30
679.45	19084.73
679.59	18817.91
679.73	18979.40
679.87	18923.23
680.00	19066.00
680.14	18808.54
680.28	18794.50
680.42	18728.97
680.56	18904.51
680.70	18803.86
680.83	18965.36
680.97	18838.97
681.11	18740.67
681.25	18565.13
681.39	18398.95
681.52	18525.34
681.66	18534.70
681.80	18389.59
681.94	18036.17
682.07	18300.65
682.21	17996.38
682.35	17799.77
682.49	18003.40
682.62	17914.46
682.76	18047.87
682.90	17645.30
683.04	17687.43
683.17	17923.82
683.31	17675.73
683.45	17703.81
683.59	17547.00
683.72	17820.84
683.86	17469.76
684.00	17483.80
684.13	17387.84
684.27	17645.30
684.41	17336.35
684.55	17179.53
684.68	17202.94
684.82	17331.67
684.96	17142.08
685.09	17090.59
685.23	16861.22
685.37	17006.33
685.50	16933.78
685.64	16931.44
685.78	16973.56
685.91	16870.58
686.05	17064.85
686.19	16856.54
686.32	16688.02
686.46	16386.09
686.60	16332.26
686.73	16383.75
686.87	16182.46
687.01	16128.63
687.14	15927.35
687.28	16044.37
687.42	15932.03
687.55	16067.78
687.69	16100.55
687.82	15957.77
687.96	15896.92
688.10	15936.71
688.23	15817.34
688.37	16056.08
688.50	15632.44
688.64	15791.59
688.78	15566.90
688.91	15662.86
689.05	15428.81
689.18	15328.17
689.32	15297.74
689.46	15054.33
689.59	15220.50
689.73	15199.44
689.86	15222.84
690.00	15330.51
690.13	15077.73
690.27	15089.43
690.41	15143.27
690.54	14951.34
690.68	14937.30
690.81	14888.15
690.95	14941.98
691.08	14764.10
691.22	14799.21
691.35	14544.09
691.49	14616.65
691.62	14565.15
691.76	14398.98
691.89	14347.48
692.03	14347.48
692.16	14043.21
692.30	14310.04
692.43	14209.39
692.57	13987.04
692.70	14071.30
692.84	13989.38
692.97	13806.82
693.11	14162.58
693.24	13731.92
693.38	14003.43
693.51	13818.52
693.65	13764.69
693.78	13785.76
693.92	13575.11
694.05	13846.61
694.19	13633.62
694.32	13540.00
694.45	13614.90
694.59	13270.84
694.72	13408.93
694.86	13467.44
694.99	12961.89
695.13	13029.76
695.26	13207.64
695.39	12812.09
695.53	12854.22
695.66	12996.99
695.80	12996.99
695.93	12957.21
696.07	12816.77
696.20	12950.18
696.33	12849.54
696.47	12786.35
696.60	12650.60
696.73	12638.89
696.87	12418.88
697.00	12383.77
697.14	12051.42
697.27	12140.36
697.40	12121.63
697.54	12100.57
697.67	12208.23
697.80	12135.68
697.94	12011.63
698.07	11957.80
698.21	11861.84
698.34	12184.83
698.47	12016.31
698.61	11913.33
698.74	12121.63
698.87	11740.13
699.01	11625.44
699.14	11473.31
699.27	11487.35
699.40	11623.10
699.54	11681.61
699.67	11534.16
699.80	11405.43
699.94	11351.60
700.07	11452.24
700.20	11059.03
700.34	11220.53
700.47	11316.49
700.60	11342.24
700.73	11307.13
700.87	11147.97
701.00	11005.20
701.13	11103.50
701.26	10988.82
701.40	11096.48
701.53	10752.42
701.66	10920.94
701.79	10682.20
701.93	10860.09
702.06	10771.15
702.19	10506.66
702.32	10228.14
702.46	10480.92
702.59	10265.59
702.72	10527.73
702.85	10188.35
702.99	10176.65
703.12	10380.28
703.25	10059.62
703.38	10218.78
703.51	10153.24
703.65	10164.95
703.78	10029.20
703.91	10022.17
704.04	10221.12
704.17	9994.09
704.31	9923.87
704.44	9856.00
704.57	9994.09
704.70	9652.37
704.83	9476.83
704.96	9696.84
705.10	9626.62
705.23	9483.85
>>>>>End Processed Spectral Data<<<<<
