SpectraSuite Data File
++++++++++++++++++++++++++++++++++++
Date: Fri Oct 18 13:58:11 GMT-05:00 2013
User: bianchi
Dark Spectrum Present: No
Reference Spectrum Present: No
Number of Sampled Component Spectra: 1
Spectrometers: USB2+H05261
Integration Time (usec): 50000 (USB2+H05261)
Spectra Averaged: 1 (USB2+H05261)
Boxcar Smoothing: 0 (USB2+H05261)
Correct for Electrical Dark: No (USB2+H05261)
Strobe/Lamp Enabled: No (USB2+H05261)
Correct for Detector Non-linearity: No (USB2+H05261)
Correct for Stray Light: No (USB2+H05261)
Number of Pixels in Processed Spectrum: 2048
>>>>>Begin Processed Spectral Data<<<<<
365.73	0.00
365.92	0.00
366.12	0.00
366.32	0.00
366.52	0.00
366.72	0.00
366.91	0.00
367.11	0.00
367.31	0.00
367.51	0.00
367.70	0.00
367.90	0.00
368.10	0.00
368.30	0.00
368.49	0.00
368.69	0.00
368.89	0.00
369.09	0.00
369.28	0.00
369.48	0.00
369.68	0.00
369.87	0.00
370.07	0.00
370.27	0.00
370.47	0.00
370.66	112.35
370.86	98.30
371.06	79.58
371.25	140.43
371.45	93.62
371.65	191.92
371.84	180.22
372.04	147.45
372.24	124.05
372.44	269.16
372.63	245.76
372.83	147.45
373.03	252.78
373.22	187.24
373.42	273.84
373.62	224.69
373.81	234.05
374.01	264.48
374.21	229.37
374.40	297.25
374.60	257.46
374.79	212.99
374.99	250.44
375.19	236.39
375.38	278.52
375.58	203.63
375.78	287.89
375.97	325.33
376.17	262.14
376.37	241.08
376.56	290.23
376.76	252.78
376.95	306.61
377.15	290.23
377.35	257.46
377.54	285.55
377.74	252.78
377.93	269.16
378.13	266.82
378.33	351.08
378.52	273.84
378.72	290.23
378.91	290.23
379.11	287.89
379.31	337.04
379.50	327.68
379.70	271.50
379.89	308.95
380.09	278.52
380.28	315.97
380.48	315.97
380.68	271.50
380.87	278.52
381.07	353.42
381.26	383.85
381.46	292.57
381.65	311.29
381.85	332.36
382.04	266.82
382.24	320.65
382.43	337.04
382.63	313.63
382.83	376.83
383.02	442.36
383.22	362.78
383.41	313.63
383.61	360.44
383.80	390.87
384.00	383.85
384.19	315.97
384.39	285.55
384.58	372.15
384.78	379.17
384.97	440.02
385.17	313.63
385.36	365.12
385.56	458.74
385.75	404.91
385.95	400.23
386.14	435.34
386.34	449.38
386.53	437.68
386.72	425.98
386.92	430.66
387.11	390.87
387.31	421.30
387.50	437.68
387.70	461.09
387.89	400.23
388.09	468.11
388.28	421.30
388.48	461.09
388.67	489.17
388.86	440.02
389.06	411.93
389.25	538.32
389.45	489.17
389.64	447.04
389.84	566.41
390.03	533.64
390.22	491.51
390.42	468.11
390.61	489.17
390.81	561.73
391.00	573.43
391.19	465.77
391.39	510.24
391.58	531.30
391.78	519.60
391.97	503.22
392.16	498.53
392.36	524.28
392.55	564.07
392.75	550.03
392.94	596.84
393.13	578.11
393.33	559.39
393.52	559.39
393.71	660.03
393.91	594.50
394.10	535.98
394.29	622.58
394.49	512.58
394.68	526.62
394.88	575.77
395.07	657.69
395.26	702.16
395.46	660.03
395.65	629.60
395.84	690.46
396.04	676.41
396.23	671.73
396.42	573.43
396.62	636.63
396.81	657.69
397.00	627.26
397.19	648.33
397.39	741.95
397.58	674.07
397.77	631.94
397.97	690.46
398.16	681.10
398.35	695.14
398.55	739.61
398.74	662.37
398.93	788.76
399.12	753.65
399.32	662.37
399.51	746.63
399.70	711.52
399.90	805.14
400.09	849.61
400.28	627.26
400.47	767.70
400.67	819.19
400.86	788.76
401.05	809.83
401.24	812.17
401.44	828.55
401.63	767.70
401.82	826.21
402.01	737.27
402.21	887.06
402.40	898.77
402.59	826.21
402.78	802.80
402.97	887.06
403.17	833.23
403.36	917.49
403.55	779.40
403.74	866.00
403.93	940.90
404.13	994.73
404.32	854.30
404.51	987.71
404.70	889.40
404.89	978.34
405.09	894.08
405.28	922.17
405.47	976.00
405.66	994.73
405.85	880.04
406.05	926.85
406.24	1100.05
406.43	999.41
406.62	1001.75
406.81	1114.10
407.00	1011.11
407.20	1053.24
407.39	1107.07
407.58	1048.56
407.77	1137.50
407.96	987.71
408.15	1032.18
408.34	1090.69
408.54	1067.28
408.73	1186.65
408.92	1095.37
409.11	1149.20
409.30	1107.07
409.49	1125.80
409.68	1156.22
409.87	1207.72
410.07	1181.97
410.26	1163.25
410.45	1219.42
410.64	1200.69
410.83	1205.38
411.02	1259.21
411.21	1313.04
411.40	1301.34
411.59	1196.01
411.78	1334.11
411.98	1280.27
412.17	1287.29
412.36	1301.34
412.55	1303.68
412.74	1306.02
412.93	1362.19
413.12	1289.64
413.31	1401.98
413.50	1427.73
413.69	1441.77
413.88	1462.83
414.07	1427.73
414.26	1523.69
414.45	1467.52
414.64	1514.33
414.83	1460.49
415.02	1394.96
415.22	1554.12
415.41	1549.43
415.60	1519.01
415.79	1523.69
415.98	1640.72
416.17	1673.48
416.36	1652.42
416.55	1561.14
416.74	1760.08
416.93	1699.23
417.12	1753.06
417.31	1650.08
417.50	1722.63
417.69	1872.43
417.88	1825.62
418.07	1736.68
418.26	1769.44
418.45	1771.79
418.64	1762.42
418.83	1762.42
419.02	1760.08
419.21	1830.30
419.39	1783.49
419.58	1863.07
419.77	1748.38
419.96	1886.47
420.15	1830.30
420.34	1907.54
420.53	1888.81
420.72	2001.16
420.91	1991.80
421.10	1902.86
421.29	1975.41
421.48	2026.90
421.67	1996.48
421.86	2012.86
422.05	1982.43
422.24	2038.61
422.43	2031.58
422.61	2045.63
422.80	2017.54
422.99	2040.95
423.18	2038.61
423.37	2104.14
423.56	2090.10
423.75	1991.80
423.94	1987.11
424.13	1994.14
424.32	1898.17
424.50	2111.16
424.69	2059.67
424.88	2094.78
425.07	2017.54
425.26	2019.88
425.45	2054.99
425.64	1980.09
425.83	2071.37
426.01	2083.08
426.20	2008.18
426.39	2118.18
426.58	2111.16
426.77	2052.65
426.96	2174.36
427.15	2155.63
427.33	2167.34
427.52	2179.04
427.71	2179.04
427.90	2106.48
428.09	2122.87
428.28	2165.00
428.46	2249.25
428.65	2214.15
428.84	2324.15
429.03	2361.60
429.22	2167.34
429.40	2401.39
429.59	2249.25
429.78	2216.49
429.97	2188.40
430.16	2249.25
430.34	2459.90
430.53	2427.14
430.72	2338.20
430.91	2272.66
431.10	2214.15
431.28	2464.58
431.47	2471.61
431.66	2429.48
431.85	2445.86
432.03	2441.18
432.22	2438.84
432.41	2476.29
432.60	2443.52
432.79	2361.60
432.97	2473.95
433.16	2616.72
433.35	2377.98
433.54	2602.68
433.72	2572.25
433.91	2518.42
434.10	2621.40
434.28	2616.72
434.47	2523.10
434.66	2621.40
434.85	2661.19
435.03	2677.57
435.22	2630.76
435.41	2834.39
435.59	2597.99
435.78	2677.57
435.97	2605.02
436.16	2736.09
436.34	2693.96
436.53	2642.46
436.72	2888.22
436.90	2773.53
437.09	2813.32
437.28	2766.51
437.46	2818.00
437.65	2853.11
437.84	2853.11
438.02	2754.81
438.21	2984.18
438.40	2759.49
438.58	3047.38
438.77	2974.82
438.96	2846.09
439.14	2888.22
439.33	2995.89
439.52	2946.73
439.70	3129.30
439.89	3061.42
440.08	2953.76
440.26	3026.31
440.45	3129.30
440.63	3194.83
440.82	3166.74
441.01	3178.45
441.19	3187.81
441.38	3328.24
441.57	3176.11
441.75	3281.43
441.94	3208.87
442.12	3342.28
442.31	3304.84
442.50	3405.48
442.68	3351.65
442.87	3370.37
443.05	3426.54
443.24	3361.01
443.43	3351.65
443.61	3571.66
443.80	3545.91
443.98	3311.86
444.17	3339.94
444.35	3478.04
444.54	3302.50
444.73	3489.74
444.91	3566.98
445.10	3449.95
445.28	3566.98
445.47	3400.80
445.65	3391.44
445.84	3595.06
446.02	3501.44
446.21	3499.10
446.39	3351.65
446.58	3417.18
446.77	3541.23
446.95	3410.16
447.14	3456.97
447.32	3562.30
447.51	3576.34
447.69	3602.08
447.88	3578.68
448.06	3581.02
448.25	3616.13
448.43	3590.38
448.62	3536.55
448.80	3618.47
448.99	3684.00
449.17	3737.84
449.36	3559.95
449.54	3801.03
449.73	3875.93
449.91	3735.50
450.10	3822.09
450.28	3805.71
450.46	3777.62
450.65	3894.65
450.83	3861.88
451.02	3758.90
451.20	3946.14
451.39	3880.61
451.57	3925.08
451.76	4004.66
451.94	3822.09
452.13	3925.08
452.31	3885.29
452.49	3843.16
452.68	3922.74
452.86	3925.08
453.05	4004.66
453.23	4051.47
453.42	3770.60
453.60	3927.42
453.78	4133.39
453.97	3920.40
454.15	4067.85
454.34	4018.70
454.52	4100.62
454.70	3983.59
454.89	3992.95
455.07	3904.01
455.26	4194.24
455.44	4201.26
455.62	4112.32
455.81	4210.62
455.99	4140.41
456.17	4135.73
456.36	4250.41
456.54	4365.10
456.73	4376.80
456.91	4425.95
457.09	4374.46
457.28	4365.10
457.46	4397.87
457.64	4484.47
457.83	4437.66
458.01	4327.65
458.19	4557.02
458.38	4493.83
458.56	4585.11
458.74	4498.51
458.93	4442.34
459.11	4573.41
459.29	4533.62
459.48	4535.96
459.66	4578.09
459.84	4566.39
460.03	4650.64
460.21	4620.22
460.39	4603.83
460.57	4550.00
460.76	4582.77
460.94	4683.41
461.12	4741.93
461.31	4580.43
461.49	4606.17
461.67	4634.26
461.85	4842.57
462.04	4716.18
462.22	5078.96
462.40	4873.00
462.59	4781.71
462.77	4774.69
462.95	4889.38
463.13	4823.84
463.32	4840.23
463.50	4929.17
463.68	4926.83
463.86	4964.28
464.05	4931.51
464.23	4926.83
464.41	4987.68
464.59	4847.25
464.78	5135.14
464.96	5104.71
465.14	4842.57
465.32	4954.91
465.50	5167.90
465.69	5291.95
465.87	5008.75
466.05	4983.00
466.23	5128.11
466.41	5186.63
466.60	5210.03
466.78	5170.24
466.96	5195.99
467.14	5146.84
467.32	5310.68
467.51	5235.78
467.69	5139.82
467.87	5301.31
468.05	5284.93
468.23	5289.61
468.41	5280.25
468.60	5277.91
468.78	5359.83
468.96	5263.86
469.14	5408.98
469.32	5437.06
469.50	5214.71
469.69	5603.24
469.87	5488.56
470.05	5563.45
470.23	5638.35
470.41	5521.32
470.59	5621.97
470.77	5598.56
470.95	5533.03
471.14	5650.05
471.32	5598.56
471.50	5799.85
471.68	5703.89
471.86	5951.98
472.04	5816.23
472.22	6003.47
472.40	5813.89
472.58	5886.45
472.77	5853.68
472.95	5916.87
473.13	6134.54
473.31	5947.30
473.49	5968.37
473.67	5900.49
473.85	6064.33
474.03	6087.73
474.21	6132.20
474.39	6171.99
474.57	6235.19
474.75	6143.91
474.93	6279.66
475.12	6270.30
475.30	6225.82
475.48	6183.70
475.66	6483.28
475.84	6328.81
476.02	6506.69
476.20	6506.69
476.38	6502.01
476.56	6555.84
476.74	6693.93
476.92	6715.00
477.10	6700.95
477.28	6829.68
477.46	6792.23
477.64	6888.20
477.82	7124.59
478.00	6995.86
478.18	7166.72
478.36	6885.86
478.54	7166.72
478.72	7255.66
478.90	7293.11
479.08	7382.05
479.26	7393.75
479.44	7531.84
479.62	7433.54
479.80	7503.76
479.98	7489.71
480.16	7573.97
480.34	7709.72
480.52	7793.98
480.70	7791.64
480.88	7791.64
481.06	7840.79
481.24	7793.98
481.41	8072.51
481.59	7995.27
481.77	8168.47
481.95	8072.51
482.13	8140.38
482.31	8280.82
482.49	8496.14
482.67	8414.23
482.85	8332.31
483.03	8559.34
483.21	8624.87
483.39	8702.11
483.57	8690.41
483.74	8842.54
483.92	9090.64
484.10	8842.54
484.28	9076.60
484.46	9116.39
484.64	9537.68
484.82	9200.65
485.00	9432.36
485.18	9415.98
485.35	9643.01
485.53	9549.39
485.71	9760.03
485.89	9837.27
486.07	9905.15
486.25	9643.01
486.43	9558.75
486.61	9989.41
486.78	9949.62
486.96	10200.05
487.14	10345.17
487.32	10324.10
487.50	10157.92
487.68	10537.09
487.85	10593.26
488.03	10789.87
488.21	10562.84
488.39	10862.43
488.57	11007.54
488.75	11005.20
488.92	11115.20
489.10	11007.54
489.28	11257.98
489.46	11225.21
489.64	11166.70
489.81	11672.25
489.99	11414.79
490.17	11524.80
490.35	11705.02
490.53	11616.08
490.70	11920.35
490.88	11885.24
491.06	12058.44
491.24	11906.31
491.41	12091.21
491.59	12252.70
491.77	12255.04
491.95	12524.21
492.13	12484.42
492.30	12542.93
492.48	12720.81
492.66	12404.84
492.84	12718.47
493.01	12786.35
493.19	12727.83
493.37	13043.81
493.54	13018.06
493.72	13153.81
493.90	13139.77
494.08	13582.13
494.25	13378.50
494.43	13605.53
494.61	13418.29
494.79	13642.98
494.96	13376.16
495.14	13472.12
495.32	13745.97
495.49	13935.55
495.67	13940.23
495.85	14008.11
496.02	14162.58
496.20	14209.39
496.38	14101.73
496.55	14256.20
496.73	14698.56
496.91	14162.58
497.09	14677.50
497.26	14572.18
497.44	14408.34
497.62	14684.52
497.79	14890.49
497.97	14857.72
498.14	15199.44
498.32	14850.70
498.50	15246.25
498.67	15365.62
498.85	15218.16
499.03	15288.38
499.20	15087.09
499.38	15545.84
499.56	15583.29
499.73	15522.43
499.91	15529.45
500.08	15798.62
500.26	15550.52
500.44	15747.12
500.61	15906.28
500.79	15712.02
500.97	15847.77
501.14	16053.73
501.32	16196.51
501.49	16205.87
501.67	16156.72
501.84	16257.36
502.02	16287.79
502.20	16208.21
502.37	16453.97
502.55	16336.94
502.72	16681.00
502.90	16758.24
503.07	16676.32
503.25	16524.18
503.43	16720.79
503.60	17118.68
503.78	16840.15
503.95	16863.56
504.13	16952.50
504.30	17109.32
504.48	17266.13
504.65	17324.65
504.83	17078.89
505.01	17530.61
505.18	17455.72
505.36	17802.11
505.53	17247.41
505.71	17465.08
505.88	17387.84
506.06	17266.13
506.23	17547.00
506.41	17752.96
506.58	17895.74
506.76	17886.37
506.93	18003.40
507.11	17748.28
507.28	17584.44
507.46	18249.16
507.63	18155.54
507.81	18150.85
507.98	18211.71
508.16	18118.09
508.33	18361.50
508.50	18347.46
508.68	18214.05
508.85	18597.90
509.03	18333.42
509.20	18923.23
509.38	18808.54
509.55	18888.12
509.73	18661.09
509.90	18693.86
510.08	18693.86
510.25	18771.10
510.42	18827.27
510.60	19197.07
510.77	19103.45
510.95	19035.58
511.12	18953.66
511.30	19152.60
511.47	19424.11
511.64	19363.25
511.82	19536.45
511.99	19276.65
512.17	19477.94
512.34	19309.42
512.51	19674.54
512.69	19702.63
512.86	19653.48
513.04	19672.20
513.21	19978.81
513.38	19775.19
513.56	19747.10
513.73	19910.94
513.90	19824.34
514.08	20067.75
514.25	20196.48
514.43	19871.15
514.60	20002.22
514.77	20393.09
514.95	20547.56
515.12	20210.53
515.29	20112.22
515.47	20315.85
515.64	20599.05
515.81	20519.48
515.99	20830.77
516.16	20769.91
516.33	20709.06
516.51	20823.75
516.68	20582.67
516.85	20772.25
517.03	20872.90
517.20	21010.99
517.37	20807.36
517.54	21214.62
517.72	21223.98
517.89	20898.64
518.06	20737.15
518.24	21266.11
518.41	20723.10
518.58	21207.59
518.75	21015.67
518.93	21425.26
519.10	21530.59
519.27	21518.89
519.45	21364.41
519.62	21198.23
519.79	21495.48
519.96	21579.74
520.14	21598.46
520.31	21820.81
520.48	22066.57
520.65	22073.59
520.83	21961.25
521.00	21968.27
521.17	21722.51
521.34	21977.63
521.52	22089.98
521.69	22015.08
521.86	21998.70
522.03	22230.41
522.20	22225.73
522.38	22202.32
522.55	22260.84
522.72	22307.65
522.89	22253.81
523.07	22785.12
523.24	22682.13
523.41	22679.79
523.58	22309.99
523.75	22764.05
523.92	22604.89
524.10	22752.35
524.27	22553.40
524.44	22745.33
524.61	22623.62
524.78	23070.66
524.96	22995.76
525.13	23009.81
525.30	22761.71
525.47	23229.82
525.64	22913.84
525.81	23311.74
525.98	23405.36
526.16	23293.01
526.33	23117.47
526.50	23681.54
526.67	23403.02
526.84	23351.52
527.01	23178.33
527.18	23372.59
527.36	23711.97
527.53	23641.75
527.70	23871.12
527.87	23854.74
528.04	23414.72
528.21	23714.31
528.38	23580.90
528.55	23838.36
528.72	23756.44
528.89	23786.86
529.07	23730.69
529.24	24018.58
529.41	23838.36
529.58	23859.42
529.75	24098.16
529.92	24212.84
530.09	24011.56
530.26	24327.53
530.43	24261.99
530.60	24477.32
530.77	24393.06
530.94	24484.34
531.11	24421.15
531.28	24402.43
531.46	24137.94
531.63	24135.60
531.80	24582.65
531.97	24610.73
532.14	24535.84
532.31	24442.21
532.48	24629.46
532.65	25125.65
532.82	24814.36
532.99	24816.70
533.16	24678.61
533.33	25301.19
533.50	25277.79
533.67	24919.68
533.84	24996.92
534.01	24821.38
534.18	25050.75
534.35	24929.05
534.52	24907.98
534.69	25355.02
534.86	25343.32
535.03	25209.91
535.20	25610.14
535.37	25343.32
535.54	25394.81
535.71	25270.76
535.88	25303.53
536.05	25181.82
536.22	25586.74
536.38	25532.90
536.55	25708.44
536.72	25893.35
536.89	25228.63
537.06	25331.62
537.23	25722.49
537.40	25570.35
537.57	25979.95
537.74	25790.36
537.91	25923.77
538.08	25607.80
538.25	25816.11
538.42	25858.24
538.59	26080.59
538.75	25783.34
538.92	25635.89
539.09	25968.24
539.26	25886.32
539.43	26288.90
539.60	26106.34
539.77	25909.73
539.94	26300.60
540.11	26230.38
540.28	26281.88
540.44	26202.30
540.61	26103.99
540.78	26235.06
540.95	26204.64
541.12	26377.84
541.29	26155.49
541.46	26331.03
541.62	26441.03
541.79	26508.91
541.96	26176.55
542.13	26298.26
542.30	26436.35
542.47	26757.00
542.63	26696.15
542.80	26787.43
542.97	26831.90
543.14	27164.26
543.31	27080.00
543.48	26836.58
543.64	27520.02
543.81	26780.41
543.98	27044.89
544.15	27145.53
544.32	27089.36
544.48	27421.72
544.65	27047.23
544.82	26981.70
544.99	27117.45
545.16	27213.41
545.32	27096.38
545.49	27400.65
545.66	27580.87
545.83	27646.41
546.00	27232.13
546.16	27372.57
546.33	27110.43
546.50	27166.60
546.67	27697.90
546.83	27562.15
547.00	27487.25
547.17	27225.11
547.34	27606.62
547.50	27882.80
547.67	27768.12
547.84	27828.97
548.00	27658.11
548.17	28133.24
548.34	27934.29
548.51	27840.67
548.67	28133.24
548.84	27861.74
549.01	27821.95
549.18	27896.85
549.34	27871.10
549.51	27850.03
549.68	27878.12
549.84	28053.66
550.01	28135.58
550.18	27637.05
550.34	27889.82
550.51	28510.07
550.68	28093.45
550.84	28004.51
551.01	28126.22
551.18	28018.55
551.34	27843.01
551.51	28163.67
551.68	28486.66
551.84	28182.39
552.01	28732.42
552.18	28554.54
552.34	28549.85
552.51	28542.83
552.68	28437.51
552.84	28493.68
553.01	28575.60
553.18	28105.15
553.34	28400.06
553.51	28872.85
553.67	28734.76
553.84	28975.83
554.01	28800.29
554.17	28699.65
554.34	28746.46
554.51	28737.10
554.67	28947.75
554.84	28994.56
555.00	28755.82
555.17	28842.42
555.33	29055.41
555.50	29017.96
555.67	28584.96
555.83	28875.19
556.00	28971.15
556.16	29046.05
556.33	28922.00
556.50	28938.38
556.66	29120.95
556.83	29275.42
556.99	29509.47
557.16	29378.40
557.32	29172.44
557.49	29149.03
557.65	28945.41
557.82	29134.99
557.98	29282.44
558.15	29390.11
558.32	29369.04
558.48	29060.09
558.65	29088.18
558.81	29275.42
558.98	29467.34
559.14	29317.55
559.31	29261.38
559.47	29291.80
559.64	29502.45
559.80	29579.69
559.97	29717.78
560.13	29167.76
560.30	29413.51
560.46	29479.05
560.63	29839.49
560.79	29326.91
560.96	29738.85
561.12	29614.80
561.29	29457.98
561.45	29427.56
561.61	29797.36
561.78	30087.59
561.94	29535.22
562.11	29769.27
562.27	29816.08
562.44	29462.66
562.60	29881.62
562.77	29818.42
562.93	29614.80
563.10	29579.69
563.26	29500.11
563.42	29731.83
563.59	29905.02
563.75	29720.12
563.92	30122.69
564.08	29708.42
564.24	29802.04
564.41	29944.81
564.57	29675.65
564.74	29699.06
564.90	29909.71
565.07	29855.87
565.23	30003.33
565.39	29858.21
565.56	29685.01
565.72	30000.99
565.88	29783.32
566.05	29474.37
566.21	30380.15
566.38	29970.56
566.54	30029.07
566.70	30099.29
566.87	30277.17
567.03	30555.69
567.19	30258.45
567.36	29900.34
567.52	29755.23
567.68	30349.73
567.85	30129.72
568.01	30235.04
568.17	30082.91
568.34	30197.59
568.50	30438.67
568.66	29993.97
568.83	30424.62
568.99	30382.49
569.15	30389.52
569.32	30096.95
569.48	29928.43
569.64	30394.20
569.81	30139.08
569.97	30288.87
570.13	30450.37
570.30	30085.25
570.46	30270.15
570.62	30125.04
570.78	29853.53
570.95	30209.29
571.11	30295.89
571.27	30195.25
571.43	30349.73
571.60	30412.92
571.76	30335.68
571.92	30450.37
572.09	30478.46
572.25	30181.21
572.41	30230.36
572.57	30328.66
572.74	30412.92
572.90	30366.11
573.06	30403.56
573.22	30092.27
573.38	30527.61
573.55	30448.03
573.71	30576.76
573.87	31056.57
574.03	30157.80
574.20	30536.97
574.36	30539.31
574.52	30354.41
574.68	30661.02
574.84	30473.78
575.01	30551.01
575.17	30391.86
575.33	30607.19
575.49	30464.41
575.65	30319.30
575.82	30469.09
575.98	30668.04
576.14	30707.83
576.30	30541.65
576.46	30686.76
576.62	30579.10
576.79	30705.49
576.95	30586.12
577.11	30682.08
577.27	30600.16
577.43	30607.19
577.59	30480.80
577.75	30487.82
577.92	30881.03
578.08	30232.70
578.24	30459.73
578.40	30672.72
578.56	30740.60
578.72	30843.58
578.88	30927.84
579.04	30909.11
579.21	30609.53
579.37	30920.82
579.53	30646.97
579.69	30408.24
579.85	30593.14
580.01	30955.93
580.17	30756.98
580.33	30469.09
580.49	30499.52
580.65	30869.33
580.82	30883.37
580.98	30759.32
581.14	30394.20
581.30	30778.04
581.46	30789.75
581.62	30916.14
581.78	30452.71
581.94	30504.20
582.10	29975.24
582.26	30813.15
582.42	30499.52
582.58	31087.00
582.74	30766.34
582.90	30831.88
583.06	30918.48
583.22	30630.59
583.38	30897.41
583.54	30841.24
583.70	30848.26
583.86	30658.68
584.02	30630.59
584.18	31037.84
584.34	30864.64
584.50	30920.82
584.66	30735.92
584.82	30319.30
584.98	30911.46
585.14	31058.91
585.30	30646.97
585.46	30866.98
585.62	30522.93
585.78	30742.94
585.94	30782.73
586.10	30801.45
586.26	31288.28
586.42	31023.80
586.58	30951.24
586.74	30742.94
586.90	30649.32
587.06	30668.04
587.22	31009.76
587.38	30480.80
587.54	30742.94
587.70	30888.05
587.86	30782.73
588.02	31236.79
588.18	31049.55
588.34	30820.17
588.49	31173.60
588.65	30529.95
588.81	30635.27
588.97	31061.25
589.13	31290.62
589.29	30415.26
589.45	30955.93
589.61	31168.91
589.77	31428.71
589.93	31122.10
590.08	31328.07
590.24	31435.74
590.40	31072.95
590.56	31079.97
590.72	31014.44
590.88	31058.91
591.04	30857.62
591.20	31307.01
591.35	31323.39
591.51	31604.25
591.67	31381.90
591.83	31211.04
591.99	31253.17
592.15	31218.07
592.31	31278.92
592.46	30986.35
592.62	30888.05
592.78	31351.48
592.94	30972.31
593.10	31007.42
593.26	31091.68
593.41	31426.37
593.57	31030.82
593.73	31175.94
593.89	31384.24
594.05	31063.59
594.20	31173.60
594.36	31129.12
594.52	31218.07
594.68	31126.78
594.84	30986.35
594.99	31332.75
595.15	31108.06
595.31	31772.77
595.47	31515.31
595.62	31328.07
595.78	31337.43
595.94	31342.11
596.10	31138.49
596.25	31065.93
596.41	31304.67
596.57	31033.16
596.73	31342.11
596.88	30911.46
597.04	31344.45
597.20	31339.77
597.36	31377.22
597.51	31512.97
597.67	31339.77
597.83	31248.49
597.99	31353.82
598.14	31161.89
598.30	31211.04
598.46	31534.04
598.61	31637.02
598.77	31409.99
598.93	31377.22
599.09	31541.06
599.24	31737.66
599.40	31648.72
599.56	31447.44
599.71	31749.37
599.87	31751.71
600.03	31257.85
600.18	31337.43
600.34	31161.89
600.50	31578.51
600.65	31353.82
600.81	31440.42
600.97	31524.68
601.12	31613.62
601.28	31779.79
601.44	31608.93
601.59	31559.78
601.75	31304.67
601.91	31491.91
602.06	31351.48
602.22	31138.49
602.37	31714.26
602.53	31669.79
602.69	31592.55
602.84	31325.73
603.00	31578.51
603.16	31452.12
603.31	31618.30
603.47	31267.22
603.62	31527.02
603.78	31105.72
603.94	31147.85
604.09	31044.87
604.25	31541.06
604.40	31578.51
604.56	31447.44
604.71	31211.04
604.87	31470.84
605.03	31711.92
605.18	31744.69
605.34	31707.24
605.49	31274.24
605.65	31452.12
605.80	31360.84
605.96	31037.84
606.12	31180.62
606.27	31587.87
606.43	31419.35
606.58	31412.33
606.74	31674.47
606.89	31576.17
607.05	31468.50
607.20	31449.78
607.36	31531.70
607.51	31344.45
607.67	31035.50
607.82	31019.12
607.98	31070.61
608.13	31103.38
608.29	31166.57
608.44	31138.49
608.60	31426.37
608.75	31215.72
608.91	31658.09
609.06	30883.37
609.22	31381.90
609.37	30656.34
609.53	31007.42
609.68	30876.35
609.84	31332.75
609.99	30787.41
610.15	31152.53
610.30	31042.53
610.46	31353.82
610.61	31606.59
610.76	31356.16
610.92	30993.37
611.07	31285.94
611.23	31051.89
611.38	31159.55
611.54	30787.41
611.69	30794.43
611.84	30916.14
612.00	30782.73
612.15	31274.24
612.31	31122.10
612.46	31077.63
612.62	30974.65
612.77	30892.73
612.92	31360.84
613.08	30696.13
613.23	30738.26
613.39	30899.75
613.54	30890.39
613.69	30806.13
613.85	30944.22
614.00	30955.93
614.15	30672.72
614.31	30581.44
614.46	31040.18
614.62	31342.11
614.77	30916.14
614.92	31028.48
615.08	30721.87
615.23	30892.73
615.38	30874.01
615.54	30792.09
615.69	30483.14
615.84	30878.69
616.00	30909.11
616.15	30967.63
616.30	30747.62
616.46	30799.11
616.61	30366.11
616.76	30490.16
616.92	30600.16
617.07	30515.90
617.22	30551.01
617.37	30518.25
617.53	30642.29
617.68	30511.22
617.83	30642.29
617.99	30518.25
618.14	30614.21
618.29	30740.60
618.45	30630.59
618.60	30644.63
618.75	30132.06
618.90	30515.90
619.06	30429.30
619.21	30717.19
619.36	30476.12
619.51	30724.21
619.67	29993.97
619.82	30246.74
619.97	29790.34
620.12	30136.74
620.28	29914.39
620.43	30710.17
620.58	30696.13
620.73	30401.22
620.89	30724.21
621.04	30380.15
621.19	30412.92
621.34	30326.32
621.49	30206.95
621.65	30059.50
621.80	30328.66
621.95	29996.31
622.10	29851.19
622.25	30022.05
622.41	30045.46
622.56	30008.01
622.71	30064.18
622.86	30068.86
623.01	29816.08
623.16	30075.88
623.32	29640.54
623.47	29706.08
623.62	29830.13
623.77	29926.09
623.92	30225.68
624.07	29886.30
624.23	29813.74
624.38	30064.18
624.53	29797.36
624.68	29954.18
624.83	30174.19
624.98	30068.86
625.13	29874.60
625.29	29912.05
625.44	29832.47
625.59	29755.23
625.74	29865.24
625.89	29890.98
626.04	29666.29
626.19	29788.00
626.34	29610.12
626.49	29397.13
626.65	29160.73
626.80	29745.87
626.95	29668.63
627.10	29752.89
627.25	29708.42
627.40	29479.05
627.55	29226.27
627.70	29170.10
627.85	29163.08
628.00	29184.14
628.15	29411.17
628.30	29223.93
628.45	29041.37
628.60	29193.50
628.76	29429.90
628.91	29266.06
629.06	29357.34
629.21	29570.33
629.36	29486.07
629.51	28919.66
629.66	29228.61
629.81	28945.41
629.96	29266.06
630.11	29149.03
630.26	28732.42
630.41	28804.97
630.56	29198.18
630.71	29457.98
630.86	28982.85
631.01	29179.46
631.16	29298.83
631.31	28889.23
631.46	28819.02
631.61	28819.02
631.76	29371.38
631.91	28613.05
632.06	28547.51
632.21	28709.01
632.36	28851.78
632.51	28486.66
632.66	29076.48
632.81	28404.74
632.96	28936.04
633.10	29113.92
633.25	28671.56
633.40	28704.33
633.55	28992.22
633.70	28463.25
633.85	28601.35
634.00	28456.23
634.15	28779.23
634.30	28669.22
634.45	28442.19
634.60	28353.25
634.75	28276.01
634.90	28306.44
635.05	28987.53
635.19	28753.48
635.34	28804.97
635.49	28872.85
635.64	28627.09
635.79	28638.80
635.94	28718.37
636.09	28411.76
636.24	28166.01
636.39	28683.27
636.53	28575.60
636.68	28460.91
636.83	28591.98
636.98	28727.74
637.13	28283.03
637.28	28451.55
637.43	28341.55
637.57	28460.91
637.72	28299.42
637.87	28177.71
638.02	28203.46
638.17	28357.93
638.32	28222.18
638.46	28074.73
638.61	28259.63
638.76	28137.92
638.91	27721.30
639.06	28105.15
639.20	28002.17
639.35	28013.87
639.50	27974.08
639.65	28404.74
639.80	28428.15
639.94	28063.02
640.09	27995.15
640.24	28056.00
640.39	27789.18
640.54	27400.65
640.68	27852.38
640.83	28081.75
640.98	27828.97
641.13	27690.88
641.27	28341.55
641.42	27803.22
641.57	27826.63
641.72	27632.36
641.86	27690.88
642.01	27737.69
642.16	27489.59
642.31	27480.23
642.45	27555.13
642.60	27510.66
642.75	27239.15
642.90	27737.69
643.04	27557.47
643.19	27522.36
643.34	27672.15
643.48	27625.34
643.63	27707.26
643.78	27335.12
643.93	27716.62
644.07	27765.78
644.22	27543.42
644.37	27194.68
644.51	27503.64
644.66	27510.66
644.81	27358.52
644.95	27445.12
645.10	27786.84
645.25	27222.77
645.39	27101.06
645.54	27267.24
645.69	27204.05
645.83	27030.85
645.98	27124.47
646.13	27711.94
646.27	27505.98
646.42	27026.17
646.57	27297.67
646.71	27194.68
646.86	27459.16
647.00	27250.86
647.15	26766.37
647.30	26951.27
647.44	26944.25
647.59	27150.21
647.74	26789.77
647.88	27295.33
648.03	27103.40
648.17	27140.85
648.32	27417.04
648.47	27414.69
648.61	26796.79
648.76	27194.68
648.90	26749.98
649.05	27138.51
649.20	27185.32
649.34	27105.74
649.49	26859.99
649.63	26401.24
649.78	27040.21
649.92	26665.72
650.07	27035.53
650.21	26789.77
650.36	26757.00
650.51	26782.75
650.65	26955.95
650.80	26738.28
650.94	26546.36
651.09	26256.13
651.23	26899.78
651.38	26675.09
651.52	26700.83
651.67	26593.17
651.81	26864.67
651.96	26504.23
652.10	26693.81
652.25	26384.86
652.39	26536.99
652.54	26773.39
652.68	26438.69
652.83	26560.40
652.97	26515.93
653.12	26625.93
653.26	26398.90
653.41	26501.89
653.55	26223.36
653.70	26195.28
653.84	26506.57
653.99	26202.30
654.13	26419.97
654.27	26134.42
654.42	26342.73
654.56	26045.48
654.71	26588.49
654.85	26410.60
655.00	26710.19
655.14	26450.39
655.29	26567.42
655.43	25905.05
655.57	26047.82
655.72	25902.71
655.86	26419.97
656.01	26356.77
656.15	25991.65
656.30	26073.57
656.44	26246.77
656.58	26347.41
656.73	25893.35
656.87	25923.77
657.01	26221.02
657.16	26139.10
657.30	26417.63
657.45	26363.79
657.59	26256.13
657.73	25748.23
657.88	25769.30
658.02	25954.20
658.16	25778.66
658.31	25771.64
658.45	25654.61
658.60	25521.20
658.74	25668.66
658.88	25333.96
659.03	25666.31
659.17	25926.11
659.31	25668.66
659.46	25806.75
659.60	25743.55
659.74	25743.55
659.89	25563.33
660.03	25624.18
660.17	25631.21
660.32	25352.68
660.46	25282.47
660.60	25039.05
660.74	25385.45
660.89	25198.21
661.03	24999.26
661.17	25338.64
661.32	25111.61
661.46	25369.07
661.60	25165.44
661.74	25523.54
661.89	25333.96
662.03	25366.73
662.17	24954.79
662.31	24959.47
662.46	25172.46
662.60	25046.07
662.74	24687.97
662.88	24985.22
663.03	25010.96
663.17	24854.15
663.31	24283.06
663.45	24868.19
663.60	24868.19
663.74	24943.09
663.88	24526.47
664.02	24582.65
664.17	24702.01
664.31	24346.25
664.45	24474.98
664.59	24542.86
664.73	24348.59
664.88	24812.02
665.02	24065.39
665.16	24491.37
665.30	24407.11
665.44	23943.68
665.59	24177.73
665.73	23990.49
665.87	24151.99
666.01	23990.49
666.15	24334.55
666.29	24320.51
666.44	24449.24
666.58	24053.69
666.72	23798.57
666.86	24060.71
667.00	24027.94
667.14	24233.91
667.28	23711.97
667.43	23606.64
667.57	23960.06
667.71	23999.85
667.85	23992.83
667.99	23737.71
668.13	23700.26
668.27	23714.31
668.41	23613.66
668.56	23367.91
668.70	23784.52
668.84	23597.28
668.98	23667.50
669.12	23513.02
669.26	23536.43
669.40	23592.60
669.54	23255.56
669.68	23274.29
669.82	23311.74
669.96	23143.22
670.10	23201.73
670.25	23204.07
670.39	23136.20
670.53	22937.25
670.67	22984.06
670.81	23197.05
670.95	23323.44
671.09	23012.15
671.23	22911.50
671.37	23147.90
671.51	23089.38
671.65	22932.57
671.79	22902.14
671.93	22955.97
672.07	22806.18
672.21	22981.72
672.35	22434.03
672.49	22621.28
672.63	22368.50
672.77	22590.85
672.91	22127.42
673.05	22242.11
673.19	22251.47
673.33	22405.95
673.47	22307.65
673.61	22249.13
673.75	22267.86
673.89	22129.77
674.03	21958.91
674.17	22305.31
674.31	22188.28
674.45	21806.77
674.59	22003.38
674.73	22368.50
674.87	21811.45
675.01	21919.12
675.15	21874.65
675.29	21593.78
675.43	21579.74
675.56	21579.74
675.70	21584.42
675.84	21837.20
675.98	20924.39
676.12	21923.80
676.26	21593.78
676.40	21532.93
676.54	21298.88
676.68	21135.04
676.82	21043.76
676.96	21256.75
677.10	20985.24
677.23	20830.77
677.37	21006.31
677.51	20798.00
677.65	20676.29
677.79	20596.71
677.93	20739.49
678.07	20503.09
678.21	20659.91
678.34	20360.32
678.48	20477.35
678.62	20386.07
678.76	19995.20
678.90	20247.97
679.04	20093.50
679.18	20201.16
679.31	19971.79
679.45	19981.15
679.59	19906.26
679.73	19838.38
679.87	19716.67
680.00	19599.65
680.14	19658.16
680.28	19726.04
680.42	19742.42
680.56	20093.50
680.70	19798.59
680.83	20098.18
680.97	19442.83
681.11	19494.32
681.25	19335.17
681.39	19339.85
681.52	19201.76
681.66	19089.41
681.80	19159.63
681.94	19115.16
682.07	19115.16
682.21	19070.68
682.35	19054.30
682.49	18808.54
682.62	18841.31
682.76	18658.75
682.90	18607.26
683.04	18483.21
683.17	18504.28
683.31	18565.13
683.45	18614.28
683.59	18607.26
683.72	18600.24
683.86	18492.57
684.00	18312.35
684.13	18087.66
684.27	18270.22
684.41	17881.69
684.55	17879.35
684.68	18263.20
684.82	17956.59
684.96	17874.67
685.09	17731.90
685.23	17750.62
685.37	17675.73
685.50	17855.95
685.64	17937.87
685.78	17486.14
685.91	17823.18
686.05	17647.64
686.19	17469.76
686.32	17481.46
686.46	17188.89
686.60	16985.27
686.73	17326.99
686.87	17224.00
687.01	17146.76
687.14	16713.77
687.28	16952.50
687.42	16901.01
687.55	16982.93
687.69	16666.95
687.82	16709.08
687.96	16783.98
688.10	16535.88
688.23	16762.92
688.37	16685.68
688.50	16348.64
688.64	16620.14
688.78	16781.64
688.91	16329.92
689.05	16266.72
689.18	16423.54
689.32	15843.09
689.46	16187.14
689.59	16091.18
689.73	15779.89
689.86	16079.48
690.00	15440.51
690.13	15707.34
690.27	15529.45
690.41	15555.20
690.54	15679.25
690.68	15896.92
690.81	15644.14
690.95	15487.32
691.08	15576.27
691.22	15407.75
691.35	15431.15
691.49	15166.67
691.62	15454.56
691.76	15229.87
691.89	14839.00
692.03	14977.09
692.16	15103.48
692.30	14904.53
692.43	14555.79
692.57	14700.90
692.70	14675.16
692.84	14459.83
692.97	14665.80
693.11	14817.93
693.24	14649.41
693.38	14483.24
693.51	14597.92
693.65	14410.68
693.78	14295.99
693.92	14429.40
694.05	14508.98
694.19	13963.64
694.32	14099.39
694.45	14349.82
694.59	14038.53
694.72	13795.12
694.86	13825.54
694.99	13628.94
695.13	13626.60
695.26	13523.62
695.39	13722.56
695.53	13710.86
695.66	13788.10
695.80	13600.85
695.93	13650.00
696.07	13556.38
696.20	13488.51
696.33	13249.77
696.47	13394.89
696.60	13254.45
696.73	13235.73
696.87	13135.09
697.00	13158.49
697.14	13135.09
697.27	12805.07
697.40	12821.45
697.54	12734.85
697.67	12587.40
697.80	12580.38
697.94	12493.78
698.07	12762.94
698.21	12418.88
698.34	12872.95
698.47	12564.00
698.61	12535.91
698.74	12519.53
698.87	12533.57
699.01	12290.15
699.14	12306.54
699.27	12573.36
699.40	12051.42
699.54	12201.21
699.67	11918.01
699.80	11978.86
699.94	11847.79
700.07	11817.36
700.20	11623.10
700.34	11707.36
700.47	11786.94
700.60	11669.91
700.73	11758.85
700.87	11707.36
701.00	11576.29
701.13	11407.77
701.26	11793.96
701.40	11840.77
701.53	11307.13
701.66	11536.50
701.79	11536.50
701.93	11248.61
702.06	11173.72
702.19	11117.54
702.32	11103.50
702.46	11089.46
702.59	10780.51
702.72	10977.11
702.85	10714.97
702.99	10764.12
703.12	10757.10
703.25	10675.18
703.38	10761.78
703.51	10714.97
703.65	10689.23
703.78	10471.56
703.91	10377.94
704.04	10539.43
704.17	10375.59
704.31	10637.73
704.44	10216.44
704.57	10342.83
704.70	10066.64
704.83	10120.48
704.96	10176.65
705.10	10214.10
705.23	9951.96
>>>>>End Processed Spectral Data<<<<<
