SpectraSuite Data File
++++++++++++++++++++++++++++++++++++
Date: Fri Oct 18 13:58:24 GMT-05:00 2013
User: bianchi
Dark Spectrum Present: No
Reference Spectrum Present: No
Number of Sampled Component Spectra: 1
Spectrometers: USB2+H05261
Integration Time (usec): 50000 (USB2+H05261)
Spectra Averaged: 1 (USB2+H05261)
Boxcar Smoothing: 0 (USB2+H05261)
Correct for Electrical Dark: No (USB2+H05261)
Strobe/Lamp Enabled: No (USB2+H05261)
Correct for Detector Non-linearity: No (USB2+H05261)
Correct for Stray Light: No (USB2+H05261)
Number of Pixels in Processed Spectrum: 2048
>>>>>Begin Processed Spectral Data<<<<<
365.73	0.00
365.92	0.00
366.12	0.00
366.32	0.00
366.52	0.00
366.72	0.00
366.91	0.00
367.11	0.00
367.31	0.00
367.51	0.00
367.70	0.00
367.90	0.00
368.10	0.00
368.30	0.00
368.49	0.00
368.69	0.00
368.89	0.00
369.09	0.00
369.28	0.00
369.48	0.00
369.68	0.00
369.87	0.00
370.07	0.00
370.27	0.00
370.47	25.75
370.66	81.92
370.86	177.88
371.06	126.39
371.25	161.50
371.45	28.09
371.65	159.16
371.84	35.11
372.04	86.60
372.24	177.88
372.44	135.75
372.63	63.19
372.83	220.01
373.03	133.41
373.22	222.35
373.42	168.52
373.62	194.26
373.81	175.54
374.01	205.97
374.21	320.65
374.40	189.58
374.60	269.16
374.79	220.01
374.99	306.61
375.19	290.23
375.38	313.63
375.58	229.37
375.78	217.67
375.97	264.48
376.17	276.18
376.37	245.76
376.56	280.86
376.76	325.33
376.95	224.69
377.15	224.69
377.35	262.14
377.54	292.57
377.74	229.37
377.93	276.18
378.13	161.50
378.33	222.35
378.52	245.76
378.72	320.65
378.91	229.37
379.11	189.58
379.31	292.57
379.50	292.57
379.70	325.33
379.89	266.82
380.09	297.25
380.28	292.57
380.48	299.59
380.68	299.59
380.87	285.55
381.07	304.27
381.26	320.65
381.46	287.89
381.65	308.95
381.85	308.95
382.04	330.02
382.24	292.57
382.43	339.38
382.63	360.44
382.83	374.49
383.02	383.85
383.22	416.62
383.41	304.27
383.61	400.23
383.80	393.21
384.00	404.91
384.19	393.21
384.39	311.29
384.58	283.20
384.78	369.80
384.97	393.21
385.17	362.78
385.36	355.76
385.56	421.30
385.75	337.04
385.95	386.19
386.14	367.46
386.34	367.46
386.53	428.32
386.72	475.13
386.92	475.13
387.11	388.53
387.31	369.80
387.50	496.19
387.70	491.51
387.89	447.04
388.09	404.91
388.28	390.87
388.48	433.00
388.67	416.62
388.86	428.32
389.06	421.30
389.25	512.58
389.45	458.74
389.64	521.94
389.84	489.17
390.03	493.85
390.22	482.15
390.42	472.79
390.61	470.45
390.81	447.04
391.00	531.30
391.19	587.47
391.39	451.72
391.58	561.73
391.78	475.13
391.97	477.47
392.16	564.07
392.36	613.22
392.55	603.86
392.75	505.56
392.94	620.24
393.13	582.79
393.33	505.56
393.52	559.39
393.71	552.37
393.91	653.01
394.10	613.22
394.29	601.52
394.49	575.77
394.68	606.20
394.88	552.37
395.07	603.86
395.26	582.79
395.46	620.24
395.65	688.12
395.84	578.11
396.04	695.14
396.23	741.95
396.42	678.76
396.62	727.91
396.81	624.92
397.00	580.45
397.19	641.31
397.39	573.43
397.58	734.93
397.77	620.24
397.97	664.71
398.16	617.90
398.35	704.50
398.55	725.57
398.74	709.18
398.93	765.36
399.12	746.63
399.32	695.14
399.51	643.65
399.70	755.99
399.90	709.18
400.09	772.38
400.28	760.67
400.47	716.20
400.67	849.61
400.86	844.93
401.05	795.78
401.24	793.44
401.44	800.46
401.63	774.72
401.82	753.65
402.01	805.14
402.21	809.83
402.40	915.15
402.59	791.10
402.78	800.46
402.97	854.30
403.17	840.25
403.36	940.90
403.55	936.21
403.74	978.34
403.93	917.49
404.13	896.43
404.32	793.44
404.51	952.60
404.70	882.38
404.89	917.49
405.09	954.94
405.28	917.49
405.47	908.13
405.66	945.58
405.85	1064.94
406.05	985.37
406.24	1011.11
406.43	968.98
406.62	983.02
406.81	1004.09
407.00	990.05
407.20	1095.37
407.39	1074.31
407.58	954.94
407.77	1039.20
407.96	1088.35
408.15	1188.99
408.34	1018.13
408.54	1132.82
408.73	1142.18
408.92	1132.82
409.11	1132.82
409.30	1153.88
409.49	1093.03
409.68	1132.82
409.87	1179.63
410.07	1139.84
410.26	1153.88
410.45	1107.07
410.64	1238.14
410.83	1210.06
411.02	1268.57
411.21	1198.35
411.40	1224.10
411.59	1219.42
411.78	1247.51
411.98	1259.21
412.17	1207.72
412.36	1277.93
412.55	1343.47
412.74	1306.02
412.93	1345.81
413.12	1355.17
413.31	1350.49
413.50	1401.98
413.69	1357.51
413.88	1427.73
414.07	1472.20
414.26	1448.79
414.45	1483.90
414.64	1425.39
414.83	1430.07
415.02	1554.12
415.22	1530.71
415.41	1586.88
415.60	1483.90
415.79	1474.54
415.98	1572.84
416.17	1551.78
416.36	1584.54
416.55	1629.01
416.74	1717.95
416.93	1652.42
417.12	1748.38
417.31	1692.21
417.50	1720.29
417.69	1687.53
417.88	1816.26
418.07	1699.23
418.26	1769.44
418.45	1764.76
418.64	1781.15
418.83	1778.81
419.02	1764.76
419.21	1713.27
419.39	1774.13
419.58	1827.96
419.77	1830.30
419.96	1886.47
420.15	1930.94
420.34	1898.17
420.53	1921.58
420.72	1900.52
420.91	1944.99
421.10	1827.96
421.29	1881.79
421.48	1923.92
421.67	1930.94
421.86	1914.56
422.05	1874.77
422.24	1881.79
422.43	1994.14
422.61	2104.14
422.80	2029.24
422.99	2069.03
423.18	2054.99
423.37	2113.50
423.56	2113.50
423.75	2047.97
423.94	2054.99
424.13	1907.54
424.32	1989.46
424.50	1961.37
424.69	2069.03
424.88	2036.27
425.07	1914.56
425.26	1970.73
425.45	1984.77
425.64	2069.03
425.83	1984.77
426.01	2101.80
426.20	1977.75
426.39	2031.58
426.58	2001.16
426.77	2148.61
426.96	2115.84
427.15	2090.10
427.33	2097.12
427.52	2111.16
427.71	2125.21
427.90	2129.89
428.09	2204.78
428.28	2228.19
428.46	2200.10
428.65	2153.29
428.84	2207.13
429.03	2216.49
429.22	2225.85
429.40	2232.87
429.59	2146.27
429.78	1998.82
429.97	2076.06
430.16	2228.19
430.34	2267.98
430.53	2361.60
430.72	2279.68
430.91	2207.13
431.10	2289.04
431.28	2272.66
431.47	2324.15
431.66	2352.24
431.85	2310.11
432.03	2413.09
432.22	2459.90
432.41	2333.51
432.60	2438.84
432.79	2420.11
432.97	2436.50
433.16	2392.03
433.35	2539.48
433.54	2438.84
433.72	2476.29
433.91	2506.71
434.10	2434.16
434.28	2478.63
434.47	2562.89
434.66	2590.97
434.85	2525.44
435.03	2691.62
435.22	2572.25
435.41	2654.17
435.59	2644.81
435.78	2597.99
435.97	2504.37
436.16	2581.61
436.34	2637.78
436.53	2686.94
436.72	2705.66
436.90	2724.38
437.09	2710.34
437.28	2633.10
437.46	2796.94
437.65	2825.03
437.84	2726.72
438.02	2715.02
438.21	2775.88
438.40	2766.51
438.58	2808.64
438.77	2764.17
438.96	2813.32
439.14	2876.52
439.33	2970.14
439.52	3063.76
439.70	3002.91
439.89	3218.24
440.08	2925.67
440.26	3159.72
440.45	2977.16
440.63	3061.42
440.82	3152.70
441.01	3131.64
441.19	3211.22
441.38	3126.96
441.57	3169.09
441.75	3141.00
441.94	3246.32
442.12	3255.69
442.31	3452.29
442.50	3260.37
442.68	3309.52
442.87	3344.63
443.05	3417.18
443.24	3398.46
443.43	3321.22
443.61	3225.26
443.80	3344.63
443.98	3337.60
444.17	3393.78
444.35	3428.88
444.54	3515.48
444.73	3459.31
444.91	3386.76
445.10	3459.31
445.28	3325.90
445.47	3311.86
445.65	3410.16
445.84	3342.28
446.02	3501.44
446.21	3475.70
446.39	3382.07
446.58	3471.01
446.77	3449.95
446.95	3412.50
447.14	3428.88
447.32	3459.31
447.51	3524.85
447.69	3503.78
447.88	3592.72
448.06	3562.30
448.25	3550.59
448.43	3435.91
448.62	3375.05
448.80	3517.83
448.99	3555.27
449.17	3545.91
449.36	3627.83
449.54	3667.62
449.73	3742.52
449.91	3777.62
450.10	3878.27
450.28	3707.41
450.46	3742.52
450.65	3735.50
450.83	3634.85
451.02	3674.64
451.20	3803.37
451.39	3702.73
451.57	3618.47
451.76	3850.18
451.94	3803.37
452.13	3939.12
452.31	3873.59
452.49	3728.47
452.68	3829.12
452.86	3786.99
453.05	3868.91
453.23	3850.18
453.42	3801.03
453.60	3845.50
453.78	4032.74
453.97	3868.91
454.15	4044.45
454.34	3955.51
454.52	4095.94
454.70	4077.21
454.89	3967.21
455.07	4060.83
455.26	4077.21
455.44	4131.05
455.62	4014.02
455.81	4229.35
455.99	4210.62
456.17	4145.09
456.36	4187.22
456.54	4145.09
456.73	4255.09
456.91	4248.07
457.09	4271.48
457.28	4313.61
457.46	4152.11
457.64	4344.03
457.83	4266.80
458.01	4372.12
458.19	4297.22
458.38	4372.12
458.56	4400.21
458.74	4311.27
458.93	4397.87
459.11	4465.74
459.29	4470.42
459.48	4458.72
459.66	4510.21
459.84	4622.56
460.03	4706.82
460.21	4652.98
460.39	4564.04
460.57	4540.64
460.76	4493.83
460.94	4608.51
461.12	4638.94
461.31	4561.70
461.49	4573.41
461.67	4589.79
461.85	4758.31
462.04	4676.39
462.22	4863.63
462.40	4751.29
462.59	4727.88
462.77	4793.42
462.95	4870.65
463.13	4863.63
463.32	4760.65
463.50	4760.65
463.68	4741.93
463.86	4812.14
464.05	4690.43
464.23	4643.62
464.41	4870.65
464.59	4854.27
464.78	4844.91
464.96	4868.31
465.14	4884.70
465.32	4863.63
465.50	5130.45
465.69	5116.41
465.87	5008.75
466.05	4898.74
466.23	5022.79
466.41	5048.54
466.60	5146.84
466.78	4950.23
466.96	5025.13
467.14	5006.41
467.32	5097.69
467.51	5219.39
467.69	5032.15
467.87	5170.24
468.05	5263.86
468.23	5282.59
468.41	5053.22
468.60	5214.71
468.78	5376.21
468.96	5352.81
469.14	5270.89
469.32	5362.17
469.50	5266.21
469.69	5205.35
469.87	5406.64
470.05	5521.32
470.23	5467.49
470.41	5481.53
470.59	5509.62
470.77	5378.55
470.95	5575.16
471.14	5432.38
471.32	5359.83
471.50	5790.49
471.68	5577.50
471.86	5521.32
472.04	5628.99
472.22	5614.95
472.40	5654.73
472.58	5872.40
472.77	5795.17
472.95	5877.09
473.13	6059.65
473.31	5827.93
473.49	5785.80
473.67	5898.15
473.85	5881.77
474.03	6031.56
474.21	5937.94
474.39	6193.06
474.57	6099.44
474.75	6104.12
474.93	6120.50
475.12	6104.12
475.30	6216.46
475.48	6244.55
475.66	6361.58
475.84	6097.10
476.02	6342.85
476.20	6396.68
476.38	6502.01
476.56	6576.91
476.74	6389.66
476.92	6506.69
477.10	6640.10
477.28	6736.06
477.46	6616.69
477.64	6820.32
477.82	6867.13
478.00	6986.50
478.18	6960.75
478.36	6977.14
478.54	7040.33
478.72	6977.14
478.90	7096.50
479.08	7194.81
479.26	7253.32
479.44	7290.77
479.62	7286.09
479.80	7330.56
479.98	7449.93
480.16	7494.40
480.34	7508.44
480.52	7550.57
480.70	7669.94
480.88	7564.61
481.06	7878.24
481.24	7772.92
481.41	7691.00
481.59	7847.82
481.77	7999.95
481.95	8093.57
482.13	8042.08
482.31	7974.21
482.49	8308.90
482.67	8292.52
482.85	8264.43
483.03	8407.20
483.21	8578.06
483.39	8547.64
483.57	8575.72
483.74	8812.12
483.92	8582.74
484.10	8734.88
484.28	8936.17
484.46	9121.07
484.64	9121.07
484.82	9125.75
485.00	9130.43
485.18	9327.03
485.35	9277.88
485.53	9296.61
485.71	9540.02
485.89	9617.26
486.07	9355.12
486.25	9694.50
486.43	9673.43
486.61	9926.21
486.78	9844.29
486.96	9689.82
487.14	10190.69
487.32	10270.27
487.50	10352.19
487.68	10197.71
487.85	10406.02
488.03	10466.88
488.21	10679.86
488.39	10595.61
488.57	10743.06
488.75	10509.01
488.92	10876.47
489.10	10871.79
489.28	10815.62
489.46	11321.17
489.64	11042.65
489.81	11499.05
489.99	11344.58
490.17	11372.66
490.35	11686.29
490.53	11637.14
490.70	11438.20
490.88	11541.18
491.06	11709.70
491.24	11658.21
491.41	11843.11
491.59	12037.38
491.77	11967.16
491.95	12297.17
492.13	12367.39
492.30	12306.54
492.48	12280.79
492.66	12123.98
492.84	12343.99
493.01	12571.02
493.19	12575.70
493.37	12772.30
493.54	12987.63
493.72	12905.71
493.90	13025.08
494.08	13034.44
494.25	13167.85
494.43	13135.09
494.61	13018.06
494.79	13209.98
494.96	13050.83
495.14	13572.77
495.32	13685.11
495.49	13469.78
495.67	13715.54
495.85	13914.48
496.02	13958.96
496.20	13888.74
496.38	13944.91
496.55	13715.54
496.73	14178.97
496.91	14230.46
497.09	14164.92
497.26	14368.55
497.44	14604.94
497.62	14347.48
497.79	14726.65
497.97	14335.78
498.14	15094.11
498.32	14710.27
498.50	14717.29
498.67	14951.34
498.85	14782.82
499.03	15002.83
499.20	15108.16
499.38	15129.22
499.56	15300.08
499.73	15012.20
499.91	15417.11
500.08	15318.81
500.26	15321.15
500.44	15662.86
500.61	15389.02
500.79	15321.15
500.97	15740.10
501.14	16023.31
501.32	16023.31
501.49	15803.30
501.67	15777.55
501.84	15906.28
502.02	16166.08
502.20	16018.63
502.37	16215.23
502.55	16236.30
502.72	16388.43
502.90	16191.83
503.07	16255.02
503.25	16259.70
503.43	16226.93
503.60	16512.48
503.78	16535.88
503.95	16545.25
504.13	16444.60
504.30	16648.23
504.48	16830.79
504.65	16739.51
504.83	16805.05
505.01	16760.58
505.18	16992.29
505.36	17020.38
505.53	17181.87
505.71	16954.84
505.88	17001.65
506.06	16908.03
506.23	17282.52
506.41	17439.33
506.58	17261.45
506.76	17497.84
506.93	17586.79
507.11	17565.72
507.28	17289.54
507.46	17516.57
507.63	17759.98
507.81	17771.69
507.98	17493.16
508.16	17664.02
508.33	17600.83
508.50	18015.10
508.68	18115.75
508.85	18122.77
509.03	18012.76
509.20	18012.76
509.38	18349.80
509.55	18171.92
509.73	18253.84
509.90	18429.38
510.08	18394.27
510.25	18251.50
510.42	18574.49
510.60	18941.96
510.77	18838.97
510.95	18958.34
511.12	18682.16
511.30	18714.92
511.47	18981.74
511.64	19007.49
511.82	19140.90
511.99	19101.11
512.17	19180.69
512.34	18981.74
512.51	19204.10
512.69	19351.55
512.86	19028.56
513.04	19583.26
513.21	19665.18
513.38	19405.38
513.56	19653.48
513.73	19171.33
513.90	19421.77
514.08	19719.01
514.25	19751.78
514.43	19683.91
514.60	19962.43
514.77	19676.88
514.95	19915.62
515.12	19906.26
515.29	19782.21
515.47	20233.93
515.64	20063.07
515.81	19939.02
515.99	20229.25
516.16	20142.65
516.33	20535.86
516.51	20409.47
516.68	20409.47
516.85	20521.82
517.03	20365.00
517.20	20348.62
517.37	20575.65
517.54	20821.41
517.72	20718.42
517.89	20781.62
518.06	20872.90
518.24	20856.51
518.41	20760.55
518.58	20648.21
518.75	20896.30
518.93	20919.71
519.10	20786.30
519.27	21322.28
519.45	21153.76
519.62	21165.46
519.79	21137.38
519.96	21120.99
520.14	20952.48
520.31	21509.52
520.48	21383.13
520.65	21303.56
520.83	21645.27
521.00	21516.54
521.17	21645.27
521.34	21422.92
521.52	21776.34
521.69	21848.90
521.86	21640.59
522.03	21975.29
522.20	21865.28
522.38	22031.46
522.55	21825.50
522.72	21647.61
522.89	22230.41
523.07	22434.03
523.24	22078.27
523.41	22380.20
523.58	21930.82
523.75	21940.18
523.92	22359.14
524.10	22015.08
524.27	22499.57
524.44	22197.64
524.61	22398.93
524.78	22764.05
524.96	22396.59
525.13	22143.81
525.30	22544.04
525.47	22965.34
525.64	22324.03
525.81	22487.87
525.98	23129.17
526.16	22941.93
526.33	22742.99
526.50	23316.42
526.67	22785.12
526.84	22911.50
527.01	22998.10
527.18	22899.80
527.36	23215.77
527.53	23323.44
527.70	23166.62
527.87	23157.26
528.04	23239.18
528.21	23267.27
528.38	23405.36
528.55	23522.38
528.72	22958.31
528.89	23520.04
529.07	23534.09
529.24	23374.93
529.41	23403.02
529.58	23417.06
529.75	23410.04
529.92	23489.62
530.09	23885.17
530.26	23929.64
530.43	23700.26
530.60	23503.66
530.77	23786.86
530.94	23899.21
531.11	23716.65
531.28	23910.91
531.46	23885.17
531.63	23850.06
531.80	23679.20
531.97	24217.52
532.14	24341.57
532.31	23885.17
532.48	24102.84
532.65	23901.55
532.82	24037.30
532.99	24395.40
533.16	24137.94
533.33	24484.34
533.50	24631.80
533.67	24472.64
533.84	24421.15
534.01	24519.45
534.18	24364.98
534.35	24685.63
534.52	24498.39
534.69	24559.24
534.86	24680.95
535.03	24816.70
535.20	24896.28
535.37	24826.06
535.54	24929.05
535.71	24528.81
535.88	24697.33
536.05	24828.40
536.22	24769.89
536.38	25174.80
536.55	25048.41
536.72	25303.53
536.89	24833.08
537.06	24919.68
537.23	24711.38
537.40	25212.25
537.57	25039.05
537.74	25167.78
537.91	25631.21
538.08	25333.96
538.25	25312.89
538.42	25359.70
538.59	25703.76
538.75	25371.41
538.92	25006.28
539.09	25345.66
539.26	25617.16
539.43	25537.59
539.60	25781.00
539.77	25490.77
539.94	25675.68
540.11	25570.35
540.28	25603.12
540.44	25816.11
540.61	25853.56
540.78	25413.54
540.95	25518.86
541.12	25841.85
541.29	25729.51
541.46	25998.67
541.62	25820.79
541.79	25928.45
541.96	25937.82
542.13	25598.44
542.30	26192.94
542.47	26143.78
542.63	26155.49
542.80	26403.58
542.97	26141.44
543.14	26422.31
543.31	26195.28
543.48	26366.13
543.64	26457.42
543.81	26302.94
543.98	26771.05
544.15	26604.87
544.32	26635.30
544.48	26787.43
544.65	26955.95
544.82	26583.80
544.99	26316.98
545.16	26951.27
545.32	26707.85
545.49	27236.81
545.66	26881.05
545.83	26738.28
546.00	27009.78
546.16	26838.92
546.33	26904.46
546.50	26630.62
546.67	26710.19
546.83	26331.03
547.00	27042.55
547.17	26897.44
547.34	27145.53
547.50	26944.25
547.67	27274.26
547.84	27096.38
548.00	27211.07
548.17	27321.07
548.34	27157.24
548.51	27576.19
548.67	27505.98
548.84	27304.69
549.01	27005.10
549.18	27269.58
549.34	27068.30
549.51	27318.73
549.68	27292.99
549.84	27180.64
550.01	27049.57
550.18	27543.42
550.34	27438.10
550.51	27630.02
550.68	27627.68
550.84	27733.01
551.01	27761.09
551.18	27269.58
551.34	26960.63
551.51	27611.30
551.68	27648.75
551.84	27826.63
552.01	27742.37
552.18	27885.14
552.34	27779.82
552.51	27875.78
552.68	27700.24
552.84	27676.83
553.01	27653.43
553.18	27915.57
553.34	28210.48
553.51	27950.68
553.67	27798.54
553.84	27992.81
554.01	27885.14
554.17	27936.63
554.34	28189.41
554.51	27969.40
554.67	27915.57
554.84	28109.83
555.00	28243.24
555.17	28109.83
555.33	28074.73
555.50	28283.03
555.67	28077.07
555.83	28500.70
556.00	28706.67
556.16	28273.67
556.33	28442.19
556.50	28245.58
556.66	28428.15
556.83	28142.60
556.99	28559.22
557.16	28854.12
557.32	28844.76
557.49	28685.61
557.65	28194.09
557.82	28446.87
557.98	28301.76
558.15	28615.39
558.32	28891.57
558.48	28374.31
558.65	28884.55
558.81	28662.20
558.98	28762.84
559.14	28657.52
559.31	28620.07
559.47	28327.50
559.64	28652.84
559.80	28877.53
559.97	28889.23
560.13	28219.84
560.30	28751.14
560.46	28968.81
560.63	28807.31
560.79	28957.11
560.96	28760.50
561.12	29123.29
561.29	28456.23
561.45	28896.25
561.61	29156.05
561.78	29116.26
561.94	28957.11
562.11	29095.20
562.27	29013.28
562.44	29280.10
562.60	28671.56
562.77	28856.46
562.93	28788.59
563.10	28971.15
563.26	29003.92
563.42	29277.76
563.59	28842.42
563.75	29156.05
563.92	29242.65
564.08	28999.24
564.24	28793.27
564.41	28751.14
564.57	29404.15
564.74	29120.95
564.90	29305.85
565.07	29097.54
565.23	29092.86
565.39	29013.28
565.56	29413.51
565.72	29174.78
565.88	29069.45
566.05	28975.83
566.21	29170.10
566.38	29507.13
566.54	29174.78
566.70	29436.92
566.87	29493.09
567.03	29958.86
567.19	29493.09
567.36	29617.14
567.52	29579.69
567.68	29483.73
567.85	29172.44
568.01	29432.24
568.17	29371.38
568.34	29324.57
568.50	29338.62
568.66	29401.81
568.83	29827.79
568.99	29247.33
569.15	29289.46
569.32	29329.25
569.48	29163.08
569.64	29762.25
569.81	29694.38
569.97	29518.84
570.13	29996.31
570.30	29450.96
570.46	29474.37
570.62	29577.35
570.78	29579.69
570.95	29502.45
571.11	29507.13
571.27	29200.52
571.43	29177.12
571.60	29572.67
571.76	29560.97
571.92	29680.33
572.09	29546.92
572.25	29773.95
572.41	29628.84
572.57	29776.30
572.74	29699.06
572.90	29495.43
573.06	29883.96
573.22	29411.17
573.38	29425.22
573.55	29537.56
573.71	29656.93
573.87	30125.04
574.03	29799.70
574.20	29530.54
574.36	29181.80
574.52	29944.81
574.68	29450.96
574.84	29600.76
575.01	29696.72
575.17	29563.31
575.33	29921.41
575.49	29645.23
575.65	29879.28
575.82	29476.71
575.98	29483.73
576.14	29764.59
576.30	29675.65
576.46	29977.58
576.62	29626.50
576.79	29820.77
576.95	29722.46
577.11	30099.29
577.27	29507.13
577.43	29778.64
577.59	29872.26
577.75	29565.65
577.92	29500.11
578.08	29851.19
578.24	30008.01
578.40	29560.97
578.56	30019.71
578.72	29783.32
578.88	30052.48
579.04	30005.67
579.21	29677.99
579.37	30012.69
579.53	29940.13
579.69	29872.26
579.85	29982.26
580.01	30003.33
580.17	29900.34
580.33	29514.16
580.49	29757.57
580.65	29951.84
580.82	29979.92
580.98	30029.07
581.14	30331.00
581.30	30277.17
581.46	29905.02
581.62	29914.39
581.78	29551.60
581.94	29771.61
582.10	29703.74
582.26	30082.91
582.42	30022.05
582.58	29970.56
582.74	30071.20
582.90	29916.73
583.06	29795.02
583.22	29986.94
583.38	30031.41
583.54	30047.80
583.70	29893.32
583.86	30127.38
584.02	29631.18
584.18	30291.21
584.34	29909.71
584.50	29914.39
584.66	29717.78
584.82	29680.33
584.98	29944.81
585.14	29970.56
585.30	29972.90
585.46	29792.68
585.62	30244.40
585.78	29734.17
585.94	29839.49
586.10	30010.35
586.26	30110.99
586.42	30050.14
586.58	29982.26
586.74	30267.81
586.90	29537.56
587.06	29490.75
587.22	29839.49
587.38	29790.34
587.54	30143.76
587.70	30497.18
587.86	29996.31
588.02	30307.60
588.18	30745.28
588.34	30366.11
588.49	29846.51
588.65	30059.50
588.81	29984.60
588.97	30345.05
589.13	30408.24
589.29	30235.04
589.45	30192.91
589.61	30642.29
589.77	30153.12
589.93	30703.15
590.08	30391.86
590.24	30525.27
590.40	30417.60
590.56	30263.13
590.72	30312.28
590.88	30174.19
591.04	30597.82
591.20	30689.10
591.35	30480.80
591.51	30693.79
591.67	30448.03
591.83	30431.65
591.99	30579.10
592.15	30506.54
592.31	30551.01
592.46	30331.00
592.62	30267.81
592.78	30185.89
592.94	30394.20
593.10	30497.18
593.26	30672.72
593.41	30864.64
593.57	30595.48
593.73	30419.94
593.89	30551.01
594.05	30469.09
594.20	29968.22
594.36	30551.01
594.52	30424.62
594.68	30101.63
594.84	30228.02
594.99	30422.28
595.15	30263.13
595.31	31084.65
595.47	30338.02
595.62	30579.10
595.78	30707.83
595.94	30258.45
596.10	30691.44
596.25	30347.39
596.41	30473.78
596.57	30258.45
596.73	30712.51
596.88	30426.96
597.04	30815.49
597.20	30314.62
597.36	30740.60
597.51	30611.87
597.67	30536.97
597.83	30455.05
597.99	30625.91
598.14	30670.38
598.30	30616.55
598.46	30618.89
598.61	30738.26
598.77	30319.30
598.93	30607.19
599.09	30541.65
599.24	30960.61
599.40	30824.86
599.56	30782.73
599.71	30728.89
599.87	30492.50
600.03	30256.11
600.18	30314.62
600.34	30412.92
600.50	30387.18
600.65	30249.08
600.81	30876.35
600.97	30696.13
601.12	30895.07
601.28	30789.75
601.44	30780.39
601.59	30756.98
601.75	30483.14
601.91	31108.06
602.06	30536.97
602.22	30375.47
602.37	30331.00
602.53	30672.72
602.69	30810.81
602.84	30597.82
603.00	30644.63
603.16	30588.46
603.31	30361.43
603.47	30710.17
603.62	30756.98
603.78	30754.64
603.94	30679.74
604.09	30555.69
604.25	30644.63
604.40	30338.02
604.56	30752.30
604.71	30747.62
604.87	30803.79
605.03	30874.01
605.18	30923.16
605.34	30380.15
605.49	30522.93
605.65	30656.34
605.80	30305.26
605.96	30567.40
606.12	30359.09
606.27	30635.27
606.43	30263.13
606.58	30436.33
606.74	30841.24
606.89	30700.81
607.05	30520.59
607.20	30710.17
607.36	30501.86
607.51	30899.75
607.67	30352.07
607.82	30340.36
607.98	30316.96
608.13	30845.92
608.29	30176.53
608.44	30127.38
608.60	30672.72
608.75	30930.18
608.91	30574.42
609.06	30307.60
609.22	30490.16
609.37	30129.72
609.53	29996.31
609.68	30256.11
609.84	30433.99
609.99	30462.07
610.15	30272.49
610.30	29804.38
610.46	30433.99
610.61	30309.94
610.76	30373.13
610.92	30132.06
611.07	30253.76
611.23	30251.42
611.38	30359.09
611.54	30040.78
611.69	30033.75
611.84	30211.64
612.00	30064.18
612.15	30110.99
612.31	30529.95
612.46	30087.59
612.62	30192.91
612.77	30157.80
612.92	30038.44
613.08	30382.49
613.23	30492.50
613.39	29951.84
613.54	29516.50
613.69	29869.92
613.85	29869.92
614.00	30270.15
614.15	30143.76
614.31	29909.71
614.46	30415.26
614.62	30218.66
614.77	30110.99
614.92	29923.75
615.08	29963.54
615.23	30005.67
615.38	29720.12
615.54	29535.22
615.69	29649.91
615.84	29855.87
616.00	29886.30
616.15	29649.91
616.30	30132.06
616.46	29905.02
616.61	29860.55
616.76	29961.20
616.92	29535.22
617.07	29670.97
617.22	29795.02
617.37	29703.74
617.53	29827.79
617.68	29270.74
617.83	29345.64
617.99	29991.62
618.14	29282.44
618.29	29439.26
618.45	29837.15
618.60	29322.23
618.75	29373.72
618.90	29729.48
619.06	29727.14
619.21	29369.04
619.36	29504.79
619.51	29759.91
619.67	29001.58
619.82	29125.63
619.97	29455.64
620.12	29516.50
620.28	29298.83
620.43	29610.12
620.58	29479.05
620.73	29825.45
620.89	29535.22
621.04	29378.40
621.19	29336.27
621.34	29383.09
621.49	29268.40
621.65	29228.61
621.80	29378.40
621.95	28746.46
622.10	29511.81
622.25	29130.31
622.41	29088.18
622.56	29273.08
622.71	29277.76
622.86	29104.56
623.01	29256.70
623.16	29113.92
623.32	29043.71
623.47	29125.63
623.62	29163.08
623.77	28924.34
623.92	28821.36
624.07	29153.71
624.23	29153.71
624.38	29090.52
624.53	29549.26
624.68	29247.33
624.83	29076.48
624.98	29053.07
625.13	28971.15
625.29	29184.14
625.44	29125.63
625.59	28456.23
625.74	28793.27
625.89	28444.53
626.04	28287.71
626.19	28652.84
626.34	28559.22
626.49	28718.37
626.65	28905.62
626.80	28596.67
626.95	28673.90
627.10	28903.28
627.25	28622.41
627.40	28432.83
627.55	28685.61
627.70	28437.51
627.85	28573.26
628.00	28474.96
628.15	28631.77
628.30	28500.70
628.45	28622.41
628.60	28212.82
628.76	28245.58
628.91	28648.16
629.06	28648.16
629.21	28446.87
629.36	28481.98
629.51	28570.92
629.66	27967.06
629.81	28128.56
629.96	27922.59
630.11	28102.81
630.26	28304.10
630.41	28486.66
630.56	27995.15
630.71	28341.55
630.86	28318.14
631.01	28086.43
631.16	28470.28
631.31	28109.83
631.46	28348.57
631.61	28100.47
631.76	28236.22
631.91	28126.22
632.06	28039.62
632.21	27910.89
632.36	28285.37
632.51	28329.84
632.66	27866.42
632.81	27803.22
632.96	27967.06
633.10	28095.79
633.25	27875.78
633.40	28175.37
633.55	27880.46
633.70	27887.48
633.85	28112.17
634.00	27899.19
634.15	27683.86
634.30	27707.26
634.45	27861.74
634.60	27660.45
634.75	27531.72
634.90	27725.99
635.05	27777.48
635.19	27859.40
635.34	27866.42
635.49	27791.52
635.64	27845.35
635.79	27735.35
635.94	27810.25
636.09	27461.51
636.24	27601.94
636.39	27435.76
636.53	27473.21
636.68	27461.51
636.83	27566.83
636.98	27946.00
637.13	27744.71
637.28	27505.98
637.43	27274.26
637.57	27573.85
637.72	27515.34
637.87	27541.08
638.02	27721.30
638.17	27548.11
638.32	27428.74
638.46	27335.12
638.61	27262.56
638.76	26859.99
638.91	27143.19
639.06	27047.23
639.20	27091.70
639.35	27599.60
639.50	27440.44
639.65	27658.11
639.80	27342.14
639.94	27302.35
640.09	27187.66
640.24	26794.45
640.39	26852.97
640.54	27550.45
640.68	26810.84
640.83	27171.28
640.98	26721.90
641.13	26630.62
641.27	27197.02
641.42	27166.60
641.57	26946.59
641.72	27367.88
641.86	26857.65
642.01	26644.66
642.16	26855.31
642.31	26735.94
642.45	26707.85
642.60	26518.27
642.75	26632.96
642.90	26525.29
643.04	26679.77
643.19	26508.91
643.34	26684.45
643.48	26396.56
643.63	26822.54
643.78	26665.72
643.93	26703.17
644.07	26813.18
644.22	27208.73
644.37	27047.23
644.51	26609.55
644.66	26462.10
644.81	26419.97
644.95	26586.15
645.10	26738.28
645.25	26415.29
645.39	26656.36
645.54	26899.78
645.69	26228.04
645.83	26581.46
645.98	26609.55
646.13	26754.66
646.27	26820.20
646.42	26410.60
646.57	26831.90
646.71	26284.22
646.86	26492.52
647.00	26192.94
647.15	26508.91
647.30	26625.93
647.44	26143.78
647.59	26448.05
647.74	26188.25
647.88	26455.08
648.03	26345.07
648.17	26235.06
648.32	26522.95
648.47	26452.73
648.61	26316.98
648.76	26483.16
648.90	26202.30
649.05	26113.36
649.20	26155.49
649.34	26331.03
649.49	25722.49
649.63	26036.12
649.78	25853.56
649.92	25951.86
650.07	25975.27
650.21	26043.14
650.36	26010.37
650.51	25916.75
650.65	26108.68
650.80	25916.75
650.94	25467.37
651.09	25895.69
651.23	25549.29
651.38	25778.66
651.52	25624.18
651.67	25928.45
651.81	25610.14
651.96	25855.90
652.10	25586.74
652.25	26113.36
652.39	25830.15
652.54	26047.82
652.68	25860.58
652.83	25806.75
652.97	26202.30
653.12	25523.54
653.26	25558.65
653.41	25764.62
653.55	25881.64
653.70	25645.25
653.84	25785.68
653.99	25462.69
654.13	25689.72
654.27	25385.45
654.42	25626.53
654.56	25865.26
654.71	25750.57
654.85	25558.65
655.00	25778.66
655.14	25401.83
655.29	25729.51
655.43	25781.00
655.57	25582.06
655.72	25109.27
655.86	25617.16
656.01	25694.40
656.15	24779.25
656.30	25207.57
656.44	25277.79
656.58	25071.82
656.73	25373.75
656.87	25553.97
657.01	25130.33
657.16	25504.82
657.30	25399.49
657.45	25130.33
657.59	25238.00
657.73	25252.04
657.88	25144.38
658.02	24865.85
658.16	24861.17
658.31	25025.01
658.45	25062.46
658.60	24793.29
658.74	24816.70
658.88	24915.00
659.03	24840.11
659.17	24992.24
659.31	25209.91
659.46	24856.49
659.60	24856.49
659.74	24952.45
659.89	24833.08
660.03	24905.64
660.17	24826.06
660.32	24287.74
660.46	24680.95
660.60	24503.07
660.74	24135.60
660.89	24657.54
661.03	24252.63
661.17	24470.30
661.32	24584.99
661.46	24313.48
661.60	24336.89
661.74	24676.27
661.89	24474.98
662.03	24547.54
662.17	24367.32
662.31	24137.94
662.46	24032.62
662.60	24161.35
662.74	24151.99
662.88	24051.34
663.03	24098.16
663.17	24133.26
663.31	23784.52
663.45	24180.07
663.60	23866.44
663.74	23899.21
663.88	23957.72
664.02	24041.98
664.17	23913.25
664.31	23695.58
664.45	23882.83
664.59	24107.52
664.73	23943.68
664.88	23840.70
665.02	23365.57
665.16	23777.50
665.30	23761.12
665.44	23772.82
665.59	23388.97
665.73	23552.81
665.87	23381.95
666.01	23403.02
666.15	23506.00
666.29	23325.78
666.44	23295.35
666.58	23318.76
666.72	23475.57
666.86	23594.94
667.00	23302.37
667.14	22960.66
667.28	23377.27
667.43	23014.49
667.57	23108.11
667.71	22852.99
667.85	22974.70
667.99	23168.96
668.13	23082.36
668.27	22995.76
668.41	22998.10
668.56	22845.97
668.70	23220.45
668.84	22974.70
668.98	22911.50
669.12	23009.81
669.26	22705.54
669.40	22752.35
669.54	22621.28
669.68	22944.27
669.82	22640.00
669.96	22429.35
670.10	22181.26
670.25	22630.64
670.39	22274.88
670.53	22384.88
670.67	22352.12
670.81	22010.40
670.95	22190.62
671.09	22647.02
671.23	22333.39
671.37	22412.97
671.51	22167.21
671.65	22066.57
671.79	22270.20
671.93	22160.19
672.07	21855.92
672.21	22209.34
672.35	21846.56
672.49	21914.44
672.63	21867.63
672.77	21530.59
672.91	21511.86
673.05	21406.54
673.19	21638.25
673.33	21783.37
673.47	21411.22
673.61	21675.70
673.75	21621.87
673.89	21776.34
674.03	21280.15
674.17	21530.59
674.31	21287.17
674.45	21120.99
674.59	21287.17
674.73	21177.17
674.87	20858.85
675.01	21013.33
675.15	21008.65
675.29	21046.10
675.43	21053.12
675.56	20947.79
675.70	20868.22
675.84	20889.28
675.98	20467.98
676.12	20844.81
676.26	21032.05
676.40	20716.08
676.54	20835.45
676.68	20531.18
676.82	20435.22
676.96	20304.15
677.10	20163.72
677.23	19988.18
677.37	20350.96
677.51	20397.77
677.65	19950.73
677.79	20116.90
677.93	19847.74
678.07	20114.56
678.21	20074.77
678.34	19852.42
678.48	19812.63
678.62	20020.94
678.76	19520.07
678.90	19513.05
679.04	19896.89
679.18	19550.49
679.31	19274.31
679.45	19412.40
679.59	19550.49
679.73	19557.52
679.87	19180.69
680.00	19138.56
680.14	19143.24
680.28	18902.17
680.42	19157.28
680.56	19271.97
680.70	19316.44
680.83	18909.19
680.97	19150.26
681.11	18801.52
681.25	18785.14
681.39	18972.38
681.52	18607.26
681.66	18712.58
681.80	18544.06
681.94	18459.81
682.07	18750.03
682.21	18288.95
682.35	18071.28
682.49	18153.20
682.62	18024.47
682.76	17996.38
682.90	18246.82
683.04	18239.79
683.17	18071.28
683.31	18286.61
683.45	17947.23
683.59	17724.88
683.72	17692.11
683.86	17956.59
684.00	17893.40
684.13	17380.82
684.27	17628.92
684.41	17530.61
684.55	17355.07
684.68	17221.66
684.82	17097.61
684.96	17018.04
685.09	17198.26
685.23	17146.76
685.37	16868.24
685.50	16940.80
685.64	17142.08
685.78	16992.29
685.91	17158.47
686.05	17048.46
686.19	16671.64
686.32	16980.59
686.46	16631.85
686.60	16580.36
686.73	16751.21
686.87	16475.03
687.01	16453.97
687.14	16505.46
687.28	16278.43
687.42	16208.21
687.55	16079.48
687.69	16133.31
687.82	15943.73
687.96	16374.39
688.10	16137.99
688.23	16086.50
688.37	16030.33
688.50	16121.61
688.64	15885.22
688.78	15796.28
688.91	15742.44
689.05	15943.73
689.18	15599.67
689.32	15543.50
689.46	15466.26
689.59	15407.75
689.73	15323.49
689.86	15220.50
690.00	15419.45
690.13	15192.42
690.27	15335.19
690.41	15176.03
690.54	15220.50
690.68	15279.02
690.81	15377.32
690.95	15047.30
691.08	15140.93
691.22	14705.59
691.35	14750.06
691.49	14899.85
691.62	14869.42
691.76	14764.10
691.89	14459.83
692.03	14787.50
692.16	14485.58
692.30	14188.33
692.43	14354.51
692.57	14216.41
692.70	14235.14
692.84	14059.60
692.97	14185.99
693.11	14239.82
693.24	14216.41
693.38	14113.43
693.51	13783.41
693.65	14017.47
693.78	13818.52
693.92	13638.30
694.05	13736.60
694.19	13713.20
694.32	13593.83
694.45	13460.42
694.59	13598.51
694.72	13397.23
694.86	13446.38
694.99	13233.39
695.13	13317.65
695.26	13195.94
695.39	13186.58
695.53	13240.41
695.66	13137.43
695.80	12954.87
695.93	13083.59
696.07	12856.56
696.20	13107.00
696.33	12943.16
696.47	12650.60
696.60	13025.08
696.73	12470.37
696.87	12821.45
697.00	12758.26
697.14	12390.80
697.27	12233.98
697.40	12629.53
697.54	12423.56
697.67	12173.13
697.80	12367.39
697.94	12037.38
698.07	12334.62
698.21	12107.59
698.34	12358.03
698.47	12018.65
698.61	12109.93
698.74	12156.74
698.87	12168.45
699.01	11885.24
699.14	11779.92
699.27	11861.84
699.40	11854.81
699.54	11864.18
699.67	11648.85
699.80	11508.41
699.94	11384.37
700.07	11400.75
700.20	11260.32
700.34	11470.97
700.47	11133.93
700.60	11152.65
700.73	11302.45
700.87	11447.56
701.00	11117.54
701.13	11279.04
701.26	11070.73
701.40	11290.74
701.53	10920.94
701.66	11026.26
701.79	10934.98
701.93	10696.25
702.06	10796.89
702.19	10757.10
702.32	10597.95
702.46	10532.41
702.59	10523.05
702.72	10672.84
702.85	10499.64
702.99	10485.60
703.12	10501.98
703.25	10427.09
703.38	10434.11
703.51	10289.00
703.65	10291.34
703.78	10391.98
703.91	10361.55
704.04	10235.16
704.17	10284.31
704.31	10237.50
704.44	10132.18
704.57	9919.19
704.70	10160.27
704.83	9811.53
704.96	9802.16
705.10	9713.22
705.23	9879.40
>>>>>End Processed Spectral Data<<<<<
