SpectraSuite Data File
++++++++++++++++++++++++++++++++++++
Date: Fri Oct 18 13:58:41 GMT-05:00 2013
User: bianchi
Dark Spectrum Present: No
Reference Spectrum Present: No
Number of Sampled Component Spectra: 1
Spectrometers: USB2+H05261
Integration Time (usec): 50000 (USB2+H05261)
Spectra Averaged: 1 (USB2+H05261)
Boxcar Smoothing: 0 (USB2+H05261)
Correct for Electrical Dark: No (USB2+H05261)
Strobe/Lamp Enabled: No (USB2+H05261)
Correct for Detector Non-linearity: No (USB2+H05261)
Correct for Stray Light: No (USB2+H05261)
Number of Pixels in Processed Spectrum: 2048
>>>>>Begin Processed Spectral Data<<<<<
365.73	0.00
365.92	0.00
366.12	0.00
366.32	0.00
366.52	0.00
366.72	0.00
366.91	0.00
367.11	0.00
367.31	0.00
367.51	0.00
367.70	0.00
367.90	0.00
368.10	0.00
368.30	0.00
368.49	0.00
368.69	0.00
368.89	0.00
369.09	0.00
369.28	0.00
369.48	0.00
369.68	0.00
369.87	0.00
370.07	0.00
370.27	0.00
370.47	0.00
370.66	65.54
370.86	88.94
371.06	77.24
371.25	114.69
371.45	95.96
371.65	112.35
371.84	198.95
372.04	156.82
372.24	126.39
372.44	161.50
372.63	163.84
372.83	231.71
373.03	152.13
373.22	227.03
373.42	98.30
373.62	231.71
373.81	250.44
374.01	238.73
374.21	234.05
374.40	250.44
374.60	217.67
374.79	203.63
374.99	208.31
375.19	280.86
375.38	194.26
375.58	196.60
375.78	212.99
375.97	299.59
376.17	222.35
376.37	248.10
376.56	229.37
376.76	229.37
376.95	299.59
377.15	308.95
377.35	283.20
377.54	299.59
377.74	304.27
377.93	248.10
378.13	215.33
378.33	278.52
378.52	327.68
378.72	278.52
378.91	294.91
379.11	287.89
379.31	220.01
379.50	271.50
379.70	212.99
379.89	248.10
380.09	259.80
380.28	355.76
380.48	313.63
380.68	301.93
380.87	346.40
381.07	348.74
381.26	346.40
381.46	374.49
381.65	351.08
381.85	425.98
382.04	351.08
382.24	315.97
382.43	287.89
382.63	348.74
382.83	334.70
383.02	381.51
383.22	397.89
383.41	337.04
383.61	381.51
383.80	362.78
384.00	283.20
384.19	381.51
384.39	344.06
384.58	330.02
384.78	344.06
384.97	393.21
385.17	318.31
385.36	346.40
385.56	383.85
385.75	353.42
385.95	421.30
386.14	454.06
386.34	339.38
386.53	425.98
386.72	379.17
386.92	376.83
387.11	421.30
387.31	383.85
387.50	390.87
387.70	430.66
387.89	437.68
388.09	437.68
388.28	493.85
388.48	430.66
388.67	463.43
388.86	414.27
389.06	472.79
389.25	362.78
389.45	491.51
389.64	409.59
389.84	409.59
390.03	540.66
390.22	411.93
390.42	451.72
390.61	505.56
390.81	479.81
391.00	477.47
391.19	449.38
391.39	456.40
391.58	482.15
391.78	454.06
391.97	550.03
392.16	477.47
392.36	550.03
392.55	545.34
392.75	442.36
392.94	465.77
393.13	512.58
393.33	472.79
393.52	486.83
393.71	606.20
393.91	624.92
394.10	517.26
394.29	428.32
394.49	477.47
394.68	571.09
394.88	528.96
395.07	620.24
395.26	585.13
395.46	697.48
395.65	582.79
395.84	608.54
396.04	634.29
396.23	585.13
396.42	772.38
396.62	709.18
396.81	674.07
397.00	702.16
397.19	664.71
397.39	709.18
397.58	690.46
397.77	674.07
397.97	648.33
398.16	631.94
398.35	676.41
398.55	641.31
398.74	664.71
398.93	744.29
399.12	734.93
399.32	702.16
399.51	720.88
399.70	716.20
399.90	662.37
400.09	758.33
400.28	711.52
400.47	718.54
400.67	809.83
400.86	732.59
401.05	730.25
401.24	748.97
401.44	821.53
401.63	933.87
401.82	793.44
402.01	788.76
402.21	837.91
402.40	847.27
402.59	863.66
402.78	737.27
402.97	938.55
403.17	866.00
403.36	830.89
403.55	741.95
403.74	917.49
403.93	919.83
404.13	917.49
404.32	917.49
404.51	924.51
404.70	947.92
404.89	919.83
405.09	1128.14
405.28	990.05
405.47	1034.52
405.66	917.49
405.85	990.05
406.05	844.93
406.24	1020.47
406.43	999.41
406.62	990.05
406.81	1029.84
407.00	940.90
407.20	1020.47
407.39	1081.33
407.58	1008.77
407.77	1062.60
407.96	1086.01
408.15	1053.24
408.34	1032.18
408.54	957.28
408.73	1088.35
408.92	1078.99
409.11	1149.20
409.30	1102.39
409.49	1074.31
409.68	1186.65
409.87	1156.22
410.07	1186.65
410.26	1193.67
410.45	1074.31
410.64	1177.29
410.83	1277.93
411.02	1125.80
411.21	1205.38
411.40	1107.07
411.59	1214.74
411.78	1322.40
411.98	1205.38
412.17	1313.04
412.36	1219.42
412.55	1287.29
412.74	1373.89
412.93	1345.81
413.12	1315.38
413.31	1383.26
413.50	1427.73
413.69	1390.28
413.88	1465.18
414.07	1364.53
414.26	1416.02
414.45	1537.73
414.64	1542.41
414.83	1483.90
415.02	1509.65
415.22	1640.72
415.41	1507.30
415.60	1446.45
415.79	1547.09
415.98	1575.18
416.17	1584.54
416.36	1551.78
416.55	1598.59
416.74	1570.50
416.93	1544.75
417.12	1668.80
417.31	1666.46
417.50	1706.25
417.69	1612.63
417.88	1715.61
418.07	1650.08
418.26	1614.97
418.45	1736.68
418.64	1792.85
418.83	1748.38
419.02	1853.70
419.21	1764.76
419.39	1846.68
419.58	1774.13
419.77	1820.94
419.96	1837.32
420.15	1790.51
420.34	1837.32
420.53	1832.64
420.72	1900.52
420.91	2015.20
421.10	1959.03
421.29	1935.62
421.48	1952.01
421.67	1977.75
421.86	1963.71
422.05	1895.83
422.24	1902.86
422.43	1919.24
422.61	1952.01
422.80	1937.96
422.99	2003.50
423.18	2073.71
423.37	2125.21
423.56	2029.24
423.75	1991.80
423.94	1914.56
424.13	1914.56
424.32	1825.62
424.50	2010.52
424.69	2071.37
424.88	2157.97
425.07	1928.60
425.26	1987.11
425.45	1989.46
425.64	2033.93
425.83	1982.43
426.01	1991.80
426.20	2031.58
426.39	2118.18
426.58	2026.90
426.77	1944.99
426.96	2059.67
427.15	2165.00
427.33	2057.33
427.52	2071.37
427.71	2193.08
427.90	2193.08
428.09	2165.00
428.28	2174.36
428.46	2132.23
428.65	2195.42
428.84	2258.62
429.03	2230.53
429.22	2167.34
429.40	2221.17
429.59	2253.94
429.78	1984.77
429.97	2125.21
430.16	2153.29
430.34	2277.34
430.53	2216.49
430.72	2356.92
430.91	2214.15
431.10	2256.28
431.28	2420.11
431.47	2413.09
431.66	2340.54
431.85	2293.72
432.03	2272.66
432.22	2410.75
432.41	2420.11
432.60	2523.10
432.79	2487.99
432.97	2450.54
433.16	2497.35
433.35	2420.11
433.54	2448.20
433.72	2551.18
433.91	2392.03
434.10	2495.01
434.28	2410.75
434.47	2658.85
434.66	2605.02
434.85	2619.06
435.03	2572.25
435.22	2480.97
435.41	2567.57
435.59	2560.55
435.78	2511.39
435.97	2663.53
436.16	2712.68
436.34	2593.31
436.53	2710.34
436.72	2637.78
436.90	2651.83
437.09	2733.75
437.28	2558.21
437.46	2668.21
437.65	2740.77
437.84	2857.79
438.02	2778.22
438.21	2796.94
438.40	2691.62
438.58	2871.84
438.77	2895.24
438.96	2897.58
439.14	2869.50
439.33	2869.50
439.52	2782.90
439.70	2881.20
439.89	3014.61
440.08	3052.06
440.26	2958.44
440.45	2998.23
440.63	3047.38
440.82	3061.42
441.01	3133.98
441.19	3157.38
441.38	3028.65
441.57	3339.94
441.75	3239.30
441.94	3215.90
442.12	3311.86
442.31	3386.76
442.50	3318.88
442.68	3213.56
442.87	3307.18
443.05	3262.71
443.24	3346.97
443.43	3260.37
443.61	3361.01
443.80	3433.57
443.98	3241.64
444.17	3236.96
444.35	3328.24
444.54	3461.65
444.73	3588.04
444.91	3335.26
445.10	3393.78
445.28	3456.97
445.47	3384.41
445.65	3428.88
445.84	3445.27
446.02	3562.30
446.21	3393.78
446.39	3421.86
446.58	3482.72
446.77	3527.19
446.95	3389.10
447.14	3353.99
447.32	3442.93
447.51	3499.10
447.69	3559.95
447.88	3548.25
448.06	3478.04
448.25	3527.19
448.43	3630.17
448.62	3707.41
448.80	3417.18
448.99	3463.99
449.17	3557.61
449.36	3487.40
449.54	3585.70
449.73	3740.18
449.91	3515.48
450.10	3691.02
450.28	3602.08
450.46	3669.96
450.65	3609.11
450.83	3765.92
451.02	3707.41
451.20	3850.18
451.39	3868.91
451.57	3794.01
451.76	3639.53
451.94	3824.44
452.13	4058.49
452.31	3974.23
452.49	3953.16
452.68	3845.50
452.86	3857.20
453.05	3819.75
453.23	3775.28
453.42	3852.52
453.60	3648.90
453.78	3976.57
453.97	3861.88
454.15	3845.50
454.34	3866.56
454.52	4018.70
454.70	3955.51
454.89	3955.51
455.07	3983.59
455.26	3983.59
455.44	3964.87
455.62	3969.55
455.81	4063.17
455.99	4002.32
456.17	4119.34
456.36	4086.58
456.54	4149.77
456.73	4175.52
456.91	4276.16
457.09	4126.36
457.28	4231.69
457.46	4285.52
457.64	4257.43
457.83	4393.19
458.01	4187.22
458.19	4468.08
458.38	4278.50
458.56	4367.44
458.74	4440.00
458.93	4325.31
459.11	4287.86
459.29	4454.04
459.48	4411.91
459.66	4465.74
459.84	4568.73
460.03	4636.60
460.21	4540.64
460.39	4566.39
460.57	4435.32
460.76	4409.57
460.94	4554.68
461.12	4615.54
461.31	4650.64
461.49	4498.51
461.67	4510.21
461.85	4655.33
462.04	4706.82
462.22	4716.18
462.40	4753.63
462.59	4699.80
462.77	4809.80
462.95	4695.11
463.13	4723.20
463.32	4882.36
463.50	4784.06
463.68	4788.74
463.86	4741.93
464.05	4683.41
464.23	4891.72
464.41	4905.76
464.59	4917.47
464.78	4910.44
464.96	4854.27
465.14	4814.48
465.32	4903.42
465.50	4975.98
465.69	4887.04
465.87	4854.27
466.05	4931.51
466.23	4875.34
466.41	5025.13
466.60	5074.28
466.78	5008.75
466.96	4933.85
467.14	5085.98
467.32	4985.34
467.51	5004.07
467.69	5050.88
467.87	5153.86
468.05	5015.77
468.23	5137.48
468.41	5015.77
468.60	5055.56
468.78	5287.27
468.96	5193.65
469.14	5203.01
469.32	5254.50
469.50	5224.08
469.69	5416.00
469.87	5343.44
470.05	5345.78
470.23	5357.49
470.41	5448.77
470.59	5500.26
470.77	5411.32
470.95	5394.93
471.14	5589.20
471.32	5373.87
471.50	5547.07
471.68	5472.17
471.86	5540.05
472.04	5544.73
472.22	5811.55
472.40	5678.14
472.58	5626.65
472.77	5659.42
472.95	5788.14
473.13	5881.77
473.31	5724.95
473.49	6066.67
473.67	5837.30
473.85	5797.51
474.03	5963.68
474.21	5914.53
474.39	6024.54
474.57	6263.27
474.75	6078.37
474.93	6132.20
475.12	6125.18
475.30	6122.84
475.48	6179.01
475.66	6150.93
475.84	6101.78
476.02	6256.25
476.20	6303.06
476.38	6424.77
476.56	6485.62
476.74	6399.02
476.92	6604.99
477.10	6399.02
477.28	6630.74
477.46	6417.75
477.64	6703.29
477.82	6888.20
478.00	6853.09
478.18	6839.05
478.36	6979.48
478.54	7105.87
478.72	6871.81
478.90	7096.50
479.08	6965.43
479.26	7246.30
479.44	7321.20
479.62	7234.60
479.80	7222.89
479.98	7536.52
480.16	7559.93
480.34	7389.07
480.52	7503.76
480.70	7531.84
480.88	7391.41
481.06	7648.87
481.24	7576.31
481.41	7653.55
481.59	7911.01
481.77	7913.35
481.95	8025.70
482.13	8159.11
482.31	7908.67
482.49	8402.52
482.67	8252.73
482.85	8168.47
483.03	8374.44
483.21	8809.78
483.39	8613.17
483.57	8641.26
483.74	8706.79
483.92	8732.54
484.10	8730.20
484.28	8950.21
484.46	8884.67
484.64	9179.58
484.82	8957.23
485.00	9125.75
485.18	9228.73
485.35	9301.29
485.53	9430.02
485.71	9327.03
485.89	9542.36
486.07	9486.19
486.25	9638.33
486.43	9664.07
486.61	9687.48
486.78	9916.85
486.96	9703.86
487.14	10024.51
487.32	10111.11
487.50	10207.08
487.68	10078.35
487.85	10136.86
488.03	10256.23
488.21	10504.32
488.39	10520.71
488.57	10703.27
488.75	10698.59
488.92	10707.95
489.10	10864.77
489.28	10897.53
489.46	11005.20
489.64	11112.86
489.81	11101.16
489.99	11393.73
490.17	11288.40
490.35	11468.62
490.53	11609.06
490.70	11557.57
490.88	11693.32
491.06	11852.47
491.24	11562.25
491.41	11932.05
491.59	12201.21
491.77	11901.62
491.95	12222.28
492.13	12301.86
492.30	12210.57
492.48	12339.30
492.66	12236.32
492.84	12437.61
493.01	12409.52
493.19	12582.72
493.37	12837.84
493.54	12699.75
493.72	13046.15
493.90	12727.83
494.08	12774.64
494.25	13048.49
494.43	13118.70
494.61	13109.34
494.79	13099.98
494.96	13451.06
495.14	13240.41
495.32	13610.22
495.49	13638.30
495.67	13605.53
495.85	13825.54
496.02	13841.93
496.20	13907.46
496.38	13802.14
496.55	13764.69
496.73	14132.15
496.91	13928.53
497.09	14169.60
497.26	14516.00
497.44	14415.36
497.62	14356.85
497.79	14492.60
497.97	14450.47
498.14	14710.27
498.32	14920.92
498.50	14672.82
498.67	14839.00
498.85	14970.07
499.03	14778.14
499.20	14839.00
499.38	15068.37
499.56	15014.54
499.73	15117.52
499.91	15346.89
500.08	15150.29
500.26	15433.49
500.44	15370.30
500.61	15410.09
500.79	15367.96
500.97	15564.56
501.14	15913.30
501.32	15747.12
501.49	15571.58
501.67	15557.54
501.84	15859.47
502.02	16020.97
502.20	15728.40
502.37	15971.82
502.55	15765.85
502.72	16018.63
502.90	16006.92
503.07	16053.73
503.25	16079.48
503.43	16067.78
503.60	16238.64
503.78	16547.59
503.95	16503.12
504.13	16676.32
504.30	16650.57
504.48	16732.49
504.65	16540.57
504.83	16671.64
505.01	16889.31
505.18	17003.99
505.36	17128.04
505.53	16809.73
505.71	17043.78
505.88	16891.65
506.06	17053.14
506.23	17224.00
506.41	16924.41
506.58	17331.67
506.76	17392.52
506.93	17357.41
507.11	17364.43
507.28	17598.49
507.46	17547.00
507.63	17633.60
507.81	17996.38
507.98	17444.01
508.16	17752.96
508.33	17792.75
508.50	17816.16
508.68	17827.86
508.85	18108.72
509.03	17877.01
509.20	18209.37
509.38	18050.21
509.55	18415.34
509.73	18373.21
509.90	18279.58
510.08	18258.52
510.25	18427.04
510.42	18511.30
510.60	18618.96
510.77	18743.01
510.95	18719.60
511.12	18553.43
511.30	18530.02
511.47	18625.98
511.64	18750.03
511.82	18988.77
511.99	18948.98
512.17	19138.56
512.34	18618.96
512.51	18860.04
512.69	19173.67
512.86	19131.54
513.04	19564.54
513.21	19468.58
513.38	19232.18
513.56	19208.78
513.73	19393.68
513.90	19508.37
514.08	19307.08
514.25	19522.41
514.43	19239.20
514.60	19843.06
514.77	19555.18
514.95	19843.06
515.12	19627.73
515.29	19709.65
515.47	19866.47
515.64	20018.60
515.81	19632.41
515.99	20240.95
516.16	20547.56
516.33	19950.73
516.51	19939.02
516.68	20215.21
516.85	19948.39
517.03	20467.98
517.20	20456.28
517.37	20212.87
517.54	20411.81
517.72	20519.48
517.89	20437.56
518.06	20587.35
518.24	20795.66
518.41	20332.23
518.58	20620.12
518.75	20739.49
518.93	21090.57
519.10	21277.81
519.27	20765.23
519.45	20919.71
519.62	20734.81
519.79	20849.49
519.96	20926.73
520.14	21245.04
520.31	21088.23
520.48	21245.04
520.65	21518.89
520.83	21394.84
521.00	21418.24
521.17	21385.47
521.34	21589.10
521.52	21488.46
521.69	21530.59
521.86	21532.93
522.03	21816.13
522.20	21727.19
522.38	21755.28
522.55	21891.03
522.72	21649.96
522.89	21640.59
523.07	21834.86
523.24	21750.60
523.41	22085.30
523.58	21738.90
523.75	22054.87
523.92	21949.54
524.10	21769.32
524.27	22199.98
524.44	22188.28
524.61	22548.72
524.78	22281.90
524.96	22368.50
525.13	22232.75
525.30	22153.17
525.47	22211.68
525.64	22438.72
525.81	22614.26
525.98	22752.35
526.16	22656.39
526.33	22693.83
526.50	23082.36
526.67	22429.35
526.84	22930.23
527.01	22544.04
527.18	23157.26
527.36	22927.89
527.53	22609.58
527.70	23164.28
527.87	23084.70
528.04	22918.53
528.21	22995.76
528.38	23185.35
528.55	23145.56
528.72	22934.91
528.89	23005.13
529.07	23145.56
529.24	23194.71
529.41	23655.79
529.58	23164.28
529.75	23695.58
529.92	23374.93
530.09	23208.75
530.26	23676.86
530.43	23627.71
530.60	23758.78
530.77	23770.48
530.94	23667.50
531.11	23487.28
531.28	23601.96
531.46	23473.23
531.63	23735.37
531.80	23576.22
531.97	24002.19
532.14	24147.31
532.31	23807.93
532.48	24121.56
532.65	24334.55
532.82	23934.32
532.99	24067.73
533.16	23852.40
533.33	24224.54
533.50	24222.20
533.67	24386.04
533.84	24287.74
534.01	23917.93
534.18	23915.59
534.35	24297.10
534.52	24194.12
534.69	24648.18
534.86	24580.31
535.03	24474.98
535.20	24526.47
535.37	24627.12
535.54	24589.67
535.71	24116.88
535.88	24524.13
536.05	24793.29
536.22	24826.06
536.38	24582.65
536.55	24732.44
536.72	24891.60
536.89	24676.27
537.06	24491.37
537.23	25029.69
537.40	24755.85
537.57	24929.05
537.74	24889.26
537.91	25067.14
538.08	25170.12
538.25	25076.50
538.42	25596.10
538.59	25177.14
538.75	24812.02
538.92	25247.36
539.09	25193.53
539.26	25235.66
539.43	25453.33
539.60	25776.32
539.77	25572.69
539.94	25441.62
540.11	25116.29
540.28	25500.14
540.44	25603.12
540.61	25565.67
540.78	25411.20
540.95	25846.54
541.12	25465.03
541.29	25198.21
541.46	25614.82
541.62	25678.02
541.79	25678.02
541.96	25411.20
542.13	25294.17
542.30	25778.66
542.47	26031.44
542.63	25979.95
542.80	26176.55
542.97	26078.25
543.14	25972.92
543.31	26134.42
543.48	26068.89
543.64	26663.38
543.81	26473.80
543.98	26366.13
544.15	26424.65
544.32	26340.39
544.48	26366.13
544.65	26380.18
544.82	26574.44
544.99	25914.41
545.16	26494.86
545.32	26445.71
545.49	26714.87
545.66	26654.02
545.83	26536.99
546.00	26878.71
546.16	26520.61
546.33	26689.13
546.50	26146.12
546.67	26160.17
546.83	26366.13
547.00	26721.90
547.17	26792.11
547.34	26651.68
547.50	26838.92
547.67	27391.29
547.84	26888.07
548.00	26937.23
548.17	26906.80
548.34	26721.90
548.51	27175.96
548.67	27058.93
548.84	26806.16
549.01	27405.33
549.18	26759.34
549.34	26951.27
549.51	26941.91
549.68	27005.10
549.84	27044.89
550.01	27297.67
550.18	27030.85
550.34	27386.61
550.51	27332.78
550.68	27538.74
550.84	26780.41
551.01	27309.37
551.18	26902.12
551.34	27182.98
551.51	27578.53
551.68	27559.81
551.84	27489.59
552.01	27435.76
552.18	27936.63
552.34	27868.76
552.51	27077.66
552.68	27833.65
552.84	27529.38
553.01	27676.83
553.18	27508.32
553.34	27524.70
553.51	27543.42
553.67	27910.89
553.84	28006.85
554.01	27889.82
554.17	27922.59
554.34	27866.42
554.51	27660.45
554.67	28144.94
554.84	28158.99
555.00	28023.23
555.17	27730.67
555.33	27810.25
555.50	27716.62
555.67	28158.99
555.83	27974.08
556.00	27655.77
556.16	28400.06
556.33	27871.10
556.50	27850.03
556.66	28215.16
556.83	28161.33
556.99	28311.12
557.16	28563.90
557.32	28360.27
557.49	28273.67
557.65	28400.06
557.82	28205.80
557.98	28048.98
558.15	28137.92
558.32	28568.58
558.48	28100.47
558.65	28025.57
558.81	28367.29
558.98	28425.81
559.14	28519.43
559.31	28180.05
559.47	28208.14
559.64	28603.69
559.80	28666.88
559.97	28563.90
560.13	28278.35
560.30	29294.14
560.46	28767.52
560.63	28596.67
560.79	28561.56
560.96	28645.82
561.12	28493.68
561.29	28561.56
561.45	28938.38
561.61	28624.75
561.78	29046.05
561.94	28360.27
562.11	28865.83
562.27	29013.28
562.44	28701.99
562.60	28732.42
562.77	28893.91
562.93	28690.29
563.10	28961.79
563.26	28769.86
563.42	29046.05
563.59	28811.99
563.75	28861.15
563.92	28718.37
564.08	28739.44
564.24	28912.64
564.41	28758.16
564.57	28748.80
564.74	29029.66
564.90	28746.46
565.07	29015.62
565.23	29399.47
565.39	28893.91
565.56	29270.74
565.72	28844.76
565.88	28947.75
566.05	29069.45
566.21	28987.53
566.38	28994.56
566.54	29242.65
566.70	29319.89
566.87	29654.59
567.03	29436.92
567.19	29612.46
567.36	29432.24
567.52	29237.97
567.68	29305.85
567.85	29570.33
568.01	28849.44
568.17	28954.77
568.34	29139.67
568.50	29394.79
568.66	29151.37
568.83	29640.54
568.99	29184.14
569.15	28924.34
569.32	29336.27
569.48	29062.43
569.64	28973.49
569.81	29427.56
569.97	29600.76
570.13	29404.15
570.30	29369.04
570.46	29500.11
570.62	29441.60
570.78	29216.91
570.95	29387.77
571.11	29050.73
571.27	29315.21
571.43	29195.84
571.60	29298.83
571.76	29303.51
571.92	29046.05
572.09	29029.66
572.25	29319.89
572.41	28933.70
572.57	29472.03
572.74	29558.63
572.90	29406.49
573.06	29483.73
573.22	29209.89
573.38	28987.53
573.55	29284.78
573.71	29778.64
573.87	29645.23
574.03	29256.70
574.20	29244.99
574.36	29591.39
574.52	29757.57
574.68	29207.55
574.84	29465.00
575.01	29607.78
575.17	29511.81
575.33	29467.34
575.49	29628.84
575.65	29724.80
575.82	29780.98
575.98	29617.14
576.14	29443.94
576.30	29799.70
576.46	29715.44
576.62	29579.69
576.79	29429.90
576.95	29532.88
577.11	29584.37
577.27	29661.61
577.43	29551.60
577.59	29493.09
577.75	29729.48
577.92	29441.60
578.08	29591.39
578.24	29818.42
578.40	29504.79
578.56	29521.18
578.72	29715.44
578.88	29947.15
579.04	29956.52
579.21	29338.62
579.37	29502.45
579.53	29563.31
579.69	29518.84
579.85	29621.82
580.01	29567.99
580.17	29685.01
580.33	29883.96
580.49	29734.17
580.65	29783.32
580.82	29633.52
580.98	29865.24
581.14	29759.91
581.30	29778.64
581.46	29933.11
581.62	29563.31
581.78	29525.86
581.94	29233.29
582.10	29570.33
582.26	29483.73
582.42	29895.66
582.58	30169.51
582.74	29476.71
582.90	29984.60
583.06	29951.84
583.22	29415.85
583.38	29951.84
583.54	29605.44
583.70	29780.98
583.86	30012.69
584.02	29649.91
584.18	29893.32
584.34	30192.91
584.50	29703.74
584.66	29750.55
584.82	29469.69
584.98	29591.39
585.14	29560.97
585.30	29689.70
585.46	29677.99
585.62	29436.92
585.78	30022.05
585.94	29511.81
586.10	29741.19
586.26	29986.94
586.42	30218.66
586.58	30017.37
586.74	29404.15
586.90	29553.94
587.06	29591.39
587.22	29195.84
587.38	29766.93
587.54	29823.11
587.70	30092.27
587.86	30157.80
588.02	30008.01
588.18	30110.99
588.34	30003.33
588.49	30043.12
588.65	29930.77
588.81	29998.65
588.97	29982.26
589.13	29497.77
589.29	29790.34
589.45	30026.73
589.61	30101.63
589.77	30253.76
589.93	30412.92
590.08	29993.97
590.24	30213.98
590.40	30340.36
590.56	30370.79
590.72	30005.67
590.88	30024.39
591.04	29839.49
591.20	30508.88
591.35	30078.22
591.51	30312.28
591.67	30043.12
591.83	29998.65
591.99	30401.22
592.15	30464.41
592.31	30022.05
592.46	30071.20
592.62	30024.39
592.78	29820.77
592.94	29926.09
593.10	30171.85
593.26	30237.38
593.41	30377.81
593.57	30387.18
593.73	30183.55
593.89	30359.09
594.05	30377.81
594.20	29813.74
594.36	30382.49
594.52	30153.12
594.68	29989.28
594.84	30450.37
594.99	30256.11
595.15	29970.56
595.31	30192.91
595.47	30476.12
595.62	30623.57
595.78	30195.25
595.94	29895.66
596.10	30204.61
596.25	30246.74
596.41	30462.07
596.57	30078.22
596.73	30022.05
596.88	30015.03
597.04	30476.12
597.20	30646.97
597.36	30609.53
597.51	30410.58
597.67	30445.69
597.83	30181.21
597.99	30403.56
598.14	30141.42
598.30	30333.34
598.46	30656.34
598.61	30595.48
598.77	30281.85
598.93	30520.59
599.09	30586.12
599.24	30527.61
599.40	30419.94
599.56	30569.74
599.71	30345.05
599.87	30148.44
600.03	30003.33
600.18	30536.97
600.34	29951.84
600.50	30628.25
600.65	30504.20
600.81	30562.72
600.97	30171.85
601.12	30651.66
601.28	30813.15
601.44	30546.33
601.59	30518.25
601.75	30356.75
601.91	30412.92
602.06	30359.09
602.22	30452.71
602.37	30614.21
602.53	30333.34
602.69	30562.72
602.84	30349.73
603.00	30487.82
603.16	30497.18
603.31	30476.12
603.47	30010.35
603.62	30373.13
603.78	30239.72
603.94	30017.37
604.09	30429.30
604.25	30174.19
604.40	30237.38
604.56	30548.67
604.71	30642.29
604.87	30230.36
605.03	30192.91
605.18	30595.48
605.34	30438.67
605.49	30094.61
605.65	30237.38
605.80	30050.14
605.96	30188.23
606.12	30108.65
606.27	30122.69
606.43	29989.28
606.58	30080.56
606.74	30190.57
606.89	30726.55
607.05	30277.17
607.20	30651.66
607.36	30373.13
607.51	30614.21
607.67	30043.12
607.82	29998.65
607.98	30295.89
608.13	30075.88
608.29	30181.21
608.44	29984.60
608.60	30038.44
608.75	30546.33
608.91	30520.59
609.06	30106.31
609.22	30487.82
609.37	30075.88
609.53	29916.73
609.68	29998.65
609.84	30164.82
609.99	29947.15
610.15	29558.63
610.30	30043.12
610.46	30338.02
610.61	30075.88
610.76	30000.99
610.92	30127.38
611.07	30209.29
611.23	30139.08
611.38	29993.97
611.54	29640.54
611.69	29907.37
611.84	29869.92
612.00	29832.47
612.15	29668.63
612.31	30000.99
612.46	29811.40
612.62	30415.26
612.77	29558.63
612.92	30162.48
613.08	29750.55
613.23	30246.74
613.39	29809.06
613.54	29525.86
613.69	29500.11
613.85	29720.12
614.00	29696.72
614.15	30192.91
614.31	29743.53
614.46	30141.42
614.62	29668.63
614.77	29902.68
614.92	29530.54
615.08	29535.22
615.23	29600.76
615.38	29895.66
615.54	29490.75
615.69	29495.43
615.84	29818.42
616.00	29652.25
616.15	29181.80
616.30	29677.99
616.46	29682.67
616.61	29680.33
616.76	29340.96
616.92	29439.26
617.07	29720.12
617.22	29507.13
617.37	29352.66
617.53	29701.40
617.68	29261.38
617.83	29247.33
617.99	29624.16
618.14	29631.18
618.29	29296.49
618.45	29347.98
618.60	29235.63
618.75	29773.95
618.90	29266.06
619.06	29338.62
619.21	29226.27
619.36	29329.25
619.51	29006.26
619.67	28720.71
619.82	28772.21
619.97	29095.20
620.12	29017.96
620.28	29289.46
620.43	28957.11
620.58	29284.78
620.73	29163.08
620.89	29593.73
621.04	29460.32
621.19	29156.05
621.34	28999.24
621.49	29132.65
621.65	28896.25
621.80	29137.33
621.95	28919.66
622.10	29099.88
622.25	29081.16
622.41	29174.78
622.56	29097.54
622.71	28865.83
622.86	28863.49
623.01	29144.35
623.16	28608.37
623.32	28950.09
623.47	28753.48
623.62	28610.71
623.77	29207.55
623.92	28882.21
624.07	28620.07
624.23	28914.98
624.38	28690.29
624.53	28868.17
624.68	28732.42
624.83	29071.79
624.98	28746.46
625.13	28528.79
625.29	28547.51
625.44	28528.79
625.59	28521.77
625.74	28376.66
625.89	28575.60
626.04	28545.17
626.19	28582.62
626.34	28521.77
626.49	28229.20
626.65	28720.71
626.80	28697.31
626.95	28315.80
627.10	28357.93
627.25	28594.32
627.40	28371.97
627.55	28304.10
627.70	28311.12
627.85	28425.81
628.00	28140.26
628.15	27929.61
628.30	28166.01
628.45	28084.09
628.60	28140.26
628.76	28479.64
628.91	28210.48
629.06	28634.11
629.21	28123.88
629.36	28407.08
629.51	28320.48
629.66	28217.50
629.81	27920.25
629.96	27828.97
630.11	27964.72
630.26	28215.16
630.41	28250.27
630.56	28259.63
630.71	28053.66
630.86	28018.55
631.01	28465.60
631.16	28020.89
631.31	27854.72
631.46	27971.74
631.61	27814.93
631.76	28137.92
631.91	27833.65
632.06	27990.47
632.21	27934.29
632.36	27861.74
632.51	27541.08
632.66	27981.10
632.81	27644.07
632.96	27852.38
633.10	27938.97
633.25	27903.87
633.40	27372.57
633.55	27920.25
633.70	27850.03
633.85	27700.24
634.00	27697.90
634.15	27908.55
634.30	27599.60
634.45	27585.55
634.60	27414.69
634.75	27438.10
634.90	27271.92
635.05	27510.66
635.19	27323.41
635.34	27325.75
635.49	28039.62
635.64	27742.37
635.79	27784.50
635.94	27594.92
636.09	27257.88
636.24	27555.13
636.39	27592.58
636.53	27274.26
636.68	27173.62
636.83	27225.11
636.98	27360.86
637.13	27129.15
637.28	27503.64
637.43	27402.99
637.57	27281.28
637.72	27349.16
637.87	27009.78
638.02	27292.99
638.17	27101.06
638.32	26909.14
638.46	27346.82
638.61	27351.50
638.76	27175.96
638.91	26794.45
639.06	27054.25
639.20	26757.00
639.35	27131.49
639.50	27288.31
639.65	27428.74
639.80	27220.43
639.94	26897.44
640.09	27012.12
640.24	26986.38
640.39	26792.11
640.54	26757.00
640.68	26969.99
640.83	26789.77
640.98	26778.07
641.13	26752.32
641.27	26871.69
641.42	26911.48
641.57	26581.46
641.72	26923.18
641.86	26363.79
642.01	26752.32
642.16	26579.12
642.31	26155.49
642.45	26143.78
642.60	26576.78
642.75	26347.41
642.90	26647.00
643.04	26230.38
643.19	26616.57
643.34	26405.92
643.48	26541.68
643.63	26761.69
643.78	26494.86
643.93	26691.47
644.07	26553.38
644.22	26216.34
644.37	26396.56
644.51	26480.82
644.66	26279.54
644.81	26190.59
644.95	26274.85
645.10	26108.68
645.25	26335.71
645.39	26382.52
645.54	26122.72
645.69	26209.32
645.83	26541.68
645.98	26342.73
646.13	26412.95
646.27	26642.32
646.42	26471.46
646.57	26113.36
646.71	26705.51
646.86	26195.28
647.00	26024.42
647.15	26434.01
647.30	26293.58
647.44	26033.78
647.59	25986.97
647.74	25979.95
647.88	26214.00
648.03	26141.44
648.17	25956.54
648.32	26089.95
648.47	26424.65
648.61	26064.21
648.76	26146.12
648.90	25769.30
649.05	26314.64
649.20	25855.90
649.34	26162.51
649.49	25921.43
649.63	25895.69
649.78	25921.43
649.92	25663.97
650.07	25879.30
650.21	25383.11
650.36	25916.75
650.51	26005.69
650.65	25940.16
650.80	25766.96
650.94	25837.17
651.09	25930.80
651.23	25776.32
651.38	25666.31
651.52	25476.73
651.67	25895.69
651.81	25921.43
651.96	25619.50
652.10	25544.61
652.25	25724.83
652.39	25549.29
652.54	25738.87
652.68	25666.31
652.83	25778.66
652.97	25731.85
653.12	26010.37
653.26	25266.08
653.41	25668.66
653.55	25319.92
653.70	25429.92
653.84	25483.75
653.99	25474.39
654.13	25195.87
654.27	25490.77
654.42	25486.09
654.56	25649.93
654.71	25560.99
654.85	25453.33
655.00	25462.69
655.14	25579.71
655.29	25413.54
655.43	25446.30
655.57	25469.71
655.72	25193.53
655.86	25111.61
656.01	25198.21
656.15	25060.12
656.30	24851.81
656.44	25179.48
656.58	24769.89
656.73	24950.11
656.87	24840.11
657.01	25120.97
657.16	25385.45
657.30	25296.51
657.45	24805.00
657.59	25057.78
657.73	24868.19
657.88	25102.25
658.02	24816.70
658.16	24971.18
658.31	24659.88
658.45	24781.59
658.60	24348.59
658.74	24444.56
658.88	24868.19
659.03	24641.16
659.17	24847.13
659.31	24753.51
659.46	24809.68
659.60	24671.59
659.74	24716.06
659.89	24414.13
660.03	24521.79
660.17	24687.97
660.32	24505.41
660.46	24201.14
660.60	23948.36
660.74	24233.91
660.89	24601.37
661.03	24308.80
661.17	24381.36
661.32	24318.17
661.46	24397.74
661.60	24414.13
661.74	24411.79
661.89	24224.54
662.03	24404.77
662.17	23864.10
662.31	24091.13
662.46	24098.16
662.60	23936.66
662.74	23761.12
662.88	23716.65
663.03	23903.89
663.17	23704.95
663.31	23772.82
663.45	23735.37
663.60	23683.88
663.74	23381.95
663.88	23995.17
664.02	23616.01
664.17	23782.18
664.31	23597.28
664.45	23917.93
664.59	23674.52
664.73	23836.02
664.88	23484.94
665.02	23215.77
665.16	23480.25
665.30	23295.35
665.44	23393.65
665.59	23239.18
665.73	22979.38
665.87	23096.41
666.01	23468.55
666.15	23239.18
666.29	23545.79
666.44	23077.68
666.58	23173.64
666.72	23225.14
666.86	23328.12
667.00	23330.46
667.14	23028.53
667.28	22906.82
667.43	22892.78
667.57	23208.75
667.71	22721.92
667.85	22813.20
667.99	22761.71
668.13	23232.16
668.27	22602.55
668.41	22778.09
668.56	22291.26
668.70	22431.69
668.84	22572.13
668.98	22506.59
669.12	22698.52
669.26	22789.80
669.40	22647.02
669.54	22445.74
669.68	22759.37
669.82	22099.34
669.96	22185.94
670.10	22317.01
670.25	22309.99
670.39	21954.22
670.53	22260.84
670.67	22036.14
670.81	22197.64
670.95	22068.91
671.09	22546.38
671.23	22057.21
671.37	22277.22
671.51	22174.24
671.65	22087.64
671.79	22005.72
671.93	22082.95
672.07	22087.64
672.21	21837.20
672.35	21263.77
672.49	21666.34
672.63	21495.48
672.77	21509.52
672.91	21706.13
673.05	21626.55
673.19	21521.23
673.33	21631.23
673.47	21280.15
673.61	21343.35
673.75	21766.98
673.89	21343.35
674.03	21296.53
674.17	21572.72
674.31	21284.83
674.45	21174.83
674.59	20973.54
674.73	20947.79
674.87	21170.15
675.01	20816.72
675.15	20802.68
675.29	20837.79
675.43	20957.16
675.56	20812.04
675.70	20563.95
675.84	20889.28
675.98	19964.77
676.12	20542.88
676.26	20706.72
676.40	20732.47
676.54	20713.74
676.68	20486.71
676.82	20102.86
676.96	20379.04
677.10	20290.10
677.23	20313.51
677.37	20161.37
677.51	19852.42
677.65	19555.18
677.79	19924.98
677.93	19719.01
678.07	19728.38
678.21	19583.26
678.34	19620.71
678.48	19697.95
678.62	19927.32
678.76	19393.68
678.90	19318.78
679.04	19604.33
679.18	19632.41
679.31	19171.33
679.45	19147.92
679.59	18995.79
679.73	19073.03
679.87	18993.45
680.00	18939.62
680.14	18661.09
680.28	18850.67
680.42	18616.62
680.56	19033.24
680.70	18930.25
680.83	18946.64
680.97	18623.64
681.11	18845.99
681.25	18553.43
681.39	18581.51
681.52	18525.34
681.66	18464.49
681.80	18223.41
681.94	18192.98
682.07	18480.87
682.21	18092.34
682.35	17921.48
682.49	17661.68
682.62	17703.81
682.76	17867.65
682.90	17914.46
683.04	18115.75
683.17	17900.42
683.31	18101.70
683.45	18087.66
683.59	17687.43
683.72	17804.46
683.86	17877.01
684.00	17528.27
684.13	17343.37
684.27	17462.74
684.41	17303.58
684.55	17179.53
684.68	17001.65
684.82	17167.83
684.96	17240.39
685.09	16814.41
685.23	17057.82
685.37	17050.80
685.50	17083.57
685.64	16793.34
685.78	16788.66
685.91	17099.95
686.05	16704.40
686.19	16847.18
686.32	16812.07
686.46	16580.36
686.60	16325.24
686.73	16533.54
686.87	16355.66
687.01	16177.78
687.14	16229.27
687.28	16343.96
687.42	16147.36
687.55	16177.78
687.69	16130.97
687.82	15875.85
687.96	16070.12
688.10	15941.39
688.23	16013.95
688.37	15932.03
688.50	15789.25
688.64	15859.47
688.78	15765.85
688.91	15861.81
689.05	15627.76
689.18	15295.40
689.32	15225.18
689.46	15391.36
689.59	15243.91
689.73	15391.36
689.86	15452.22
690.00	15047.30
690.13	15054.33
690.27	14960.70
690.41	14911.55
690.54	14927.94
690.68	15028.58
690.81	14993.47
690.95	14949.00
691.08	14953.68
691.22	14899.85
691.35	14745.38
691.49	14839.00
691.62	14504.30
691.76	14656.43
691.89	14654.09
692.03	13905.12
692.16	14340.46
692.30	14075.98
692.43	14155.56
692.57	14162.58
692.70	14195.35
692.84	14251.52
692.97	13795.12
693.11	13799.80
693.24	13696.82
693.38	14040.87
693.51	14075.98
693.65	13783.41
693.78	13811.50
693.92	13717.88
694.05	13748.31
694.19	13858.31
694.32	13444.04
694.45	13343.39
694.59	13479.15
694.72	13294.24
694.86	13163.17
694.99	13207.64
695.13	13301.26
695.26	13027.42
695.39	13242.75
695.53	12971.25
695.66	13245.09
695.80	12938.48
695.93	13071.89
696.07	12966.57
696.20	12957.21
696.33	12622.51
696.47	12964.23
696.60	12343.99
696.73	12578.04
696.87	12627.19
697.00	12397.82
697.14	12423.56
697.27	12432.93
697.40	12484.42
697.54	12271.43
697.67	12135.68
697.80	12184.83
697.94	12177.81
698.07	12051.42
698.21	11880.56
698.34	11953.12
698.47	11941.41
698.61	12016.31
698.74	12049.08
698.87	11976.52
699.01	11976.52
699.14	11824.39
699.27	11871.20
699.40	11763.53
699.54	11573.95
699.67	11625.44
699.80	11522.46
699.94	11218.19
700.07	11405.43
700.20	11162.01
700.34	11253.30
700.47	11084.78
700.60	11218.19
700.73	11463.94
700.87	10991.16
701.00	11030.94
701.13	11206.48
701.26	11084.78
701.40	11056.69
701.53	11077.76
701.66	10967.75
701.79	10799.23
701.93	10789.87
702.06	10883.49
702.19	10600.29
702.32	10806.25
702.46	10539.43
702.59	10429.43
702.72	10310.06
702.85	10382.62
702.99	10541.77
703.12	10242.18
703.25	10228.14
703.38	10305.38
703.51	10279.63
703.65	10071.33
703.78	10141.54
703.91	9991.75
704.04	10052.60
704.17	10104.09
704.31	9895.78
704.44	9994.09
704.57	9816.21
704.70	9652.37
704.83	9760.03
704.96	9598.54
705.10	9645.35
705.23	9586.83
>>>>>End Processed Spectral Data<<<<<
