SpectraSuite Data File
++++++++++++++++++++++++++++++++++++
Date: Fri Oct 18 13:58:38 GMT-05:00 2013
User: bianchi
Dark Spectrum Present: No
Reference Spectrum Present: No
Number of Sampled Component Spectra: 1
Spectrometers: USB2+H05261
Integration Time (usec): 50000 (USB2+H05261)
Spectra Averaged: 1 (USB2+H05261)
Boxcar Smoothing: 0 (USB2+H05261)
Correct for Electrical Dark: No (USB2+H05261)
Strobe/Lamp Enabled: No (USB2+H05261)
Correct for Detector Non-linearity: No (USB2+H05261)
Correct for Stray Light: No (USB2+H05261)
Number of Pixels in Processed Spectrum: 2048
>>>>>Begin Processed Spectral Data<<<<<
365.73	0.00
365.92	0.00
366.12	0.00
366.32	0.00
366.52	0.00
366.72	0.00
366.91	0.00
367.11	0.00
367.31	0.00
367.51	0.00
367.70	0.00
367.90	0.00
368.10	0.00
368.30	0.00
368.49	0.00
368.69	0.00
368.89	0.00
369.09	0.00
369.28	0.00
369.48	0.00
369.68	0.00
369.87	0.00
370.07	0.00
370.27	0.00
370.47	0.00
370.66	60.85
370.86	74.90
371.06	135.75
371.25	86.60
371.45	161.50
371.65	177.88
371.84	100.64
372.04	100.64
372.24	110.01
372.44	238.73
372.63	222.35
372.83	170.86
373.03	201.29
373.22	166.18
373.42	196.60
373.62	191.92
373.81	196.60
374.01	252.78
374.21	229.37
374.40	208.31
374.60	220.01
374.79	243.42
374.99	191.92
375.19	189.58
375.38	210.65
375.58	152.13
375.78	276.18
375.97	229.37
376.17	257.46
376.37	191.92
376.56	276.18
376.76	208.31
376.95	264.48
377.15	175.54
377.35	299.59
377.54	297.25
377.74	191.92
377.93	308.95
378.13	308.95
378.33	215.33
378.52	229.37
378.72	250.44
378.91	280.86
379.11	320.65
379.31	224.69
379.50	304.27
379.70	227.03
379.89	297.25
380.09	224.69
380.28	229.37
380.48	278.52
380.68	297.25
380.87	269.16
381.07	358.10
381.26	325.33
381.46	327.68
381.65	388.53
381.85	269.16
382.04	301.93
382.24	400.23
382.43	322.99
382.63	337.04
382.83	313.63
383.02	262.14
383.22	348.74
383.41	322.99
383.61	344.06
383.80	409.59
384.00	341.72
384.19	400.23
384.39	365.12
384.58	339.38
384.78	447.04
384.97	369.80
385.17	428.32
385.36	376.83
385.56	337.04
385.75	334.70
385.95	425.98
386.14	395.55
386.34	369.80
386.53	353.42
386.72	407.25
386.92	458.74
387.11	489.17
387.31	390.87
387.50	451.72
387.70	395.55
387.89	402.57
388.09	433.00
388.28	484.49
388.48	475.13
388.67	437.68
388.86	381.51
389.06	463.43
389.25	430.66
389.45	500.87
389.64	510.24
389.84	491.51
390.03	479.81
390.22	519.60
390.42	447.04
390.61	500.87
390.81	451.72
391.00	503.22
391.19	547.69
391.39	479.81
391.58	559.39
391.78	550.03
391.97	519.60
392.16	533.64
392.36	479.81
392.55	585.13
392.75	557.05
392.94	456.40
393.13	634.29
393.33	554.71
393.52	489.17
393.71	547.69
393.91	484.49
394.10	566.41
394.29	456.40
394.49	568.75
394.68	613.22
394.88	653.01
395.07	608.54
395.26	545.34
395.46	533.64
395.65	526.62
395.84	615.56
396.04	603.86
396.23	643.65
396.42	564.07
396.62	727.91
396.81	704.50
397.00	606.20
397.19	716.20
397.39	615.56
397.58	580.45
397.77	692.80
397.97	664.71
398.16	702.16
398.35	713.86
398.55	636.63
398.74	713.86
398.93	692.80
399.12	695.14
399.32	660.03
399.51	685.78
399.70	751.31
399.90	809.83
400.09	781.74
400.28	741.95
400.47	734.93
400.67	702.16
400.86	739.61
401.05	763.01
401.24	828.55
401.44	748.97
401.63	788.76
401.82	814.51
402.01	671.73
402.21	919.83
402.40	814.51
402.59	851.96
402.78	898.77
402.97	903.45
403.17	866.00
403.36	896.43
403.55	772.38
403.74	954.94
403.93	947.92
404.13	894.08
404.32	875.36
404.51	950.26
404.70	910.47
404.89	851.96
405.09	931.53
405.28	889.40
405.47	877.70
405.66	992.39
405.85	933.87
406.05	894.08
406.24	894.08
406.43	968.98
406.62	1109.41
406.81	1060.26
407.00	1001.75
407.20	994.73
407.39	1022.81
407.58	1043.88
407.77	1107.07
407.96	1128.14
408.15	1114.10
408.34	1071.97
408.54	1163.25
408.73	1130.48
408.92	1095.37
409.11	1060.26
409.30	1104.73
409.49	1193.67
409.68	1102.39
409.87	1158.57
410.07	1121.12
410.26	1156.22
410.45	1100.05
410.64	1125.80
410.83	1224.10
411.02	1207.72
411.21	1261.55
411.40	1179.63
411.59	1233.46
411.78	1261.55
411.98	1179.63
412.17	1203.04
412.36	1252.19
412.55	1245.16
412.74	1371.55
412.93	1383.26
413.12	1378.58
413.31	1406.66
413.50	1329.42
413.69	1329.42
413.88	1397.30
414.07	1390.28
414.26	1383.26
414.45	1493.26
414.64	1446.45
414.83	1509.65
415.02	1579.86
415.22	1558.80
415.41	1565.82
415.60	1423.05
415.79	1467.52
415.98	1540.07
416.17	1614.97
416.36	1636.03
416.55	1603.27
416.74	1607.95
416.93	1551.78
417.12	1689.87
417.31	1631.35
417.50	1678.16
417.69	1689.87
417.88	1650.08
418.07	1575.18
418.26	1687.53
418.45	1722.63
418.64	1724.97
418.83	1692.21
419.02	1799.87
419.21	1792.85
419.39	1853.70
419.58	1764.76
419.77	1769.44
419.96	1806.89
420.15	1823.28
420.34	1806.89
420.53	1853.70
420.72	1926.26
420.91	1923.92
421.10	1947.33
421.29	1961.37
421.48	1902.86
421.67	2047.97
421.86	1926.26
422.05	1895.83
422.24	1895.83
422.43	1858.39
422.61	1937.96
422.80	2022.22
422.99	1963.71
423.18	1933.28
423.37	1977.75
423.56	1966.05
423.75	1963.71
423.94	1975.41
424.13	1830.30
424.32	1942.64
424.50	1996.48
424.69	2146.27
424.88	2045.63
425.07	2057.33
425.26	2003.50
425.45	1989.46
425.64	2040.95
425.83	2026.90
426.01	2026.90
426.20	2078.40
426.39	1977.75
426.58	1980.09
426.77	2113.50
426.96	2160.31
427.15	2160.31
427.33	2024.56
427.52	2186.06
427.71	2120.53
427.90	2146.27
428.09	2204.78
428.28	2190.74
428.46	2162.66
428.65	2188.40
428.84	2232.87
429.03	2258.62
429.22	2150.95
429.40	2165.00
429.59	2300.75
429.78	2099.46
429.97	2125.21
430.16	2165.00
430.34	2319.47
430.53	2286.70
430.72	2256.28
430.91	2317.13
431.10	2246.91
431.28	2314.79
431.47	2413.09
431.66	2380.32
431.85	2324.15
432.03	2361.60
432.22	2424.80
432.41	2429.48
432.60	2417.77
432.79	2476.29
432.97	2408.41
433.16	2448.20
433.35	2387.35
433.54	2441.18
433.72	2436.50
433.91	2509.05
434.10	2399.05
434.28	2429.48
434.47	2466.92
434.66	2548.84
434.85	2537.14
435.03	2579.27
435.22	2574.59
435.41	2565.23
435.59	2551.18
435.78	2658.85
435.97	2668.21
436.16	2586.29
436.34	2607.36
436.53	2502.03
436.72	2715.02
436.90	2600.34
437.09	2658.85
437.28	2700.98
437.46	2736.09
437.65	2733.75
437.84	2771.19
438.02	2722.04
438.21	2806.30
438.40	2729.06
438.58	2827.37
438.77	2909.29
438.96	2808.64
439.14	2878.86
439.33	2885.88
439.52	2899.92
439.70	3028.65
439.89	3045.04
440.08	3049.72
440.26	3063.76
440.45	3052.06
440.63	2995.89
440.82	3129.30
441.01	3098.87
441.19	3091.85
441.38	3026.31
441.57	3145.68
441.75	3239.30
441.94	3187.81
442.12	3197.17
442.31	3243.98
442.50	3185.47
442.68	3215.90
442.87	3293.13
443.05	3372.71
443.24	3442.93
443.43	3201.85
443.61	3438.25
443.80	3480.38
443.98	3220.58
444.17	3293.13
444.35	3293.13
444.54	3410.16
444.73	3538.89
444.91	3314.20
445.10	3318.88
445.28	3372.71
445.47	3463.99
445.65	3407.82
445.84	3304.84
446.02	3524.85
446.21	3403.14
446.39	3475.70
446.58	3531.87
446.77	3508.46
446.95	3412.50
447.14	3623.15
447.32	3576.34
447.51	3496.76
447.69	3459.31
447.88	3602.08
448.06	3471.01
448.25	3463.99
448.43	3435.91
448.62	3552.93
448.80	3517.83
448.99	3480.38
449.17	3583.36
449.36	3482.72
449.54	3581.02
449.73	3545.91
449.91	3824.44
450.10	3772.94
450.28	3756.56
450.46	3604.42
450.65	3768.26
450.83	3887.63
451.02	3655.92
451.20	3716.77
451.39	3733.15
451.57	3658.26
451.76	3719.11
451.94	3796.35
452.13	3981.25
452.31	3847.84
452.49	3604.42
452.68	3740.18
452.86	3852.52
453.05	4044.45
453.23	4007.00
453.42	3794.01
453.60	3786.99
453.78	3705.07
453.97	3815.07
454.15	3737.84
454.34	3843.16
454.52	3908.69
454.70	3819.75
454.89	3889.97
455.07	4021.04
455.26	3962.53
455.44	4114.66
455.62	4072.53
455.81	3955.51
455.99	4025.72
456.17	4140.41
456.36	4145.09
456.54	4093.60
456.73	4224.67
456.91	4294.88
457.09	4227.01
457.28	4425.95
457.46	4077.21
457.64	4367.44
457.83	4257.43
458.01	4238.71
458.19	4257.43
458.38	4189.56
458.56	4360.42
458.74	4358.08
458.93	4196.58
459.11	4344.03
459.29	4397.87
459.48	4414.25
459.66	4440.00
459.84	4334.67
460.03	4578.09
460.21	4559.36
460.39	4500.85
460.57	4348.72
460.76	4498.51
460.94	4629.58
461.12	4573.41
461.31	4521.92
461.49	4507.87
461.67	4629.58
461.85	4557.02
462.04	4624.90
462.22	4683.41
462.40	4585.11
462.59	4620.22
462.77	4664.69
462.95	4770.01
463.13	4781.71
463.32	4681.07
463.50	4898.74
463.68	4774.69
463.86	4793.42
464.05	4678.73
464.23	4669.37
464.41	4800.44
464.59	4755.97
464.78	4807.46
464.96	4816.82
465.14	4732.56
465.32	4933.85
465.50	5025.13
465.69	4954.91
465.87	4840.23
466.05	4875.34
466.23	5008.75
466.41	4865.97
466.60	5146.84
466.78	4912.78
466.96	5015.77
467.14	4975.98
467.32	5050.88
467.51	5123.43
467.69	4929.17
467.87	4959.60
468.05	5097.69
468.23	5151.52
468.41	4983.00
468.60	5191.31
468.78	5198.33
468.96	5078.96
469.14	5233.44
469.32	5207.69
469.50	5025.13
469.69	5261.52
469.87	5233.44
470.05	5305.99
470.23	5273.23
470.41	5355.15
470.59	5364.51
470.77	5301.31
470.95	5467.49
471.14	5533.03
471.32	5401.96
471.50	5575.16
471.68	5425.36
471.86	5427.70
472.04	5736.65
472.22	5497.92
472.40	5476.85
472.58	5757.72
472.77	5774.10
472.95	5668.78
473.13	5734.31
473.31	5778.78
473.49	5809.21
473.67	5785.80
473.85	5944.96
474.03	5818.57
474.21	5907.51
474.39	6038.58
474.57	5970.71
474.75	6139.23
474.93	6059.65
475.12	6097.10
475.30	6054.97
475.48	6132.20
475.66	6120.50
475.84	6129.86
476.02	6424.77
476.20	6200.08
476.38	6164.97
476.56	6431.79
476.74	6413.07
476.92	6307.74
477.10	6366.26
477.28	6572.22
477.46	6635.42
477.64	6738.40
477.82	6738.40
478.00	6787.55
478.18	6806.28
478.36	6881.18
478.54	7075.44
478.72	6939.69
478.90	6895.22
479.08	7227.57
479.26	6949.05
479.44	7232.26
479.62	7248.64
479.80	7431.20
479.98	7339.92
480.16	7426.52
480.34	7342.26
480.52	7672.28
480.70	7566.95
480.88	7447.58
481.06	7618.44
481.24	7691.00
481.41	7573.97
481.59	7822.07
481.77	7887.61
481.95	8060.80
482.13	7964.84
482.31	8173.15
482.49	8166.13
482.67	8161.45
482.85	8372.10
483.03	8439.97
483.21	8430.61
483.39	8500.83
483.57	8465.72
483.74	8578.06
483.92	8692.75
484.10	8636.58
484.28	8898.72
484.46	8819.14
484.64	8915.10
484.82	8854.25
485.00	9018.08
485.18	9217.03
485.35	9270.86
485.53	9303.63
485.71	9296.61
485.89	9324.69
486.07	9493.21
486.25	9350.44
486.43	9514.28
486.61	9820.89
486.78	9668.75
486.96	9928.55
487.14	10076.01
487.32	9907.49
487.50	10106.43
487.68	9968.34
487.85	9947.28
488.03	10300.70
488.21	10513.69
488.39	10485.60
488.57	10441.13
488.75	10480.92
488.92	10911.58
489.10	10700.93
489.28	10714.97
489.46	10923.28
489.64	10897.53
489.81	11157.33
489.99	11052.01
490.17	11108.18
490.35	11335.21
490.53	11213.51
490.70	11623.10
490.88	11775.24
491.06	11489.69
491.24	11536.50
491.41	11562.25
491.59	11564.59
491.77	11590.33
491.95	11974.18
492.13	12030.35
492.30	12112.27
492.48	12126.32
492.66	12205.89
492.84	12046.74
493.01	12507.82
493.19	12343.99
493.37	12542.93
493.54	12538.25
493.72	12734.85
493.90	12631.87
494.08	12809.75
494.25	12821.45
494.43	12975.93
494.61	13067.21
494.79	13305.95
494.96	13352.76
495.14	13338.71
495.32	13207.64
495.49	13221.69
495.67	13472.12
495.85	13614.90
496.02	13624.26
496.20	13823.20
496.38	13947.25
496.55	13832.57
496.73	14066.62
496.91	14115.77
497.09	14129.81
497.26	14204.71
497.44	14288.97
497.62	14429.40
497.79	14551.11
497.97	14492.60
498.14	14328.76
498.32	14630.69
498.50	14621.33
498.67	14761.76
498.85	14700.90
499.03	14930.28
499.20	15002.83
499.38	15063.69
499.56	14897.51
499.73	14906.87
499.91	15183.06
500.08	15276.68
500.26	15169.01
500.44	15000.49
500.61	15407.75
500.79	15428.81
500.97	15494.35
501.14	15644.14
501.32	15660.52
501.49	15641.80
501.67	15861.81
501.84	15747.12
502.02	15829.04
502.20	15868.83
502.37	15967.13
502.55	15822.02
502.72	15915.64
502.90	16081.82
503.07	16027.99
503.25	16222.25
503.43	16170.76
503.60	16360.34
503.78	16482.05
503.95	16346.30
504.13	16465.67
504.30	16718.45
504.48	16332.26
504.65	16507.80
504.83	16751.21
505.01	16901.01
505.18	16695.04
505.36	16952.50
505.53	16695.04
505.71	16882.28
505.88	16821.43
506.06	17254.43
506.23	17326.99
506.41	16748.87
506.58	17081.23
506.76	16945.48
506.93	17308.26
507.11	17188.89
507.28	17343.37
507.46	17319.96
507.63	17214.64
507.81	17898.08
507.98	17547.00
508.16	17610.19
508.33	17558.70
508.50	17916.80
508.68	17767.01
508.85	17846.58
509.03	17738.92
509.20	17951.91
509.38	18141.49
509.55	18059.57
509.73	18115.75
509.90	18253.84
510.08	18197.67
510.25	18082.98
510.42	18195.32
510.60	18251.50
510.77	18628.32
510.95	18452.78
511.12	18420.02
511.30	18665.77
511.47	19023.87
511.64	18642.37
511.82	18757.05
511.99	18958.34
512.17	19012.17
512.34	18611.94
512.51	18485.55
512.69	18878.76
512.86	19117.50
513.04	19250.91
513.21	19164.31
513.38	19012.17
513.56	19154.94
513.73	19143.24
513.90	19119.84
514.08	19433.47
514.25	19431.13
514.43	19854.76
514.60	19482.62
514.77	19632.41
514.95	19599.65
515.12	19564.54
515.29	19445.17
515.47	19854.76
515.64	19601.99
515.81	19655.82
515.99	20004.56
516.16	20252.66
516.33	20077.12
516.51	20257.34
516.68	20030.30
516.85	20072.43
517.03	20287.76
517.20	20423.51
517.37	20051.37
517.54	20404.79
517.72	20568.63
517.89	20386.07
518.06	20229.25
518.24	20444.58
518.41	20231.59
518.58	20458.62
518.75	20231.59
518.93	20662.25
519.10	20809.70
519.27	20613.10
519.45	20926.73
519.62	20800.34
519.79	20627.14
519.96	20912.69
520.14	21064.82
520.31	21027.37
520.48	20790.98
520.65	20821.41
520.83	21341.00
521.00	20882.26
521.17	21125.68
521.34	21259.09
521.52	20992.26
521.69	21422.92
521.86	21621.87
522.03	21497.82
522.20	21785.71
522.38	21582.08
522.55	21589.10
522.72	21584.42
522.89	21607.83
523.07	21921.46
523.24	21673.36
523.41	22033.80
523.58	21745.92
523.75	22169.55
523.92	21731.87
524.10	21872.31
524.27	21986.99
524.44	22162.53
524.61	22017.42
524.78	22242.11
524.96	22216.36
525.13	22183.60
525.30	22286.58
525.47	22235.09
525.64	22153.17
525.81	22424.67
525.98	22436.38
526.16	22345.09
526.33	22223.39
526.50	22462.12
526.67	22436.38
526.84	22742.99
527.01	22686.81
527.18	22984.06
527.36	22754.69
527.53	22768.73
527.70	22986.40
527.87	22993.42
528.04	23229.82
528.21	22930.23
528.38	23049.60
528.55	22845.97
528.72	23115.13
528.89	22871.72
529.07	23283.65
529.24	23007.47
529.41	23337.48
529.58	22918.53
529.75	23087.04
529.92	23206.41
530.09	23206.41
530.26	23054.28
530.43	23379.61
530.60	23349.18
530.77	23407.70
530.94	23775.16
531.11	23250.88
531.28	23599.62
531.46	23789.20
531.63	23515.36
531.80	23604.30
531.97	24247.95
532.14	23461.53
532.31	23840.70
532.48	23662.82
532.65	23864.10
532.82	23758.78
532.99	23915.59
533.16	23983.47
533.33	24121.56
533.50	23934.32
533.67	24325.19
533.84	23772.82
534.01	23836.02
534.18	24086.45
534.35	24194.12
534.52	24044.32
534.69	24224.54
534.86	24439.87
535.03	24276.04
535.20	24116.88
535.37	24224.54
535.54	24465.62
535.71	24376.68
535.88	24741.80
536.05	24334.55
536.22	24219.86
536.38	24659.88
536.55	24849.47
536.72	24542.86
536.89	24463.28
537.06	24479.66
537.23	24751.17
537.40	24655.20
537.57	24727.76
537.74	25085.86
537.91	25156.08
538.08	25062.46
538.25	24627.12
538.42	24980.54
538.59	25348.00
538.75	24933.73
538.92	24929.05
539.09	24954.79
539.26	25200.55
539.43	25259.06
539.60	25230.98
539.77	25153.74
539.94	25408.86
540.11	25062.46
540.28	25230.98
540.44	25378.43
540.61	25331.62
540.78	24924.36
540.95	25443.96
541.12	25553.97
541.29	25287.15
541.46	25039.05
541.62	25458.01
541.79	25603.12
541.96	25132.67
542.13	25355.02
542.30	25535.24
542.47	25689.72
542.63	25954.20
542.80	26155.49
542.97	26099.31
543.14	26094.63
543.31	25773.98
543.48	25778.66
543.64	26108.68
543.81	26309.96
543.98	26080.59
544.15	26192.94
544.32	26160.17
544.48	26850.63
544.65	25998.67
544.82	26073.57
544.99	25977.61
545.16	26408.26
545.32	26511.25
545.49	26462.10
545.66	26611.89
545.83	26490.18
546.00	26522.95
546.16	26324.01
546.33	26536.99
546.50	26284.22
546.67	26438.69
546.83	26033.78
547.00	26742.96
547.17	26469.12
547.34	26902.12
547.50	26595.51
547.67	27161.92
547.84	26691.47
548.00	26771.05
548.17	26658.70
548.34	27147.87
548.51	26969.99
548.67	26328.69
548.84	27087.02
549.01	26555.72
549.18	26874.03
549.34	26747.64
549.51	27264.90
549.68	26618.91
549.84	27002.76
550.01	27154.90
550.18	26855.31
550.34	27119.79
550.51	27257.88
550.68	27173.62
550.84	26993.40
551.01	27161.92
551.18	26953.61
551.34	27049.57
551.51	26871.69
551.68	27342.14
551.84	27295.33
552.01	27435.76
552.18	27496.61
552.34	27133.83
552.51	27405.33
552.68	27054.25
552.84	27473.21
553.01	27665.13
553.18	27438.10
553.34	27503.64
553.51	27391.29
553.67	27545.76
553.84	27501.29
554.01	27779.82
554.17	27627.68
554.34	27775.14
554.51	27606.62
554.67	27749.39
554.84	27735.35
555.00	27583.21
555.17	27772.80
555.33	27938.97
555.50	27960.04
555.67	27711.94
555.83	27679.18
556.00	27552.79
556.16	27967.06
556.33	27772.80
556.50	27737.69
556.66	27875.78
556.83	28084.09
556.99	28430.49
557.16	28077.07
557.32	28079.41
557.49	28168.35
557.65	27784.50
557.82	28063.02
557.98	27861.74
558.15	27992.81
558.32	28231.54
558.48	27948.34
558.65	28416.44
558.81	28203.46
558.98	28210.48
559.14	28032.60
559.31	28020.89
559.47	28371.97
559.64	28430.49
559.80	28470.28
559.97	28051.32
560.13	28217.50
560.30	28163.67
560.46	28627.09
560.63	28360.27
560.79	28325.16
560.96	28371.97
561.12	28477.30
561.29	28046.64
561.45	27983.44
561.61	28531.13
561.78	28833.06
561.94	28533.47
562.11	28753.48
562.27	28664.54
562.44	28119.20
562.60	28634.11
562.77	28294.74
562.93	28627.09
563.10	28753.48
563.26	28694.97
563.42	28769.86
563.59	28451.55
563.75	28730.08
563.92	28786.25
564.08	28552.20
564.24	28737.10
564.41	28673.90
564.57	28594.32
564.74	28828.38
564.90	28844.76
565.07	28886.89
565.23	29046.05
565.39	28737.10
565.56	28664.54
565.72	28559.22
565.88	28797.95
566.05	28833.06
566.21	28510.07
566.38	28641.14
566.54	28844.76
566.70	28943.06
566.87	29102.22
567.03	28912.64
567.19	29198.18
567.36	28985.19
567.52	28606.03
567.68	28751.14
567.85	29102.22
568.01	28922.00
568.17	28559.22
568.34	28900.94
568.50	28758.16
568.66	29233.29
568.83	29268.40
568.99	29074.13
569.15	29219.25
569.32	28779.23
569.48	29046.05
569.64	29003.92
569.81	29240.31
569.97	29069.45
570.13	29216.91
570.30	29142.01
570.46	29270.74
570.62	29394.79
570.78	28861.15
570.95	28858.81
571.11	29102.22
571.27	28919.66
571.43	28615.39
571.60	29095.20
571.76	29399.47
571.92	29301.17
572.09	29331.59
572.25	29092.86
572.41	29284.78
572.57	29373.72
572.74	29214.57
572.90	28961.79
573.06	29296.49
573.22	29525.86
573.38	29139.67
573.55	29029.66
573.71	29633.52
573.87	29027.32
574.03	29500.11
574.20	29209.89
574.36	29039.03
574.52	29355.00
574.68	29179.46
574.84	29191.16
575.01	29291.80
575.17	29553.94
575.33	29090.52
575.49	29310.53
575.65	29294.14
575.82	29230.95
575.98	29446.28
576.14	29563.31
576.30	29575.01
576.46	28954.77
576.62	29303.51
576.79	29357.34
576.95	29053.07
577.11	29479.05
577.27	29443.94
577.43	29277.76
577.59	29600.76
577.75	29560.97
577.92	29266.06
578.08	28903.28
578.24	29378.40
578.40	29406.49
578.56	29425.22
578.72	29511.81
578.88	29542.24
579.04	29546.92
579.21	29134.99
579.37	29380.74
579.53	29584.37
579.69	29553.94
579.85	29364.36
580.01	29378.40
580.17	29142.01
580.33	29376.06
580.49	29457.98
580.65	29376.06
580.82	29624.16
580.98	29535.22
581.14	29413.51
581.30	29364.36
581.46	29654.59
581.62	29280.10
581.78	29399.47
581.94	29301.17
582.10	29525.86
582.26	29067.11
582.42	29685.01
582.58	29546.92
582.74	29607.78
582.90	29221.59
583.06	29605.44
583.22	29151.37
583.38	29209.89
583.54	29102.22
583.70	29252.02
583.86	29277.76
584.02	29483.73
584.18	29546.92
584.34	29493.09
584.50	29893.32
584.66	29362.02
584.82	29560.97
584.98	29563.31
585.14	29535.22
585.30	29198.18
585.46	29003.92
585.62	29254.36
585.78	29256.70
585.94	29488.41
586.10	29743.53
586.26	29598.41
586.42	29633.52
586.58	29703.74
586.74	29252.02
586.90	29474.37
587.06	29165.42
587.22	29488.41
587.38	29294.14
587.54	29841.83
587.70	29865.24
587.86	29619.48
588.02	29841.83
588.18	29553.94
588.34	29811.40
588.49	29673.31
588.65	29441.60
588.81	29275.42
588.97	29640.54
589.13	29551.60
589.29	29511.81
589.45	29771.61
589.61	29673.31
589.77	29867.58
589.93	29769.27
590.08	29963.54
590.24	29972.90
590.40	29912.05
590.56	29869.92
590.72	29722.46
590.88	30080.56
591.04	29399.47
591.20	29759.91
591.35	29738.85
591.51	29989.28
591.67	29949.50
591.83	29851.19
591.99	29912.05
592.15	29652.25
592.31	29762.25
592.46	29668.63
592.62	30120.35
592.78	30019.71
592.94	29797.36
593.10	29745.87
593.26	30012.69
593.41	30122.69
593.57	30150.78
593.73	30050.14
593.89	29900.34
594.05	29780.98
594.20	30068.86
594.36	29930.77
594.52	29965.88
594.68	29776.30
594.84	29989.28
594.99	29982.26
595.15	29830.13
595.31	29926.09
595.47	29937.79
595.62	30162.48
595.78	29951.84
595.94	30024.39
596.10	29954.18
596.25	29860.55
596.41	29750.55
596.57	29788.00
596.73	29876.94
596.88	29633.52
597.04	30106.31
597.20	30307.60
597.36	30270.15
597.51	30253.76
597.67	29874.60
597.83	29689.70
597.99	30211.64
598.14	29890.98
598.30	30176.53
598.46	30148.44
598.61	29776.30
598.77	30162.48
598.93	30061.84
599.09	29965.88
599.24	30403.56
599.40	30232.70
599.56	30551.01
599.71	29848.85
599.87	30218.66
600.03	29876.94
600.18	30096.95
600.34	29853.53
600.50	30071.20
600.65	30150.78
600.81	30096.95
600.97	30146.10
601.12	30075.88
601.28	30654.00
601.44	30012.69
601.59	30298.23
601.75	30401.22
601.91	30356.75
602.06	30092.27
602.22	30450.37
602.37	30141.42
602.53	30082.91
602.69	30522.93
602.84	30228.02
603.00	30106.31
603.16	30213.98
603.31	30422.28
603.47	30314.62
603.62	29766.93
603.78	30239.72
603.94	29603.10
604.09	29977.58
604.25	30026.73
604.40	29970.56
604.56	30122.69
604.71	30331.00
604.87	30260.79
605.03	30288.87
605.18	30064.18
605.34	30094.61
605.49	29930.77
605.65	30302.92
605.80	29619.48
605.96	29914.39
606.12	29811.40
606.27	29963.54
606.43	29846.51
606.58	30316.96
606.74	30108.65
606.89	30211.64
607.05	30160.14
607.20	29951.84
607.36	29977.58
607.51	30092.27
607.67	29874.60
607.82	29912.05
607.98	29727.14
608.13	30061.84
608.29	29804.38
608.44	29734.17
608.60	30366.11
608.75	30120.35
608.91	30396.54
609.06	29893.32
609.22	29748.21
609.37	29511.81
609.53	29645.23
609.68	29577.35
609.84	29818.42
609.99	29560.97
610.15	29675.65
610.30	29689.70
610.46	29942.47
610.61	29802.04
610.76	30000.99
610.92	29687.36
611.07	29916.73
611.23	29483.73
611.38	29841.83
611.54	29591.39
611.69	29509.47
611.84	29516.50
612.00	30211.64
612.15	29057.75
612.31	30143.76
612.46	29844.17
612.62	29516.50
612.77	29624.16
612.92	29699.06
613.08	29750.55
613.23	29689.70
613.39	29380.74
613.54	29687.36
613.69	29486.07
613.85	29399.47
614.00	29488.41
614.15	29598.41
614.31	29495.43
614.46	29603.10
614.62	29909.71
614.77	29839.49
614.92	29600.76
615.08	29493.09
615.23	29553.94
615.38	29567.99
615.54	28992.22
615.69	29394.79
615.84	29212.23
616.00	29312.87
616.15	29525.86
616.30	29240.31
616.46	29493.09
616.61	29186.48
616.76	29198.18
616.92	29516.50
617.07	29656.93
617.22	29355.00
617.37	28996.90
617.53	29214.57
617.68	29261.38
617.83	28903.28
617.99	29088.18
618.14	29537.56
618.29	29230.95
618.45	29118.60
618.60	29249.67
618.75	29399.47
618.90	29024.98
619.06	29310.53
619.21	28931.36
619.36	29010.94
619.51	28917.32
619.67	28648.16
619.82	28500.70
619.97	28907.96
620.12	28753.48
620.28	28849.44
620.43	29130.31
620.58	29174.78
620.73	28966.47
620.89	29104.56
621.04	29340.96
621.19	29130.31
621.34	28685.61
621.49	28687.95
621.65	29102.22
621.80	28919.66
621.95	28718.37
622.10	28833.06
622.25	28849.44
622.41	28393.04
622.56	28535.81
622.71	28989.88
622.86	28809.65
623.01	28446.87
623.16	28795.61
623.32	28617.73
623.47	28613.05
623.62	28311.12
623.77	28280.69
623.92	28535.81
624.07	28444.53
624.23	28673.90
624.38	28659.86
624.53	28739.44
624.68	28418.78
624.83	28484.32
624.98	28414.10
625.13	28446.87
625.29	28304.10
625.44	28776.89
625.59	28182.39
625.74	28306.44
625.89	28044.30
626.04	27901.53
626.19	28287.71
626.34	27920.25
626.49	27978.76
626.65	28194.09
626.80	28552.20
626.95	28371.97
627.10	28149.62
627.25	28442.19
627.40	28025.57
627.55	27953.02
627.70	28023.23
627.85	27814.93
628.00	27702.58
628.15	27887.48
628.30	27555.13
628.45	27936.63
628.60	28156.64
628.76	28060.68
628.91	27927.27
629.06	28002.17
629.21	28013.87
629.36	27852.38
629.51	28379.00
629.66	27655.77
629.81	27662.79
629.96	27857.06
630.11	27772.80
630.26	27623.00
630.41	27770.46
630.56	27716.62
630.71	27751.73
630.86	27910.89
631.01	27644.07
631.16	27660.45
631.31	27520.02
631.46	27592.58
631.61	27997.49
631.76	27543.42
631.91	27817.27
632.06	27470.87
632.21	27400.65
632.36	27449.80
632.51	27466.19
632.66	27417.04
632.81	27344.48
632.96	27505.98
633.10	27655.77
633.25	27438.10
633.40	27335.12
633.55	27639.39
633.70	27187.66
633.85	27304.69
634.00	27131.49
634.15	27370.22
634.30	27098.72
634.45	27094.04
634.60	27175.96
634.75	27433.42
634.90	27023.83
635.05	27133.83
635.19	27171.28
635.34	27690.88
635.49	27314.05
635.64	27150.21
635.79	27505.98
635.94	27023.83
636.09	27281.28
636.24	26855.31
636.39	27091.70
636.53	27190.00
636.68	26984.04
636.83	26934.88
636.98	27236.81
637.13	26941.91
637.28	27112.77
637.43	27187.66
637.57	27122.13
637.72	27283.62
637.87	27082.34
638.02	27122.13
638.17	26874.03
638.32	27117.45
638.46	26588.49
638.61	26455.08
638.76	26349.75
638.91	26785.09
639.06	26890.41
639.20	26855.31
639.35	26953.61
639.50	26778.07
639.65	27276.60
639.80	26864.67
639.94	26850.63
640.09	26923.18
640.24	26977.01
640.39	26815.52
640.54	26625.93
640.68	26740.62
640.83	26272.51
640.98	26380.18
641.13	26441.03
641.27	26703.17
641.42	26401.24
641.57	26635.30
641.72	26555.72
641.86	26316.98
642.01	26270.17
642.16	26789.77
642.31	26197.62
642.45	26445.71
642.60	25961.22
642.75	25996.33
642.90	26204.64
643.04	26251.45
643.19	26324.01
643.34	26118.04
643.48	26478.48
643.63	26244.43
643.78	26045.48
643.93	26700.83
644.07	26546.36
644.22	26356.77
644.37	26155.49
644.51	26679.77
644.66	26412.95
644.81	25764.62
644.95	25802.07
645.10	26171.87
645.25	26319.32
645.39	25951.86
645.54	26284.22
645.69	26312.30
645.83	26188.25
645.98	26188.25
646.13	25991.65
646.27	25977.61
646.42	26122.72
646.57	25963.56
646.71	25961.22
646.86	26052.50
647.00	25582.06
647.15	25720.15
647.30	25811.43
647.44	25699.08
647.59	25832.49
647.74	26043.14
647.88	26258.47
648.03	25996.33
648.17	26249.11
648.32	26211.66
648.47	25916.75
648.61	25734.19
648.76	25715.47
648.90	25710.78
649.05	25848.88
649.20	25844.20
649.34	25413.54
649.49	25649.93
649.63	25781.00
649.78	25642.91
649.92	25600.78
650.07	25441.62
650.21	25551.63
650.36	25675.68
650.51	25544.61
650.65	25785.68
650.80	25275.45
650.94	25640.57
651.09	25671.00
651.23	25256.72
651.38	25127.99
651.52	25350.34
651.67	25331.62
651.81	25696.74
651.96	25706.10
652.10	25418.22
652.25	25434.60
652.39	25462.69
652.54	25544.61
652.68	25551.63
652.83	25394.81
652.97	25706.10
653.12	25362.04
653.26	25425.24
653.41	25282.47
653.55	25060.12
653.70	24943.09
653.84	25212.25
653.99	25228.63
654.13	25050.75
654.27	25132.67
654.42	25177.14
654.56	24961.81
654.71	24924.36
654.85	24905.64
655.00	25450.99
655.14	25022.67
655.29	24819.04
655.43	25025.01
655.57	25130.33
655.72	25247.36
655.86	25109.27
656.01	24823.72
656.15	24762.87
656.30	25139.69
656.44	24666.91
656.58	24879.89
656.73	24762.87
656.87	24449.24
657.01	24788.61
657.16	24856.49
657.30	24669.25
657.45	24823.72
657.59	25027.35
657.73	25226.29
657.88	25275.45
658.02	24123.90
658.16	24727.76
658.31	24477.32
658.45	24514.77
658.60	24596.69
658.74	24542.86
658.88	24278.38
659.03	24608.39
659.17	24580.31
659.31	24624.78
659.46	24678.61
659.60	24868.19
659.74	24613.07
659.89	24182.42
660.03	24250.29
660.17	24130.92
660.32	23901.55
660.46	24465.62
660.60	24287.74
660.74	23894.53
660.89	23992.83
661.03	24259.65
661.17	24016.24
661.32	23992.83
661.46	24276.04
661.60	23754.10
661.74	23960.06
661.89	24290.08
662.03	23990.49
662.17	24027.94
662.31	23737.71
662.46	23580.90
662.60	23931.98
662.74	23616.01
662.88	23714.31
663.03	23339.82
663.17	23487.28
663.31	23129.17
663.45	23529.41
663.60	23494.30
663.74	23475.57
663.88	23571.54
664.02	23225.14
664.17	23470.89
664.31	23702.61
664.45	23421.74
664.59	23372.59
664.73	23463.87
664.88	23433.44
665.02	22686.81
665.16	23456.85
665.30	23339.82
665.44	23154.92
665.59	22829.59
665.73	23016.83
665.87	23068.32
666.01	23204.07
666.15	22970.02
666.29	23103.43
666.44	22714.90
666.58	22923.21
666.72	22670.43
666.86	22738.30
667.00	22869.37
667.14	22738.30
667.28	23103.43
667.43	22714.90
667.57	22487.87
667.71	22883.42
667.85	22487.87
667.99	22466.80
668.13	22471.48
668.27	22700.86
668.41	22689.15
668.56	22611.92
668.70	22703.20
668.84	22445.74
668.98	22043.17
669.12	22293.60
669.26	22487.87
669.40	22581.49
669.54	22118.06
669.68	22054.87
669.82	22190.62
669.96	21848.90
670.10	21942.52
670.25	22015.08
670.39	21874.65
670.53	21832.52
670.67	21886.35
670.81	22057.21
670.95	21790.39
671.09	21895.71
671.23	21816.13
671.37	21736.56
671.51	22242.11
671.65	22232.75
671.79	21837.20
671.93	22008.06
672.07	21516.54
672.21	21626.55
672.35	21448.67
672.49	21029.71
672.63	21355.05
672.77	21170.15
672.91	21167.80
673.05	21525.91
673.19	21376.11
673.33	21308.24
673.47	21165.46
673.61	21198.23
673.75	21420.58
673.89	21261.43
674.03	20908.01
674.17	21071.84
674.31	20788.64
674.45	21200.57
674.59	20889.28
674.73	20861.19
674.87	20739.49
675.01	20772.25
675.15	20521.82
675.29	20470.33
675.43	20393.09
675.56	20524.16
675.70	20678.63
675.84	20699.70
675.98	20011.58
676.12	20711.40
676.26	20489.05
676.40	20624.80
676.54	20238.61
676.68	20339.26
676.82	19857.10
676.96	20156.69
677.10	20187.12
677.23	19885.19
677.37	19927.32
677.51	19915.62
677.65	19782.21
677.79	19660.50
677.93	19758.80
678.07	19847.74
678.21	19697.95
678.34	19419.42
678.48	19517.73
678.62	19454.53
678.76	19372.61
678.90	19110.47
679.04	19213.46
679.18	19293.04
679.31	19056.64
679.45	19253.25
679.59	18906.85
679.73	18909.19
679.87	18803.86
680.00	18834.29
680.14	18607.26
680.28	19049.62
680.42	18743.01
680.56	18958.34
680.70	18721.95
680.83	18534.70
680.97	18527.68
681.11	18373.21
681.25	18394.27
681.39	18448.10
681.52	18279.58
681.66	18059.57
681.80	18178.94
681.94	17984.68
682.07	18111.07
682.21	18101.70
682.35	18242.14
682.49	17956.59
682.62	17736.58
682.76	17851.27
682.90	17661.68
683.04	17661.68
683.17	17951.91
683.31	17811.48
683.45	17729.56
683.59	17722.54
683.72	17509.55
683.86	17472.10
684.00	17635.94
684.13	17202.94
684.27	17181.87
684.41	17249.75
684.55	17231.02
684.68	16783.98
684.82	16987.61
684.96	16842.50
685.09	17114.00
685.23	16943.14
685.37	16884.62
685.50	16585.04
685.64	16671.64
685.78	16648.23
685.91	17001.65
686.05	16610.78
686.19	16442.26
686.32	16435.24
686.46	16435.24
686.60	16166.08
686.73	16608.44
686.87	16287.79
687.01	16430.56
687.14	16273.74
687.28	15875.85
687.42	15974.16
687.55	15925.00
687.69	15688.61
687.82	15763.51
687.96	15833.72
688.10	15726.06
688.23	16067.78
688.37	15606.69
688.50	15772.87
688.64	15798.62
688.78	15772.87
688.91	15681.59
689.05	15667.55
689.18	15133.90
689.32	15094.11
689.46	15272.00
689.59	15218.16
689.73	15374.98
689.86	15176.03
690.00	14899.85
690.13	15133.90
690.27	15077.73
690.41	15126.88
690.54	14817.93
690.68	14726.65
690.81	14717.29
690.95	14902.19
691.08	14874.10
691.22	14768.78
691.35	14588.56
691.49	14595.58
691.62	14656.43
691.76	14380.25
691.89	14253.86
692.03	14235.14
692.16	13830.23
692.30	14291.31
692.43	14106.41
692.57	14033.85
692.70	13867.67
692.84	14054.92
692.97	13994.06
693.11	13757.67
693.24	13820.86
693.38	13736.60
693.51	13689.79
693.65	13834.91
693.78	13722.56
693.92	13598.51
694.05	13659.37
694.19	13692.13
694.32	13275.52
694.45	13355.10
694.59	13280.20
694.72	13217.01
694.86	13032.10
694.99	12931.46
695.13	12957.21
695.26	12936.14
695.39	12924.44
695.53	13153.81
695.66	12809.75
695.80	12709.11
695.93	12872.95
696.07	12753.58
696.20	12624.85
696.33	12664.64
696.47	12491.44
696.60	12568.68
696.73	12446.97
696.87	12381.43
697.00	12402.50
697.14	12252.70
697.27	12065.46
697.40	12327.60
697.54	12039.72
697.67	12208.23
697.80	11939.07
697.94	11740.13
698.07	12086.53
698.21	11648.85
698.34	12032.69
698.47	11948.43
698.61	11922.69
698.74	11889.92
698.87	11789.28
699.01	11672.25
699.14	11662.89
699.27	11793.96
699.40	11648.85
699.54	11538.84
699.67	11618.42
699.80	11309.47
699.94	11208.83
700.07	11279.04
700.20	11098.82
700.34	11087.12
700.47	11014.56
700.60	11353.94
700.73	11035.63
700.87	11021.58
701.00	10951.37
701.13	10878.81
701.26	10906.90
701.40	10857.75
701.53	10789.87
701.66	10977.11
701.79	10841.36
701.93	10766.46
702.06	10558.16
702.19	10436.45
702.32	10427.09
702.46	10235.16
702.59	10373.25
702.72	10340.49
702.85	9975.36
702.99	10345.17
703.12	10143.88
703.25	9994.09
703.38	10176.65
703.51	10174.31
703.65	10043.24
703.78	10052.60
703.91	9961.32
704.04	9830.25
704.17	10008.13
704.31	9776.42
704.44	9806.84
704.57	9767.06
704.70	9607.90
704.83	9591.52
704.96	9635.99
705.10	9631.30
705.23	9486.19
>>>>>End Processed Spectral Data<<<<<
