SpectraSuite Data File
++++++++++++++++++++++++++++++++++++
Date: Fri Oct 18 13:58:02 GMT-05:00 2013
User: bianchi
Dark Spectrum Present: No
Reference Spectrum Present: No
Number of Sampled Component Spectra: 1
Spectrometers: USB2+H05261
Integration Time (usec): 50000 (USB2+H05261)
Spectra Averaged: 1 (USB2+H05261)
Boxcar Smoothing: 0 (USB2+H05261)
Correct for Electrical Dark: No (USB2+H05261)
Strobe/Lamp Enabled: No (USB2+H05261)
Correct for Detector Non-linearity: No (USB2+H05261)
Correct for Stray Light: No (USB2+H05261)
Number of Pixels in Processed Spectrum: 2048
>>>>>Begin Processed Spectral Data<<<<<
365.73	37.45
365.92	37.45
366.12	37.45
366.32	0.00
366.52	0.00
366.72	0.00
366.91	0.00
367.11	0.00
367.31	0.00
367.51	0.00
367.70	0.00
367.90	0.00
368.10	0.00
368.30	0.00
368.49	0.00
368.69	0.00
368.89	0.00
369.09	0.00
369.28	0.00
369.48	0.00
369.68	0.00
369.87	0.00
370.07	0.00
370.27	0.00
370.47	0.00
370.66	49.15
370.86	98.30
371.06	81.92
371.25	138.09
371.45	173.20
371.65	173.20
371.84	156.82
372.04	133.41
372.24	198.95
372.44	187.24
372.63	187.24
372.83	166.18
373.03	212.99
373.22	236.39
373.42	227.03
373.62	198.95
373.81	248.10
374.01	264.48
374.21	196.60
374.40	259.80
374.60	191.92
374.79	285.55
374.99	215.33
375.19	264.48
375.38	208.31
375.58	224.69
375.78	238.73
375.97	229.37
376.17	198.95
376.37	250.44
376.56	187.24
376.76	243.42
376.95	313.63
377.15	276.18
377.35	283.20
377.54	273.84
377.74	287.89
377.93	231.71
378.13	301.93
378.33	332.36
378.52	243.42
378.72	290.23
378.91	224.69
379.11	234.05
379.31	297.25
379.50	306.61
379.70	278.52
379.89	383.85
380.09	257.46
380.28	304.27
380.48	301.93
380.68	259.80
380.87	299.59
381.07	311.29
381.26	341.72
381.46	292.57
381.65	423.64
381.85	266.82
382.04	339.38
382.24	353.42
382.43	341.72
382.63	250.44
382.83	355.76
383.02	266.82
383.22	341.72
383.41	351.08
383.61	362.78
383.80	430.66
384.00	308.95
384.19	379.17
384.39	376.83
384.58	430.66
384.78	442.36
384.97	372.15
385.17	376.83
385.36	367.46
385.56	379.17
385.75	341.72
385.95	428.32
386.14	388.53
386.34	411.93
386.53	402.57
386.72	395.55
386.92	500.87
387.11	484.49
387.31	428.32
387.50	521.94
387.70	442.36
387.89	383.85
388.09	526.62
388.28	416.62
388.48	463.43
388.67	463.43
388.86	463.43
389.06	468.11
389.25	433.00
389.45	454.06
389.64	470.45
389.84	454.06
390.03	524.28
390.22	475.13
390.42	514.92
390.61	400.23
390.81	475.13
391.00	543.00
391.19	585.13
391.39	510.24
391.58	514.92
391.78	425.98
391.97	484.49
392.16	524.28
392.36	533.64
392.55	610.88
392.75	578.11
392.94	514.92
393.13	531.30
393.33	608.54
393.52	662.37
393.71	573.43
393.91	564.07
394.10	517.26
394.29	470.45
394.49	545.34
394.68	533.64
394.88	613.22
395.07	657.69
395.26	519.60
395.46	676.41
395.65	660.03
395.84	610.88
396.04	636.63
396.23	669.39
396.42	713.86
396.62	671.73
396.81	676.41
397.00	660.03
397.19	678.76
397.39	671.73
397.58	692.80
397.77	660.03
397.97	690.46
398.16	683.44
398.35	685.78
398.55	655.35
398.74	648.33
398.93	676.41
399.12	737.27
399.32	697.48
399.51	734.93
399.70	720.88
399.90	807.48
400.09	763.01
400.28	830.89
400.47	786.42
400.67	760.67
400.86	814.51
401.05	788.76
401.24	840.25
401.44	875.36
401.63	777.06
401.82	840.25
402.01	826.21
402.21	805.14
402.40	798.12
402.59	882.38
402.78	793.44
402.97	844.93
403.17	929.19
403.36	945.58
403.55	968.98
403.74	882.38
403.93	880.04
404.13	945.58
404.32	866.00
404.51	971.32
404.70	961.96
404.89	926.85
405.09	896.43
405.28	896.43
405.47	870.68
405.66	966.64
405.85	1057.92
406.05	1015.79
406.24	1032.18
406.43	983.02
406.62	1008.77
406.81	1081.33
407.00	1062.60
407.20	1006.43
407.39	1102.39
407.58	976.00
407.77	1090.69
407.96	1130.48
408.15	1081.33
408.34	1074.31
408.54	1055.58
408.73	1160.91
408.92	1174.95
409.11	1158.57
409.30	1165.59
409.49	1179.63
409.68	1196.01
409.87	1217.08
410.07	1224.10
410.26	1135.16
410.45	1188.99
410.64	1219.42
410.83	1238.14
411.02	1165.59
411.21	1315.38
411.40	1313.04
411.59	1306.02
411.78	1275.59
411.98	1170.27
412.17	1259.21
412.36	1299.00
412.55	1273.25
412.74	1275.59
412.93	1287.29
413.12	1345.81
413.31	1446.45
413.50	1404.32
413.69	1383.26
413.88	1462.83
414.07	1582.20
414.26	1549.43
414.45	1507.30
414.64	1537.73
414.83	1455.81
415.02	1533.05
415.22	1549.43
415.41	1577.52
415.60	1584.54
415.79	1568.16
415.98	1563.48
416.17	1680.50
416.36	1764.76
416.55	1657.10
416.74	1657.10
416.93	1661.78
417.12	1631.35
417.31	1699.23
417.50	1708.59
417.69	1823.28
417.88	1645.40
418.07	1743.70
418.26	1811.57
418.45	1689.87
418.64	1909.88
418.83	1928.60
419.02	1708.59
419.21	1877.11
419.39	1867.75
419.58	1905.20
419.77	1825.62
419.96	1858.39
420.15	1895.83
420.34	1846.68
420.53	1930.94
420.72	1926.26
420.91	1874.77
421.10	1935.62
421.29	1905.20
421.48	1919.24
421.67	1968.39
421.86	2031.58
422.05	2059.67
422.24	1977.75
422.43	1968.39
422.61	2008.18
422.80	2073.71
422.99	2052.65
423.18	2026.90
423.37	2076.06
423.56	2038.61
423.75	2045.63
423.94	2031.58
424.13	1937.96
424.32	2045.63
424.50	2083.08
424.69	2057.33
424.88	2176.70
425.07	1956.69
425.26	2024.56
425.45	2038.61
425.64	2062.01
425.83	2106.48
426.01	1991.80
426.20	2113.50
426.39	2015.20
426.58	2160.31
426.77	2132.23
426.96	2047.97
427.15	2087.76
427.33	2104.14
427.52	2071.37
427.71	2101.80
427.90	2200.10
428.09	2134.57
428.28	2127.55
428.46	2204.78
428.65	2347.56
428.84	2326.49
429.03	2239.89
429.22	2218.83
429.40	2253.94
429.59	2338.20
429.78	2225.85
429.97	2085.42
430.16	2286.70
430.34	2385.01
430.53	2319.47
430.72	2307.77
430.91	2338.20
431.10	2204.78
431.28	2324.15
431.47	2448.20
431.66	2595.65
431.85	2298.41
432.03	2385.01
432.22	2502.03
432.41	2408.41
432.60	2509.05
432.79	2436.50
432.97	2459.90
433.16	2403.73
433.35	2534.80
433.54	2539.48
433.72	2476.29
433.91	2509.05
434.10	2586.29
434.28	2588.63
434.47	2523.10
434.66	2656.51
434.85	2576.93
435.03	2630.76
435.22	2715.02
435.41	2609.70
435.59	2644.81
435.78	2775.88
435.97	2679.91
436.16	2614.38
436.34	2609.70
436.53	2792.26
436.72	2726.72
436.90	2708.00
437.09	2771.19
437.28	2656.51
437.46	2782.90
437.65	2881.20
437.84	2806.30
438.02	2867.16
438.21	2944.39
438.40	2803.96
438.58	2895.24
438.77	2853.11
438.96	2909.29
439.14	2909.29
439.33	2949.08
439.52	2892.90
439.70	3136.32
439.89	3026.31
440.08	3138.66
440.26	3063.76
440.45	3033.33
440.63	3059.08
440.82	3026.31
441.01	3033.33
441.19	3213.56
441.38	3162.06
441.57	3246.32
441.75	3276.75
441.94	3386.76
442.12	3375.05
442.31	3185.47
442.50	3295.47
442.68	3431.23
442.87	3295.47
443.05	3361.01
443.24	3379.73
443.43	3400.80
443.61	3398.46
443.80	3510.80
443.98	3386.76
444.17	3426.54
444.35	3384.41
444.54	3531.87
444.73	3529.53
444.91	3506.12
445.10	3440.59
445.28	3400.80
445.47	3494.42
445.65	3471.01
445.84	3489.74
446.02	3592.72
446.21	3419.52
446.39	3520.17
446.58	3489.74
446.77	3583.36
446.95	3400.80
447.14	3634.85
447.32	3452.29
447.51	3541.23
447.69	3632.51
447.88	3653.58
448.06	3428.88
448.25	3602.08
448.43	3693.37
448.62	3616.13
448.80	3630.17
448.99	3648.90
449.17	3599.74
449.36	3686.34
449.54	3761.24
449.73	3707.41
449.91	3831.46
450.10	3754.22
450.28	3674.64
450.46	3756.56
450.65	3840.82
450.83	3777.62
451.02	3822.09
451.20	3775.28
451.39	3784.65
451.57	3728.47
451.76	3852.52
451.94	3751.88
452.13	4091.26
452.31	3866.56
452.49	3913.38
452.68	3882.95
452.86	3889.97
453.05	4032.74
453.23	3948.48
453.42	3864.22
453.60	3892.31
453.78	3936.78
453.97	3990.61
454.15	4018.70
454.34	3969.55
454.52	4074.87
454.70	4070.19
454.89	4060.83
455.07	4149.77
455.26	3997.64
455.44	4072.53
455.62	4016.36
455.81	4079.55
455.99	4264.46
456.17	4248.07
456.36	4175.52
456.54	4271.48
456.73	4269.14
456.91	4547.66
457.09	4437.66
457.28	4470.42
457.46	4416.59
457.64	4332.33
457.83	4475.10
458.01	4339.35
458.19	4404.89
458.38	4440.00
458.56	4554.68
458.74	4496.17
458.93	4533.62
459.11	4479.79
459.29	4503.19
459.48	4585.11
459.66	4404.89
459.84	4557.02
460.03	4669.37
460.21	4615.54
460.39	4603.83
460.57	4521.92
460.76	4596.81
460.94	4507.87
461.12	4627.24
461.31	4557.02
461.49	4603.83
461.67	4638.94
461.85	4835.55
462.04	4725.54
462.22	5006.41
462.40	4863.63
462.59	4809.80
462.77	4823.84
462.95	4751.29
463.13	4798.10
463.32	4870.65
463.50	4933.85
463.68	4840.23
463.86	4908.10
464.05	4863.63
464.23	4898.74
464.41	4901.08
464.59	4737.24
464.78	4978.32
464.96	4994.70
465.14	4990.02
465.32	4880.02
465.50	4973.64
465.69	4992.36
465.87	5055.56
466.05	5153.86
466.23	4849.59
466.41	5097.69
466.60	5165.56
466.78	5041.51
466.96	5041.51
467.14	4985.34
467.32	5228.76
467.51	5200.67
467.69	5013.43
467.87	5252.16
468.05	5310.68
468.23	5153.86
468.41	5144.50
468.60	5228.76
468.78	5224.08
468.96	5228.76
469.14	5495.58
469.32	5526.00
469.50	5233.44
469.69	5584.52
469.87	5486.22
470.05	5371.53
470.23	5535.37
470.41	5526.00
470.59	5624.31
470.77	5572.82
470.95	5717.93
471.14	5619.63
471.32	5469.83
471.50	5888.79
471.68	5720.27
471.86	5582.18
472.04	5743.67
472.22	5746.02
472.40	5596.22
472.58	5804.53
472.77	5657.07
472.95	5900.49
473.13	6080.71
473.31	5682.82
473.49	5820.91
473.67	5921.56
473.85	5888.79
474.03	5947.30
474.21	6141.57
474.39	5984.75
474.57	5975.39
474.75	6331.15
474.93	6377.96
475.12	6157.95
475.30	6251.57
475.48	6179.01
475.66	6394.34
475.84	6347.53
476.02	6558.18
476.20	6438.81
476.38	6483.28
476.56	6707.98
476.74	6619.04
476.92	6696.27
477.10	6614.35
477.28	6771.17
477.46	6665.85
477.64	6986.50
477.82	6883.52
478.00	7077.78
478.18	7119.91
478.36	7007.56
478.54	6960.75
478.72	7211.19
478.90	7101.19
479.08	7148.00
479.26	7232.26
479.44	7513.12
479.62	7349.28
479.80	7604.40
479.98	7660.57
480.16	7686.32
480.34	7625.47
480.52	7735.47
480.70	7702.70
480.88	7536.52
481.06	7845.48
481.24	7840.79
481.41	7978.89
481.59	7964.84
481.77	7939.10
481.95	8280.82
482.13	8334.65
482.31	8212.94
482.49	8414.23
482.67	8346.35
482.85	8671.68
483.03	8531.25
483.21	8517.21
483.39	8765.31
483.57	8692.75
483.74	8737.22
483.92	8968.93
484.10	8917.44
484.28	9022.77
484.46	9121.07
484.64	9291.93
484.82	8924.46
485.00	9076.60
485.18	9345.76
485.35	9645.35
485.53	9551.73
485.71	9610.24
485.89	10031.54
486.07	9745.99
486.25	9881.74
486.43	9764.72
486.61	9933.23
486.78	10015.15
486.96	10111.11
487.14	10071.33
487.32	10104.09
487.50	10232.82
487.68	10202.40
487.85	10642.42
488.03	10703.27
488.21	10824.98
488.39	10775.83
488.57	10696.25
488.75	10579.22
488.92	11030.94
489.10	11047.33
489.28	10967.75
489.46	11255.64
489.64	11412.45
489.81	11379.68
489.99	11447.56
490.17	11403.09
490.35	11740.13
490.53	11857.15
490.70	11908.65
490.88	11831.41
491.06	11875.88
491.24	11749.49
491.41	12039.72
491.59	12018.65
491.77	12180.15
491.95	12479.74
492.13	12208.23
492.30	12528.89
492.48	12465.69
492.66	12556.97
492.84	12519.53
493.01	12774.64
493.19	12685.70
493.37	12924.44
493.54	12989.97
493.72	13053.17
493.90	13149.13
494.08	13231.05
494.25	13315.31
494.43	13268.50
494.61	13448.72
494.79	13434.68
494.96	13687.45
495.14	13685.11
495.32	13668.73
495.49	13832.57
495.67	13724.90
495.85	13778.73
496.02	14026.83
496.20	14232.80
496.38	14064.28
496.55	14171.94
496.73	14321.74
496.91	14331.10
497.09	14590.90
497.26	14785.16
497.44	14490.26
497.62	14462.17
497.79	14719.63
497.97	14953.68
498.14	15297.74
498.32	15136.24
498.50	15087.09
498.67	15260.29
498.85	14883.47
499.03	15243.91
499.20	15290.72
499.38	15253.27
499.56	15522.43
499.73	15470.94
499.91	15379.66
500.08	15335.19
500.26	15466.26
500.44	15611.37
500.61	15716.70
500.79	15817.34
500.97	15953.09
501.14	16229.27
501.32	15939.05
501.49	16159.06
501.67	15896.92
501.84	16044.37
502.02	16212.89
502.20	16116.93
502.37	16624.83
502.55	16428.22
502.72	16407.16
502.90	16475.03
503.07	16496.10
503.25	16774.62
503.43	16634.19
503.60	16751.21
503.78	16847.18
503.95	16568.65
504.13	16936.12
504.30	16847.18
504.48	16840.15
504.65	16945.48
504.83	17106.98
505.01	17371.46
505.18	17275.49
505.36	17547.00
505.53	17046.12
505.71	17186.55
505.88	17366.78
506.06	17163.15
506.23	17549.34
506.41	17481.46
506.58	17439.33
506.76	17603.17
506.93	17584.44
507.11	17479.12
507.28	17905.10
507.46	17795.09
507.63	18029.15
507.81	18235.11
507.98	18197.67
508.16	18101.70
508.33	18090.00
508.50	18139.15
508.68	18202.35
508.85	18293.63
509.03	18562.79
509.20	18272.56
509.38	18878.76
509.55	18654.07
509.73	18607.26
509.90	18740.67
510.08	18541.72
510.25	18721.95
510.42	18686.84
510.60	18932.59
510.77	19005.15
510.95	19129.20
511.12	18939.62
511.30	19012.17
511.47	19311.76
511.64	19042.60
511.82	19168.99
511.99	19108.13
512.17	19115.16
512.34	19323.46
512.51	19424.11
512.69	19496.66
512.86	19225.16
513.04	19728.38
513.21	19651.14
513.38	19737.74
513.56	19662.84
513.73	19742.42
513.90	19597.31
514.08	19833.70
514.25	19969.45
514.43	20116.90
514.60	20191.80
514.77	20006.90
514.95	20257.34
515.12	20133.29
515.29	20095.84
515.47	20294.79
515.64	19953.07
515.81	20561.61
515.99	20739.49
516.16	20512.46
516.33	20577.99
516.51	20826.09
516.68	20552.24
516.85	20449.26
517.03	20746.51
517.20	20807.36
517.37	21013.33
517.54	20959.50
517.72	20910.35
517.89	20973.54
518.06	20828.43
518.24	20840.13
518.41	20999.29
518.58	21146.74
518.75	21156.10
518.93	21495.48
519.10	21029.71
519.27	21333.98
519.45	21546.97
519.62	21586.76
519.79	21387.82
519.96	21158.44
520.14	21095.25
520.31	21549.31
520.48	21640.59
520.65	21654.64
520.83	21642.93
521.00	21708.47
521.17	21603.14
521.34	21656.98
521.52	21654.64
521.69	21858.26
521.86	21874.65
522.03	21975.29
522.20	21944.86
522.38	22150.83
522.55	22499.57
522.72	22256.15
522.89	22377.86
523.07	22415.31
523.24	22476.16
523.41	22345.09
523.58	22436.38
523.75	22668.09
523.92	22291.26
524.10	22309.99
524.27	22434.03
524.44	22632.98
524.61	22796.82
524.78	23012.15
524.96	22691.49
525.13	23175.98
525.30	22801.50
525.47	23061.30
525.64	22838.95
525.81	23264.92
525.98	23026.19
526.16	23110.45
526.33	22953.63
526.50	22899.80
526.67	22923.21
526.84	23489.62
527.01	23159.60
527.18	23346.84
527.36	23356.21
527.53	23683.88
527.70	23501.32
527.87	23632.39
528.04	23749.42
528.21	23566.85
528.38	23646.43
528.55	23611.32
528.72	23676.86
528.89	23733.03
529.07	23838.36
529.24	23613.66
529.41	24086.45
529.58	23847.72
529.75	23810.27
529.92	23957.72
530.09	23880.49
530.26	24140.29
530.43	24123.90
530.60	23763.46
530.77	24044.32
530.94	24290.08
531.11	24025.60
531.28	24156.67
531.46	24126.24
531.63	24393.06
531.80	24723.08
531.97	24608.39
532.14	24325.19
532.31	24308.80
532.48	24819.04
532.65	24575.62
532.82	24643.50
532.99	24329.87
533.16	24355.61
533.33	24739.46
533.50	25174.80
533.67	24971.18
533.84	24610.73
534.01	24627.12
534.18	24636.48
534.35	25022.67
534.52	24828.40
534.69	25240.34
534.86	25132.67
535.03	24950.11
535.20	24961.81
535.37	24861.17
535.54	25181.82
535.71	25062.46
535.88	25167.78
536.05	25149.06
536.22	25146.72
536.38	25228.63
536.55	25605.46
536.72	25432.26
536.89	25298.85
537.06	25504.82
537.23	25642.91
537.40	25614.82
537.57	25479.07
537.74	25366.73
537.91	25963.56
538.08	25713.13
538.25	25486.09
538.42	25343.32
538.59	25624.18
538.75	25413.54
538.92	25888.67
539.09	25675.68
539.26	25743.55
539.43	26017.40
539.60	25883.98
539.77	26043.14
539.94	26057.18
540.11	25628.87
540.28	26043.14
540.44	26162.51
540.61	25923.77
540.78	25741.21
540.95	26115.70
541.12	26043.14
541.29	26136.76
541.46	25930.80
541.62	26080.59
541.79	25802.07
541.96	26064.21
542.13	26267.83
542.30	26267.83
542.47	26464.44
542.63	26698.49
542.80	26532.31
542.97	26902.12
543.14	26796.79
543.31	26827.22
543.48	26686.79
543.64	26693.81
543.81	26944.25
543.98	27035.53
544.15	26965.31
544.32	27103.40
544.48	27124.47
544.65	27080.00
544.82	26609.55
544.99	26623.59
545.16	26895.10
545.32	26913.82
545.49	27101.06
545.66	26913.82
545.83	27129.15
546.00	27351.50
546.16	27110.43
546.33	26696.15
546.50	26815.52
546.67	27328.10
546.83	26920.84
547.00	27445.12
547.17	27412.35
547.34	27466.19
547.50	27583.21
547.67	27828.97
547.84	27424.06
548.00	27225.11
548.17	27730.67
548.34	27541.08
548.51	27543.42
548.67	27683.86
548.84	27796.20
549.01	27660.45
549.18	27414.69
549.34	27915.57
549.51	27604.28
549.68	27740.03
549.84	27651.09
550.01	27798.54
550.18	27782.16
550.34	27714.28
550.51	28273.67
550.68	27878.12
550.84	27688.54
551.01	28400.06
551.18	28009.19
551.34	28041.96
551.51	28072.39
551.68	28158.99
551.84	28308.78
552.01	28229.20
552.18	27948.34
552.34	28231.54
552.51	28547.51
552.68	28332.18
552.84	27974.08
553.01	28496.02
553.18	28170.69
553.34	28741.78
553.51	28245.58
553.67	28238.56
553.84	28376.66
554.01	28664.54
554.17	28332.18
554.34	28765.18
554.51	28919.66
554.67	28531.13
554.84	28606.03
555.00	28931.36
555.17	29046.05
555.33	28465.60
555.50	28393.04
555.67	28615.39
555.83	28561.56
556.00	28762.84
556.16	28882.21
556.33	28807.31
556.50	28940.72
556.66	29013.28
556.83	28772.21
556.99	28964.13
557.16	29216.91
557.32	28783.91
557.49	28833.06
557.65	29050.73
557.82	29013.28
557.98	28811.99
558.15	28973.49
558.32	28940.72
558.48	28891.57
558.65	29186.48
558.81	28802.63
558.98	29097.54
559.14	29017.96
559.31	28982.85
559.47	29216.91
559.64	29041.37
559.80	29144.35
559.97	29235.63
560.13	28922.00
560.30	29032.00
560.46	28992.22
560.63	29467.34
560.79	29331.59
560.96	29539.90
561.12	28840.08
561.29	28982.85
561.45	29544.58
561.61	29275.42
561.78	29502.45
561.94	29596.07
562.11	29289.46
562.27	29450.96
562.44	29273.08
562.60	29322.23
562.77	29397.13
562.93	29516.50
563.10	29507.13
563.26	29366.70
563.42	29600.76
563.59	29628.84
563.75	29575.01
563.92	29640.54
564.08	29647.57
564.24	29214.57
564.41	29373.72
564.57	29741.19
564.74	29795.02
564.90	29603.10
565.07	29560.97
565.23	29600.76
565.39	29776.30
565.56	29790.34
565.72	29355.00
565.88	29926.09
566.05	29703.74
566.21	29797.36
566.38	29874.60
566.54	29788.00
566.70	29642.88
566.87	30136.74
567.03	30106.31
567.19	30176.53
567.36	30061.84
567.52	30085.25
567.68	29673.31
567.85	29785.66
568.01	29790.34
568.17	29626.50
568.34	29860.55
568.50	30073.54
568.66	30314.62
568.83	29788.00
568.99	30312.28
569.15	29865.24
569.32	29385.43
569.48	29560.97
569.64	30265.47
569.81	29947.15
569.97	29642.88
570.13	30096.95
570.30	30134.40
570.46	29958.86
570.62	30192.91
570.78	29883.96
570.95	29687.36
571.11	30015.03
571.27	29722.46
571.43	29736.51
571.60	30139.08
571.76	30616.55
571.92	30120.35
572.09	30082.91
572.25	30005.67
572.41	30211.64
572.57	30291.21
572.74	30424.62
572.90	30209.29
573.06	30192.91
573.22	29860.55
573.38	29912.05
573.55	29851.19
573.71	30595.48
573.87	30396.54
574.03	30202.27
574.20	30174.19
574.36	29738.85
574.52	30239.72
574.68	30036.09
574.84	30436.33
575.01	30312.28
575.17	30342.70
575.33	30326.32
575.49	29965.88
575.65	30328.66
575.82	30602.50
575.98	30359.09
576.14	30686.76
576.30	29993.97
576.46	30040.78
576.62	30391.86
576.79	30225.68
576.95	30141.42
577.11	30616.55
577.27	30356.75
577.43	30405.90
577.59	30164.82
577.75	30415.26
577.92	29998.65
578.08	30478.46
578.24	30101.63
578.40	30171.85
578.56	30331.00
578.72	30316.96
578.88	30611.87
579.04	30499.52
579.21	30155.46
579.37	30684.42
579.53	30604.84
579.69	29972.90
579.85	30312.28
580.01	30192.91
580.17	30012.69
580.33	30391.86
580.49	30122.69
580.65	30256.11
580.82	30719.53
580.98	30611.87
581.14	30373.13
581.30	30389.52
581.46	30202.27
581.62	30487.82
581.78	30202.27
581.94	30586.12
582.10	30181.21
582.26	30579.10
582.42	30218.66
582.58	30831.88
582.74	30356.75
582.90	30291.21
583.06	30614.21
583.22	30761.66
583.38	30356.75
583.54	30389.52
583.70	29862.90
583.86	31007.42
584.02	30328.66
584.18	30785.07
584.34	30876.35
584.50	30504.20
584.66	30611.87
584.82	30721.87
584.98	30558.03
585.14	30527.61
585.30	30146.10
585.46	30375.47
585.62	30347.39
585.78	30682.08
585.94	30656.34
586.10	30567.40
586.26	30967.63
586.42	30710.17
586.58	30230.36
586.74	30476.12
586.90	30572.08
587.06	30199.93
587.22	30274.83
587.38	30321.64
587.54	30396.54
587.70	30476.12
587.86	30607.19
588.02	30733.57
588.18	30995.71
588.34	30972.31
588.49	30775.70
588.65	30789.75
588.81	30747.62
588.97	30387.18
589.13	30604.84
589.29	30368.45
589.45	30284.19
589.61	30717.19
589.77	30988.69
589.93	30813.15
590.08	31105.72
590.24	31054.23
590.40	30808.47
590.56	30714.85
590.72	30539.31
590.88	31002.74
591.04	30958.27
591.20	30862.30
591.35	31213.38
591.51	31189.98
591.67	31005.08
591.83	30967.63
591.99	31007.42
592.15	30981.67
592.31	30459.73
592.46	31122.10
592.62	30483.14
592.78	30630.59
592.94	30735.92
593.10	30775.70
593.26	30831.88
593.41	30822.51
593.57	30742.94
593.73	30778.04
593.89	31175.94
594.05	31262.54
594.20	31154.87
594.36	30738.26
594.52	30494.84
594.68	31084.65
594.84	31005.08
594.99	31021.46
595.15	30866.98
595.31	31143.17
595.47	30967.63
595.62	31264.88
595.78	31309.35
595.94	31077.63
596.10	31189.98
596.25	31040.18
596.41	31103.38
596.57	30607.19
596.73	31115.08
596.88	30618.89
597.04	31063.59
597.20	30995.71
597.36	31292.96
597.51	31157.21
597.67	31021.46
597.83	31482.55
597.99	31063.59
598.14	30892.73
598.30	30918.48
598.46	31110.40
598.61	30930.18
598.77	31061.25
598.93	31302.32
599.09	31466.16
599.24	31637.02
599.40	31421.69
599.56	31620.64
599.71	31337.43
599.87	31150.19
600.03	30902.09
600.18	31119.76
600.34	30892.73
600.50	31068.27
600.65	31541.06
600.81	31295.30
600.97	31236.79
601.12	31594.89
601.28	31409.99
601.44	31119.76
601.59	30904.43
601.75	31012.10
601.91	31040.18
602.06	31002.74
602.22	30991.03
602.37	30724.21
602.53	30995.71
602.69	31189.98
602.84	31468.50
603.00	31227.43
603.16	31269.56
603.31	31260.20
603.47	31103.38
603.62	31033.16
603.78	31075.29
603.94	31094.02
604.09	30803.79
604.25	31178.28
604.40	31000.40
604.56	31206.36
604.71	31424.03
604.87	31115.08
605.03	31316.37
605.18	31110.40
605.34	31454.46
605.49	30768.68
605.65	30916.14
605.80	31061.25
605.96	30864.64
606.12	30902.09
606.27	31604.25
606.43	31058.91
606.58	31159.55
606.74	30955.93
606.89	31189.98
607.05	30939.54
607.20	30955.93
607.36	31414.67
607.51	31028.48
607.67	30960.61
607.82	30838.90
607.98	30981.67
608.13	31079.97
608.29	30911.46
608.44	30808.47
608.60	30946.56
608.75	31519.99
608.91	30813.15
609.06	31105.72
609.22	30937.20
609.37	30462.07
609.53	31016.78
609.68	30618.89
609.84	30794.43
609.99	31028.48
610.15	30693.79
610.30	30448.03
610.46	30579.10
610.61	30866.98
610.76	30436.33
610.92	30871.67
611.07	30843.58
611.23	30515.90
611.38	30895.07
611.54	30738.26
611.69	30183.55
611.84	30611.87
612.00	30558.03
612.15	30099.29
612.31	31096.36
612.46	30948.90
612.62	30565.06
612.77	30487.82
612.92	30979.33
613.08	30670.38
613.23	30513.56
613.39	30773.36
613.54	30298.23
613.69	30728.89
613.85	30815.49
614.00	30462.07
614.15	30881.03
614.31	30281.85
614.46	30448.03
614.62	30852.94
614.77	30415.26
614.92	30665.70
615.08	30548.67
615.23	30370.79
615.38	30618.89
615.54	30221.00
615.69	30319.30
615.84	30597.82
616.00	30834.22
616.15	30572.08
616.30	30656.34
616.46	30396.54
616.61	30235.04
616.76	30333.34
616.92	30356.75
617.07	30291.21
617.22	30103.97
617.37	30047.80
617.53	30089.93
617.68	30307.60
617.83	29940.13
617.99	29968.22
618.14	30059.50
618.29	30506.54
618.45	29930.77
618.60	30174.19
618.75	30300.58
618.90	30221.00
619.06	30668.04
619.21	29876.94
619.36	30211.64
619.51	30118.01
619.67	29993.97
619.82	29631.18
619.97	30307.60
620.12	30033.75
620.28	29780.98
620.43	29949.50
620.58	30195.25
620.73	30579.10
620.89	30162.48
621.04	30480.80
621.19	29776.30
621.34	30010.35
621.49	30148.44
621.65	29696.72
621.80	29879.28
621.95	29439.26
622.10	30026.73
622.25	29738.85
622.41	29743.53
622.56	29839.49
622.71	29846.51
622.86	29993.97
623.01	30078.22
623.16	29780.98
623.32	29741.19
623.47	29879.28
623.62	29888.64
623.77	29563.31
623.92	29493.09
624.07	29474.37
624.23	29535.22
624.38	29944.81
624.53	29809.06
624.68	29699.06
624.83	29848.85
624.98	29930.77
625.13	29696.72
625.29	29586.71
625.44	29481.39
625.59	29443.94
625.74	29603.10
625.89	29048.39
626.04	29479.05
626.19	29240.31
626.34	29102.22
626.49	29010.94
626.65	29132.65
626.80	29497.77
626.95	29422.87
627.10	29514.16
627.25	29118.60
627.40	28811.99
627.55	28823.70
627.70	28945.41
627.85	28950.09
628.00	28498.36
628.15	29434.58
628.30	29097.54
628.45	29170.10
628.60	28741.78
628.76	28912.64
628.91	29219.25
629.06	29345.64
629.21	29113.92
629.36	28683.27
629.51	29170.10
629.66	29125.63
629.81	28781.57
629.96	28620.07
630.11	28982.85
630.26	28753.48
630.41	28982.85
630.56	28456.23
630.71	29216.91
630.86	28659.86
631.01	28671.56
631.16	29088.18
631.31	28786.25
631.46	28428.15
631.61	28856.46
631.76	28559.22
631.91	29008.60
632.06	28474.96
632.21	28374.31
632.36	28627.09
632.51	28182.39
632.66	28517.09
632.81	28105.15
632.96	28837.74
633.10	28989.88
633.25	29027.32
633.40	28362.61
633.55	28629.43
633.70	28357.93
633.85	28077.07
634.00	28510.07
634.15	28451.55
634.30	28327.50
634.45	28418.78
634.60	28257.29
634.75	28465.60
634.90	28187.07
635.05	27938.97
635.19	28416.44
635.34	28573.26
635.49	28531.13
635.64	27910.89
635.79	28669.22
635.94	28027.92
636.09	28051.32
636.24	28243.24
636.39	28198.77
636.53	28147.28
636.68	28107.49
636.83	28151.96
636.98	28374.31
637.13	28357.93
637.28	28360.27
637.43	28098.13
637.57	27962.38
637.72	27833.65
637.87	28161.33
638.02	27861.74
638.17	27810.25
638.32	27885.14
638.46	27573.85
638.61	27906.21
638.76	27569.17
638.91	27835.99
639.06	28119.20
639.20	27800.88
639.35	27953.02
639.50	27920.25
639.65	27990.47
639.80	27852.38
639.94	27953.02
640.09	28079.41
640.24	28060.68
640.39	27515.34
640.54	27531.72
640.68	27351.50
640.83	27630.02
640.98	27318.73
641.13	27056.59
641.27	27412.35
641.42	27264.90
641.57	27569.17
641.72	27482.57
641.86	27253.20
642.01	27276.60
642.16	27571.51
642.31	27304.69
642.45	27370.22
642.60	27234.47
642.75	26953.61
642.90	27182.98
643.04	27190.00
643.19	27239.15
643.34	27136.17
643.48	27433.42
643.63	27250.86
643.78	27250.86
643.93	27325.75
644.07	27199.37
644.22	27599.60
644.37	26705.51
644.51	27002.76
644.66	27702.58
644.81	26972.33
644.95	27016.80
645.10	26855.31
645.25	26845.94
645.39	26808.50
645.54	26651.68
645.69	27019.14
645.83	27283.62
645.98	27051.91
646.13	27311.71
646.27	27192.34
646.42	27063.61
646.57	26642.32
646.71	26965.31
646.86	26803.82
647.00	26862.33
647.15	26768.71
647.30	26885.73
647.44	26607.21
647.59	26829.56
647.74	26796.79
647.88	26972.33
648.03	26682.11
648.17	27037.87
648.32	26764.03
648.47	27007.44
648.61	27281.28
648.76	26775.73
648.90	26998.08
649.05	26710.19
649.20	26611.89
649.34	26766.37
649.49	26497.20
649.63	26632.96
649.78	26794.45
649.92	26408.26
650.07	26520.61
650.21	26426.99
650.36	26551.04
650.51	26476.14
650.65	26829.56
650.80	26551.04
650.94	26485.50
651.09	26745.30
651.23	26492.52
651.38	26499.55
651.52	26342.73
651.67	26120.38
651.81	26497.20
651.96	26632.96
652.10	26178.89
652.25	26682.11
652.39	26649.34
652.54	26548.70
652.68	26335.71
652.83	26539.33
652.97	26569.76
653.12	26464.44
653.26	26054.84
653.41	26263.15
653.55	26150.81
653.70	25914.41
653.84	26150.81
653.99	26012.71
654.13	26068.89
654.27	25876.96
654.42	26256.13
654.56	25975.27
654.71	26089.95
654.85	26188.25
655.00	26073.57
655.14	26176.55
655.29	26017.40
655.43	26190.59
655.57	25928.45
655.72	25647.59
655.86	26195.28
656.01	25907.39
656.15	26267.83
656.30	25771.64
656.44	25764.62
656.58	25671.00
656.73	25764.62
656.87	25879.30
657.01	25858.24
657.16	25830.15
657.30	25685.04
657.45	25900.37
657.59	25930.80
657.73	25549.29
657.88	26064.21
658.02	25415.88
658.16	25598.44
658.31	25355.02
658.45	25446.30
658.60	25085.86
658.74	25055.43
658.88	25575.03
659.03	25221.61
659.17	25523.54
659.31	25411.20
659.46	25319.92
659.60	25432.26
659.74	25202.89
659.89	25401.83
660.03	25240.34
660.17	25242.68
660.32	24826.06
660.46	25319.92
660.60	25160.76
660.74	24840.11
660.89	24994.58
661.03	25001.60
661.17	25064.80
661.32	25060.12
661.46	25083.52
661.60	25207.57
661.74	24601.37
661.89	24985.22
662.03	24966.49
662.17	24823.72
662.31	24592.01
662.46	25191.19
662.60	24744.14
662.74	24713.72
662.88	24360.30
663.03	24514.77
663.17	24744.14
663.31	24442.21
663.45	24194.12
663.60	24477.32
663.74	24306.46
663.88	24460.94
664.02	24407.11
664.17	24407.11
664.31	24318.17
664.45	24198.80
664.59	24376.68
664.73	24428.17
664.88	24112.20
665.02	24084.11
665.16	23744.73
665.30	23971.77
665.44	23812.61
665.59	23789.20
665.73	23655.79
665.87	23962.40
666.01	24030.28
666.15	23740.05
666.29	23857.08
666.44	23681.54
666.58	23704.95
666.72	24217.52
666.86	23524.72
667.00	23946.02
667.14	23655.79
667.28	23803.25
667.43	23377.27
667.57	23686.22
667.71	23929.64
667.85	23674.52
667.99	23262.58
668.13	23264.92
668.27	23644.09
668.41	23826.65
668.56	23204.07
668.70	23363.23
668.84	23278.97
668.98	23339.82
669.12	23140.88
669.26	23276.63
669.40	23278.97
669.54	23332.80
669.68	23356.21
669.82	22829.59
669.96	22913.84
670.10	22696.17
670.25	23009.81
670.39	22712.56
670.53	22984.06
670.67	22970.02
670.81	22705.54
670.95	22953.63
671.09	22897.46
671.23	22890.44
671.37	22871.72
671.51	22806.18
671.65	22684.47
671.79	22637.66
671.93	22450.42
672.07	22684.47
672.21	22471.48
672.35	22185.94
672.49	22211.68
672.63	22384.88
672.77	22064.23
672.91	22272.54
673.05	21895.71
673.19	22155.51
673.33	22188.28
673.47	22089.98
673.61	22197.64
673.75	21909.75
673.89	22216.36
674.03	21912.10
674.17	21865.28
674.31	22017.42
674.45	21797.41
674.59	21472.07
674.73	21813.79
674.87	21612.51
675.01	21443.99
675.15	21458.03
675.29	21542.29
675.43	21341.00
675.56	21364.41
675.70	21266.11
675.84	21568.04
675.98	21020.35
676.12	21369.09
676.26	21259.09
676.40	21331.64
676.54	21209.93
676.68	20975.88
676.82	20812.04
676.96	21135.04
677.10	20879.92
677.23	20844.81
677.37	20517.14
677.51	20610.76
677.65	20479.69
677.79	20306.49
677.93	20383.73
678.07	20549.90
678.21	20299.47
678.34	20507.77
678.48	20233.93
678.62	20350.96
678.76	20458.62
678.90	20231.59
679.04	19976.47
679.18	19967.11
679.31	19620.71
679.45	19538.79
679.59	19363.25
679.73	19697.95
679.87	19791.57
680.00	19653.48
680.14	19358.57
680.28	19491.98
680.42	19517.73
680.56	19531.77
680.70	19641.78
680.83	19309.42
680.97	19403.04
681.11	19609.01
681.25	18988.77
681.39	19103.45
681.52	19037.92
681.66	19023.87
681.80	18801.52
681.94	18672.79
682.07	18778.12
682.21	18778.12
682.35	18647.05
682.49	18876.42
682.62	18380.23
682.76	18853.02
682.90	18286.61
683.04	18539.38
683.17	18178.94
683.31	18595.56
683.45	18586.19
683.59	18417.68
683.72	18148.51
683.86	18200.01
684.00	18022.12
684.13	17645.30
684.27	17757.64
684.41	17898.08
684.55	17949.57
684.68	17671.04
684.82	17554.02
684.96	17530.61
685.09	17610.19
685.23	17392.52
685.37	17394.86
685.50	17750.62
685.64	17504.87
685.78	17432.31
685.91	17296.56
686.05	17394.86
686.19	17240.39
686.32	17179.53
686.46	17231.02
686.60	17128.04
686.73	16809.73
686.87	16819.09
687.01	16673.98
687.14	16870.58
687.28	16402.47
687.42	16884.62
687.55	16439.92
687.69	16468.01
687.82	16629.51
687.96	16706.74
688.10	16734.83
688.23	16596.74
688.37	16547.59
688.50	16278.43
688.64	16400.13
688.78	16198.85
688.91	15981.18
689.05	16240.98
689.18	16018.63
689.32	15822.02
689.46	15840.75
689.59	15843.09
689.73	15641.80
689.86	15878.19
690.00	15716.70
690.13	15520.09
690.27	15447.54
690.41	15616.05
690.54	15580.95
690.68	15524.77
690.81	15225.18
690.95	15405.41
691.08	15623.08
691.22	15489.67
691.35	15234.55
691.49	15396.04
691.62	15009.86
691.76	14719.63
691.89	14885.81
692.03	14663.46
692.16	14434.08
692.30	14607.28
692.43	14600.26
692.57	14663.46
692.70	14506.64
692.84	14391.95
692.97	14757.08
693.11	14731.33
693.24	14288.97
693.38	14689.20
693.51	14209.39
693.65	14375.57
693.78	14345.14
693.92	14335.78
694.05	14087.68
694.19	14012.79
694.32	13893.42
694.45	13975.34
694.59	13778.73
694.72	13582.13
694.86	13853.63
694.99	13582.13
695.13	13605.53
695.26	13315.31
695.39	13467.44
695.53	13521.27
695.66	13511.91
695.80	13174.88
695.93	13554.04
696.07	13394.89
696.20	13535.32
696.33	13380.84
696.47	13085.94
696.60	13270.84
696.73	13247.43
696.87	12898.69
697.00	12959.55
697.14	12725.49
697.27	12486.76
697.40	12666.98
697.54	12521.87
697.67	12571.02
697.80	12535.91
697.94	12444.63
698.07	12383.77
698.21	12379.09
698.34	12241.00
698.47	12294.83
698.61	12329.94
698.74	12430.59
698.87	12451.65
699.01	11992.90
699.14	12060.78
699.27	11983.54
699.40	12088.87
699.54	12278.45
699.67	12079.50
699.80	11815.02
699.94	11810.34
700.07	11793.96
700.20	11714.38
700.34	11616.08
700.47	11681.61
700.60	11522.46
700.73	11819.71
700.87	11438.20
701.00	11433.52
701.13	11276.70
701.26	11330.53
701.40	11346.92
701.53	11377.34
701.66	11255.64
701.79	11094.14
701.93	11117.54
702.06	11012.22
702.19	10766.46
702.32	10888.17
702.46	10911.58
702.59	10888.17
702.72	10572.20
702.85	10670.50
702.99	10787.53
703.12	10560.50
703.25	10637.73
703.38	10855.40
703.51	10480.92
703.65	10726.68
703.78	10434.11
703.91	10511.35
704.04	10373.25
704.17	10394.32
704.31	10167.29
704.44	10195.37
704.57	10169.63
704.70	10113.45
704.83	10043.24
704.96	9928.55
705.10	9926.21
705.23	9813.87
>>>>>End Processed Spectral Data<<<<<
