SpectraSuite Data File
++++++++++++++++++++++++++++++++++++
Date: Fri Oct 18 13:58:19 GMT-05:00 2013
User: bianchi
Dark Spectrum Present: No
Reference Spectrum Present: No
Number of Sampled Component Spectra: 1
Spectrometers: USB2+H05261
Integration Time (usec): 50000 (USB2+H05261)
Spectra Averaged: 1 (USB2+H05261)
Boxcar Smoothing: 0 (USB2+H05261)
Correct for Electrical Dark: No (USB2+H05261)
Strobe/Lamp Enabled: No (USB2+H05261)
Correct for Detector Non-linearity: No (USB2+H05261)
Correct for Stray Light: No (USB2+H05261)
Number of Pixels in Processed Spectrum: 2048
>>>>>Begin Processed Spectral Data<<<<<
365.73	0.00
365.92	0.00
366.12	0.00
366.32	0.00
366.52	0.00
366.72	0.00
366.91	0.00
367.11	0.00
367.31	0.00
367.51	0.00
367.70	0.00
367.90	0.00
368.10	0.00
368.30	0.00
368.49	0.00
368.69	0.00
368.89	0.00
369.09	0.00
369.28	0.00
369.48	0.00
369.68	0.00
369.87	0.00
370.07	0.00
370.27	0.00
370.47	0.00
370.66	110.01
370.86	84.26
371.06	58.51
371.25	128.73
371.45	126.39
371.65	168.52
371.84	65.54
372.04	159.16
372.24	114.69
372.44	170.86
372.63	227.03
372.83	177.88
373.03	198.95
373.22	100.64
373.42	135.75
373.62	255.12
373.81	287.89
374.01	191.92
374.21	264.48
374.40	271.50
374.60	266.82
374.79	182.56
374.99	152.13
375.19	208.31
375.38	241.08
375.58	229.37
375.78	287.89
375.97	280.86
376.17	215.33
376.37	266.82
376.56	320.65
376.76	262.14
376.95	215.33
377.15	264.48
377.35	262.14
377.54	257.46
377.74	243.42
377.93	210.65
378.13	299.59
378.33	318.31
378.52	337.04
378.72	238.73
378.91	262.14
379.11	264.48
379.31	290.23
379.50	297.25
379.70	313.63
379.89	283.20
380.09	318.31
380.28	311.29
380.48	294.91
380.68	271.50
380.87	290.23
381.07	341.72
381.26	308.95
381.46	292.57
381.65	273.84
381.85	393.21
382.04	299.59
382.24	313.63
382.43	353.42
382.63	395.55
382.83	362.78
383.02	358.10
383.22	358.10
383.41	315.97
383.61	383.85
383.80	339.38
384.00	341.72
384.19	421.30
384.39	351.08
384.58	278.52
384.78	418.96
384.97	444.70
385.17	327.68
385.36	332.36
385.56	402.57
385.75	341.72
385.95	437.68
386.14	454.06
386.34	416.62
386.53	437.68
386.72	449.38
386.92	416.62
387.11	388.53
387.31	437.68
387.50	454.06
387.70	433.00
387.89	414.27
388.09	491.51
388.28	430.66
388.48	402.57
388.67	449.38
388.86	479.81
389.06	400.23
389.25	404.91
389.45	400.23
389.64	421.30
389.84	430.66
390.03	482.15
390.22	451.72
390.42	435.34
390.61	449.38
390.81	433.00
391.00	540.66
391.19	470.45
391.39	514.92
391.58	564.07
391.78	547.69
391.97	554.71
392.16	500.87
392.36	524.28
392.55	512.58
392.75	571.09
392.94	559.39
393.13	610.88
393.33	491.51
393.52	554.71
393.71	601.52
393.91	552.37
394.10	517.26
394.29	582.79
394.49	547.69
394.68	650.67
394.88	566.41
395.07	613.22
395.26	571.09
395.46	636.63
395.65	732.59
395.84	608.54
396.04	601.52
396.23	594.50
396.42	573.43
396.62	676.41
396.81	667.05
397.00	601.52
397.19	634.29
397.39	622.58
397.58	664.71
397.77	734.93
397.97	620.24
398.16	667.05
398.35	667.05
398.55	650.67
398.74	648.33
398.93	739.61
399.12	617.90
399.32	657.69
399.51	638.97
399.70	730.25
399.90	755.99
400.09	730.25
400.28	758.33
400.47	800.46
400.67	793.44
400.86	737.27
401.05	823.87
401.24	786.42
401.44	732.59
401.63	828.55
401.82	809.83
402.01	753.65
402.21	894.08
402.40	858.98
402.59	798.12
402.78	866.00
402.97	880.04
403.17	887.06
403.36	774.72
403.55	964.30
403.74	851.96
403.93	826.21
404.13	861.32
404.32	966.64
404.51	947.92
404.70	919.83
404.89	882.38
405.09	924.51
405.28	973.66
405.47	940.90
405.66	1032.18
405.85	961.96
406.05	945.58
406.24	898.77
406.43	1034.52
406.62	929.19
406.81	1086.01
407.00	1076.65
407.20	947.92
407.39	1004.09
407.58	1025.15
407.77	1160.91
407.96	1060.26
408.15	1034.52
408.34	983.02
408.54	1043.88
408.73	1022.81
408.92	1074.31
409.11	1090.69
409.30	1116.44
409.49	1205.38
409.68	1083.67
409.87	1165.59
410.07	1132.82
410.26	1104.73
410.45	1139.84
410.64	1177.29
410.83	1174.95
411.02	1254.53
411.21	1233.46
411.40	1254.53
411.59	1226.44
411.78	1284.95
411.98	1277.93
412.17	1268.57
412.36	1256.87
412.55	1362.19
412.74	1406.66
412.93	1352.83
413.12	1254.53
413.31	1437.09
413.50	1390.28
413.69	1497.94
413.88	1497.94
414.07	1357.51
414.26	1383.26
414.45	1418.36
414.64	1516.67
414.83	1563.48
415.02	1596.25
415.22	1488.58
415.41	1500.28
415.60	1614.97
415.79	1570.50
415.98	1582.20
416.17	1659.44
416.36	1540.07
416.55	1497.94
416.74	1549.43
416.93	1549.43
417.12	1713.27
417.31	1633.69
417.50	1591.56
417.69	1607.95
417.88	1717.95
418.07	1764.76
418.26	1741.36
418.45	1851.36
418.64	1834.98
418.83	1746.04
419.02	1792.85
419.21	1722.63
419.39	1678.16
419.58	1785.83
419.77	1942.64
419.96	1884.13
420.15	1806.89
420.34	1919.24
420.53	1797.53
420.72	1914.56
420.91	1846.68
421.10	1905.20
421.29	1975.41
421.48	1898.17
421.67	2003.50
421.86	1942.64
422.05	1912.22
422.24	2033.93
422.43	1966.05
422.61	1863.07
422.80	1998.82
422.99	1994.14
423.18	1954.35
423.37	2010.52
423.56	2052.65
423.75	2118.18
423.94	1973.07
424.13	1914.56
424.32	1820.94
424.50	2118.18
424.69	1942.64
424.88	2036.27
425.07	2036.27
425.26	2024.56
425.45	2003.50
425.64	2062.01
425.83	1980.09
426.01	2141.59
426.20	2078.40
426.39	2047.97
426.58	2015.20
426.77	2043.29
426.96	2118.18
427.15	2104.14
427.33	2190.74
427.52	2256.28
427.71	2127.55
427.90	2064.35
428.09	2179.04
428.28	2230.53
428.46	2333.51
428.65	2190.74
428.84	2298.41
429.03	2363.94
429.22	2186.06
429.40	2111.16
429.59	2230.53
429.78	2113.50
429.97	2143.93
430.16	2148.61
430.34	2200.10
430.53	2399.05
430.72	2382.67
430.91	2317.13
431.10	2356.92
431.28	2392.03
431.47	2455.22
431.66	2359.26
431.85	2319.47
432.03	2476.29
432.22	2518.42
432.41	2382.67
432.60	2469.27
432.79	2424.80
432.97	2464.58
433.16	2569.91
433.35	2523.10
433.54	2490.33
433.72	2581.61
433.91	2551.18
434.10	2480.97
434.28	2588.63
434.47	2651.83
434.66	2534.80
434.85	2583.95
435.03	2708.00
435.22	2623.74
435.41	2656.51
435.59	2633.10
435.78	2602.68
435.97	2675.23
436.16	2651.83
436.34	2576.93
436.53	2647.15
436.72	2801.62
436.90	2780.56
437.09	2850.77
437.28	2808.64
437.46	2614.38
437.65	2761.83
437.84	2820.35
438.02	2874.18
438.21	2759.49
438.40	2675.23
438.58	2829.71
438.77	2878.86
438.96	2874.18
439.14	2932.69
439.33	3068.44
439.52	2918.65
439.70	3033.33
439.89	3035.67
440.08	3033.33
440.26	3066.10
440.45	3068.44
440.63	3066.10
440.82	2988.86
441.01	3211.22
441.19	3206.53
441.38	3286.11
441.57	3155.04
441.75	3185.47
441.94	3286.11
442.12	3290.79
442.31	3370.37
442.50	3328.24
442.68	3253.34
442.87	3358.67
443.05	3316.54
443.24	3309.52
443.43	3438.25
443.61	3501.44
443.80	3417.18
443.98	3281.43
444.17	3201.85
444.35	3494.42
444.54	3445.27
444.73	3283.77
444.91	3290.79
445.10	3454.63
445.28	3438.25
445.47	3342.28
445.65	3426.54
445.84	3522.51
446.02	3590.38
446.21	3342.28
446.39	3534.21
446.58	3405.48
446.77	3562.30
446.95	3391.44
447.14	3541.23
447.32	3548.25
447.51	3574.00
447.69	3583.36
447.88	3459.31
448.06	3501.44
448.25	3520.17
448.43	3520.17
448.62	3478.04
448.80	3506.12
448.99	3513.14
449.17	3574.00
449.36	3478.04
449.54	3695.71
449.73	3655.92
449.91	3644.21
450.10	3707.41
450.28	3899.33
450.46	3772.94
450.65	3763.58
450.83	3754.22
451.02	3763.58
451.20	3892.31
451.39	3728.47
451.57	3763.58
451.76	3742.52
451.94	3700.39
452.13	3934.44
452.31	3810.39
452.49	3754.22
452.68	3791.67
452.86	3712.09
453.05	3908.69
453.23	3936.78
453.42	3955.51
453.60	3906.35
453.78	3836.14
453.97	3819.75
454.15	3948.48
454.34	3978.91
454.52	4081.89
454.70	4025.72
454.89	4063.17
455.07	3899.33
455.26	3999.98
455.44	4236.37
455.62	4067.85
455.81	4095.94
455.99	4147.43
456.17	4255.09
456.36	4147.43
456.54	4187.22
456.73	4212.96
456.91	4421.27
457.09	4306.59
457.28	4358.08
457.46	4341.69
457.64	4393.19
457.83	4346.37
458.01	4425.95
458.19	4365.10
458.38	4437.66
458.56	4496.17
458.74	4500.85
458.93	4444.68
459.11	4498.51
459.29	4503.19
459.48	4465.74
459.66	4571.07
459.84	4521.92
460.03	4538.30
460.21	4566.39
460.39	4461.06
460.57	4505.53
460.76	4730.22
460.94	4667.03
461.12	4383.82
461.31	4674.05
461.49	4697.46
461.67	4550.00
461.85	4589.79
462.04	4610.86
462.22	4992.36
462.40	4793.42
462.59	4690.43
462.77	4774.69
462.95	4807.46
463.13	4816.82
463.32	4873.00
463.50	4896.40
463.68	4798.10
463.86	4847.25
464.05	4798.10
464.23	4870.65
464.41	4931.51
464.59	4851.93
464.78	5074.28
464.96	4884.70
465.14	4842.57
465.32	5071.94
465.50	5076.62
465.69	4992.36
465.87	4873.00
466.05	4931.51
466.23	4973.64
466.41	5076.62
466.60	5130.45
466.78	5104.71
466.96	5034.49
467.14	4961.94
467.32	5050.88
467.51	5198.33
467.69	4990.02
467.87	5102.37
468.05	5167.90
468.23	5109.39
468.41	5102.37
468.60	5153.86
468.78	5167.90
468.96	4992.36
469.14	5210.03
469.32	5547.07
469.50	5177.26
469.69	5317.70
469.87	5483.88
470.05	5385.57
470.23	5385.57
470.41	5511.96
470.59	5359.83
470.77	5572.82
470.95	5434.72
471.14	5493.24
471.32	5322.38
471.50	5703.89
471.68	5685.16
471.86	5549.41
472.04	5481.53
472.22	5879.43
472.40	5549.41
472.58	5731.97
472.77	5870.06
472.95	5790.49
473.13	5975.39
473.31	5710.91
473.49	5804.53
473.67	5839.64
473.85	5923.90
474.03	6043.26
474.21	6008.16
474.39	5987.09
474.57	6036.24
474.75	6207.10
474.93	6146.25
475.12	6106.46
475.30	6225.82
475.48	6265.61
475.66	6136.88
475.84	6300.72
476.02	6431.79
476.20	6342.85
476.38	6499.67
476.56	6558.18
476.74	6548.82
476.92	6679.89
477.10	6534.78
477.28	6661.16
477.46	6707.98
477.64	6848.41
477.82	6738.40
478.00	6956.07
478.18	6939.69
478.36	7126.93
478.54	7052.03
478.72	7162.04
478.90	7166.72
479.08	7129.27
479.26	7145.66
479.44	7372.69
479.62	7349.28
479.80	7445.24
479.98	7501.42
480.16	7754.19
480.34	7599.72
480.52	7691.00
480.70	7613.76
480.88	7566.95
481.06	7772.92
481.24	7676.96
481.41	7611.42
481.59	7882.92
481.77	8135.70
481.95	8100.59
482.13	8053.78
482.31	8142.72
482.49	8353.37
482.67	8313.58
482.85	8425.93
483.03	8386.14
483.21	8587.43
483.39	8650.62
483.57	8416.57
483.74	8564.02
483.92	8727.86
484.10	8746.58
484.28	8784.03
484.46	8912.76
484.64	9238.09
484.82	8924.46
485.00	9135.11
485.18	9226.39
485.35	9570.45
485.53	9423.00
485.71	9493.21
485.89	9612.58
486.07	9493.21
486.25	9621.94
486.43	9488.53
486.61	9624.28
486.78	9846.63
486.96	9881.74
487.14	10017.49
487.32	10064.30
487.50	10083.03
487.68	10106.43
487.85	10242.18
488.03	10562.84
488.21	10619.01
488.39	10619.01
488.57	10820.30
488.75	10686.89
488.92	10705.61
489.10	10916.26
489.28	11117.54
489.46	11002.86
489.64	11066.05
489.81	11288.40
489.99	11147.97
490.17	11260.32
490.35	11419.47
490.53	11637.14
490.70	11740.13
490.88	11683.95
491.06	11712.04
491.24	11974.18
491.41	11831.41
491.59	11716.72
491.77	12025.67
491.95	12093.55
492.13	12299.52
492.30	12416.54
492.48	12393.14
492.66	12498.46
492.84	12168.45
493.01	12695.07
493.19	12720.81
493.37	12807.41
493.54	12547.61
493.72	12648.26
493.90	12826.14
494.08	12788.69
494.25	12971.25
494.43	13209.98
494.61	13219.35
494.79	13413.61
494.96	13378.50
495.14	13327.01
495.32	13570.43
495.49	13404.25
495.67	13813.84
495.85	13631.28
496.02	13973.00
496.20	14029.17
496.38	13872.36
496.55	13930.87
496.73	14211.73
496.91	14202.37
497.09	14249.18
497.26	14497.28
497.44	14387.27
497.62	14583.88
497.79	14436.42
497.97	14504.30
498.14	14916.23
498.32	14700.90
498.50	14698.56
498.67	15019.22
498.85	15012.20
499.03	15026.24
499.20	14904.53
499.38	15087.09
499.56	15243.91
499.73	15349.23
499.91	15449.88
500.08	15393.70
500.26	15138.58
500.44	15686.27
500.61	15344.55
500.79	15609.03
500.97	15719.04
501.14	16070.12
501.32	15777.55
501.49	15763.51
501.67	15728.40
501.84	15796.28
502.02	15777.55
502.20	16074.80
502.37	16250.34
502.55	16346.30
502.72	16081.82
502.90	16070.12
503.07	16233.96
503.25	16638.87
503.43	16468.01
503.60	16475.03
503.78	16580.36
503.95	16355.66
504.13	16470.35
504.30	16779.30
504.48	16718.45
504.65	16753.55
504.83	16826.11
505.01	16896.33
505.18	16791.00
505.36	17247.41
505.53	17170.17
505.71	16964.20
505.88	16943.14
506.06	17242.73
506.23	17383.16
506.41	17408.90
506.58	17521.25
506.76	17472.10
506.93	17525.93
507.11	17338.69
507.28	17561.04
507.46	17689.77
507.63	17589.13
507.81	17755.30
507.98	17671.04
508.16	17605.51
508.33	17841.90
508.50	17891.06
508.68	17706.15
508.85	18232.77
509.03	18031.49
509.20	18291.29
509.38	18480.87
509.55	18340.44
509.73	18071.28
509.90	18719.60
510.08	18427.04
510.25	18214.05
510.42	18530.02
510.60	18757.05
510.77	18904.51
510.95	18530.02
511.12	18726.63
511.30	18623.64
511.47	18698.54
511.64	18780.46
511.82	19084.73
511.99	18785.14
512.17	19229.84
512.34	19295.38
512.51	19021.53
512.69	19332.82
512.86	19276.65
513.04	19309.42
513.21	19632.41
513.38	19538.79
513.56	19534.11
513.73	19372.61
513.90	19924.98
514.08	19548.15
514.25	19480.28
514.43	19946.05
514.60	19807.95
514.77	19896.89
514.95	20067.75
515.12	19676.88
515.29	19831.36
515.47	19812.63
515.64	20233.93
515.81	20009.24
515.99	19962.43
516.16	20273.72
516.33	20458.62
516.51	20325.21
516.68	20255.00
516.85	20147.33
517.03	20517.14
517.20	20484.37
517.37	20767.57
517.54	20496.07
517.72	20596.71
517.89	20409.47
518.06	20528.84
518.24	20760.55
518.41	20575.65
518.58	20781.62
518.75	20900.98
518.93	21078.86
519.10	21151.42
519.27	21511.86
519.45	20826.09
519.62	20765.23
519.79	21329.30
519.96	21247.38
520.14	21394.84
520.31	21212.28
520.48	21425.26
520.65	21383.13
520.83	21465.05
521.00	21453.35
521.17	21537.61
521.34	21181.85
521.52	21378.45
521.69	21762.30
521.86	22003.38
522.03	21689.74
522.20	21675.70
522.38	22038.48
522.55	21727.19
522.72	22052.53
522.89	22061.89
523.07	22120.40
523.24	22230.41
523.41	22253.81
523.58	22068.91
523.75	22092.32
523.92	22157.85
524.10	21853.58
524.27	22317.01
524.44	22618.94
524.61	22735.96
524.78	22307.65
524.96	22309.99
525.13	22532.34
525.30	22750.01
525.47	22745.33
525.64	22789.80
525.81	22544.04
525.98	23049.60
526.16	22672.77
526.33	22675.11
526.50	23140.88
526.67	22904.48
526.84	22689.15
527.01	22862.35
527.18	22892.78
527.36	23288.33
527.53	23154.92
527.70	23442.81
527.87	23498.98
528.04	23545.79
528.21	23447.49
528.38	23084.70
528.55	23274.29
528.72	23335.14
528.89	23536.43
529.07	23463.87
529.24	23316.42
529.41	23323.44
529.58	23349.18
529.75	23714.31
529.92	23625.37
530.09	23751.76
530.26	23749.42
530.43	23981.13
530.60	23709.63
530.77	23735.37
530.94	23915.59
531.11	23601.96
531.28	23789.20
531.46	23990.49
531.63	23714.31
531.80	23978.79
531.97	24030.28
532.14	24233.91
532.31	24039.64
532.48	23995.17
532.65	24381.36
532.82	24049.00
532.99	24386.04
533.16	24135.60
533.33	24322.85
533.50	24343.91
533.67	24568.60
533.84	24350.93
534.01	23922.62
534.18	24402.43
534.35	24624.78
534.52	24655.20
534.69	24517.11
534.86	24498.39
535.03	24669.25
535.20	24912.66
535.37	24655.20
535.54	24807.34
535.71	24599.03
535.88	24589.67
536.05	24702.01
536.22	24910.32
536.38	24905.64
536.55	24973.52
536.72	25273.10
536.89	24985.22
537.06	24922.02
537.23	25198.21
537.40	24945.43
537.57	24844.79
537.74	25205.23
537.91	25596.10
538.08	25116.29
538.25	25458.01
538.42	25549.29
538.59	25422.90
538.75	25399.49
538.92	25291.83
539.09	25743.55
539.26	25607.80
539.43	25441.62
539.60	25528.22
539.77	25467.37
539.94	25944.84
540.11	25935.48
540.28	25614.82
540.44	25757.60
540.61	25502.48
540.78	25666.31
540.95	25568.01
541.12	25617.16
541.29	26141.44
541.46	25687.38
541.62	25773.98
541.79	26050.16
541.96	25626.53
542.13	25539.93
542.30	25912.07
542.47	25991.65
542.63	26305.28
542.80	26181.23
542.97	26253.79
543.14	26307.62
543.31	26305.28
543.48	26309.96
543.64	26579.12
543.81	26698.49
543.98	26639.98
544.15	26195.28
544.32	26724.24
544.48	26581.46
544.65	26707.85
544.82	26513.59
544.99	26305.28
545.16	26614.23
545.32	26771.05
545.49	27101.06
545.66	26506.57
545.83	26960.63
546.00	27051.91
546.16	26373.16
546.33	26691.47
546.50	26785.09
546.67	26829.56
546.83	26625.93
547.00	26941.91
547.17	26841.26
547.34	26981.70
547.50	27154.90
547.67	27089.36
547.84	26597.85
548.00	26836.58
548.17	27115.11
548.34	27136.17
548.51	27548.11
548.67	27388.95
548.84	27339.80
549.01	27278.94
549.18	27063.61
549.34	27576.19
549.51	27487.25
549.68	26822.54
549.84	27260.22
550.01	27585.55
550.18	27585.55
550.34	27428.74
550.51	27828.97
550.68	27623.00
550.84	27316.39
551.01	27812.59
551.18	27576.19
551.34	27194.68
551.51	27669.81
551.68	27728.33
551.84	27625.34
552.01	27955.36
552.18	27758.75
552.34	27686.20
552.51	27999.83
552.68	27761.09
552.84	27819.61
553.01	27936.63
553.18	28086.43
553.34	27875.78
553.51	28243.24
553.67	28339.21
553.84	28180.05
554.01	27946.00
554.17	28144.94
554.34	28144.94
554.51	28128.56
554.67	27821.95
554.84	28280.69
555.00	28060.68
555.17	28491.34
555.33	28411.76
555.50	28037.28
555.67	28140.26
555.83	27873.44
556.00	28009.19
556.16	28196.43
556.33	28336.87
556.50	28381.34
556.66	28474.96
556.83	28203.46
556.99	28416.44
557.16	28659.86
557.32	28769.86
557.49	28437.51
557.65	27938.97
557.82	28786.25
557.98	28711.35
558.15	28439.85
558.32	28627.09
558.48	28582.62
558.65	28821.36
558.81	28947.75
558.98	28589.64
559.14	28716.03
559.31	28854.12
559.47	28662.20
559.64	28355.59
559.80	28744.12
559.97	28865.83
560.13	28603.69
560.30	28615.39
560.46	28910.30
560.63	28788.59
560.79	29041.37
560.96	29193.50
561.12	28744.12
561.29	28992.22
561.45	28950.09
561.61	28961.79
561.78	29069.45
561.94	29034.35
562.11	29160.73
562.27	29069.45
562.44	29085.84
562.60	28645.82
562.77	29024.98
562.93	28966.47
563.10	29420.53
563.26	28772.21
563.42	29582.03
563.59	28875.19
563.75	28945.41
563.92	29015.62
564.08	29212.23
564.24	29172.44
564.41	29322.23
564.57	29186.48
564.74	29123.29
564.90	29233.29
565.07	29331.59
565.23	29252.02
565.39	28952.43
565.56	29621.82
565.72	29221.59
565.88	29102.22
566.05	29373.72
566.21	29151.37
566.38	29586.71
566.54	29497.77
566.70	29490.75
566.87	29142.01
567.03	29453.30
567.19	30029.07
567.36	29673.31
567.52	29118.60
567.68	29532.88
567.85	29432.24
568.01	29528.20
568.17	29500.11
568.34	29329.25
568.50	29476.71
568.66	29294.14
568.83	29605.44
568.99	29689.70
569.15	29362.02
569.32	29137.33
569.48	29455.64
569.64	29600.76
569.81	29855.87
569.97	29453.30
570.13	29591.39
570.30	29504.79
570.46	29544.58
570.62	29497.77
570.78	29518.84
570.95	29563.31
571.11	29490.75
571.27	29088.18
571.43	29455.64
571.60	29631.18
571.76	29411.17
571.92	29652.25
572.09	29631.18
572.25	29355.00
572.41	29724.80
572.57	29738.85
572.74	29530.54
572.90	29640.54
573.06	29670.97
573.22	29879.28
573.38	29469.69
573.55	29766.93
573.71	29642.88
573.87	29996.31
574.03	29584.37
574.20	29731.83
574.36	29846.51
574.52	29879.28
574.68	29659.27
574.84	29724.80
575.01	29521.18
575.17	29830.13
575.33	29582.03
575.49	29392.45
575.65	29689.70
575.82	30054.82
575.98	29785.66
576.14	29661.61
576.30	29626.50
576.46	29790.34
576.62	29479.05
576.79	30017.37
576.95	29788.00
577.11	29656.93
577.27	29837.15
577.43	29677.99
577.59	29832.47
577.75	30000.99
577.92	29979.92
578.08	29717.78
578.24	29364.36
578.40	29706.08
578.56	30024.39
578.72	29928.43
578.88	29823.11
579.04	30038.44
579.21	29788.00
579.37	29919.07
579.53	30120.35
579.69	29659.27
579.85	29661.61
580.01	29820.77
580.17	29825.45
580.33	29802.04
580.49	29682.67
580.65	29944.81
580.82	30019.71
580.98	29930.77
581.14	29734.17
581.30	29783.32
581.46	29549.26
581.62	29773.95
581.78	29795.02
581.94	29982.26
582.10	29670.97
582.26	29926.09
582.42	29853.53
582.58	29907.37
582.74	30012.69
582.90	29907.37
583.06	29972.90
583.22	29579.69
583.38	29762.25
583.54	29809.06
583.70	29909.71
583.86	30043.12
584.02	29902.68
584.18	30110.99
584.34	30216.32
584.50	30010.35
584.66	30012.69
584.82	29827.79
584.98	29820.77
585.14	29902.68
585.30	29727.14
585.46	29752.89
585.62	29837.15
585.78	29788.00
585.94	29600.76
586.10	30089.93
586.26	30223.34
586.42	29919.07
586.58	30274.83
586.74	29921.41
586.90	29949.50
587.06	29839.49
587.22	29827.79
587.38	30115.67
587.54	30457.39
587.70	30253.76
587.86	30171.85
588.02	30366.11
588.18	30642.29
588.34	30110.99
588.49	29930.77
588.65	30087.59
588.81	30050.14
588.97	30099.29
589.13	30501.86
589.29	30080.56
589.45	30319.30
589.61	30164.82
589.77	30331.00
589.93	30457.39
590.08	30536.97
590.24	30223.34
590.40	30515.90
590.56	29883.96
590.72	30139.08
590.88	30382.49
591.04	30279.51
591.20	30478.46
591.35	30438.67
591.51	30405.90
591.67	30178.87
591.83	30497.18
591.99	30476.12
592.15	30293.55
592.31	30438.67
592.46	30141.42
592.62	30494.84
592.78	30141.42
592.94	30433.99
593.10	30513.56
593.26	30359.09
593.41	30548.67
593.57	30300.58
593.73	30726.55
593.89	30408.24
594.05	30396.54
594.20	30293.55
594.36	30026.73
594.52	30188.23
594.68	30092.27
594.84	29823.11
594.99	30272.49
595.15	30038.44
595.31	31007.42
595.47	30218.66
595.62	30323.98
595.78	30593.14
595.94	30410.58
596.10	30382.49
596.25	30188.23
596.41	30106.31
596.57	30211.64
596.73	30265.47
596.88	30352.07
597.04	30726.55
597.20	30455.05
597.36	30930.18
597.51	30707.83
597.67	30628.25
597.83	30838.90
597.99	30625.91
598.14	30321.64
598.30	30691.44
598.46	30663.36
598.61	30160.14
598.77	30569.74
598.93	30604.84
599.09	30700.81
599.24	30785.07
599.40	30848.26
599.56	30579.10
599.71	30693.79
599.87	30686.76
600.03	30469.09
600.18	30431.65
600.34	30164.82
600.50	30445.69
600.65	30436.33
600.81	30754.64
600.97	30773.36
601.12	30829.54
601.28	30373.13
601.44	30700.81
601.59	30747.62
601.75	30487.82
601.91	30665.70
602.06	30464.41
602.22	30815.49
602.37	30934.86
602.53	30373.13
602.69	30597.82
602.84	30649.32
603.00	30525.27
603.16	30981.67
603.31	30595.48
603.47	30649.32
603.62	30143.76
603.78	30424.62
603.94	30651.66
604.09	30515.90
604.25	30785.07
604.40	30611.87
604.56	30361.43
604.71	30621.23
604.87	30518.25
605.03	30850.60
605.18	30263.13
605.34	30749.96
605.49	30375.47
605.65	30190.57
605.80	30497.18
605.96	30331.00
606.12	30230.36
606.27	30520.59
606.43	30539.31
606.58	30780.39
606.74	30597.82
606.89	30553.35
607.05	30590.80
607.20	30543.99
607.36	30611.87
607.51	30298.23
607.67	30085.25
607.82	30101.63
607.98	30239.72
608.13	30150.78
608.29	30230.36
608.44	30281.85
608.60	30359.09
608.75	30412.92
608.91	30724.21
609.06	30338.02
609.22	30508.88
609.37	29902.68
609.53	30150.78
609.68	30546.33
609.84	30192.91
609.99	30155.46
610.15	30061.84
610.30	30307.60
610.46	30225.68
610.61	30286.53
610.76	30312.28
610.92	30459.73
611.07	29865.24
611.23	30125.04
611.38	30183.55
611.54	29820.77
611.69	30232.70
611.84	29907.37
612.00	29951.84
612.15	29790.34
612.31	29989.28
612.46	29448.62
612.62	30148.44
612.77	30398.88
612.92	30506.54
613.08	30082.91
613.23	29771.61
613.39	30043.12
613.54	29673.31
613.69	30263.13
613.85	29862.90
614.00	30436.33
614.15	29905.02
614.31	29757.57
614.46	30019.71
614.62	30153.12
614.77	30061.84
614.92	30197.59
615.08	29886.30
615.23	29736.51
615.38	30352.07
615.54	29734.17
615.69	29792.68
615.84	29649.91
616.00	29731.83
616.15	29542.24
616.30	29937.79
616.46	29675.65
616.61	29890.98
616.76	30160.14
616.92	30073.54
617.07	29656.93
617.22	29762.25
617.37	29670.97
617.53	29605.44
617.68	29577.35
617.83	29404.15
617.99	29448.62
618.14	29427.56
618.29	29654.59
618.45	29205.20
618.60	29518.84
618.75	29673.31
618.90	29888.64
619.06	29584.37
619.21	29289.46
619.36	29575.01
619.51	29270.74
619.67	29071.79
619.82	29188.82
619.97	29336.27
620.12	29219.25
620.28	29202.86
620.43	29762.25
620.58	29422.87
620.73	29750.55
620.89	29610.12
621.04	29593.73
621.19	29366.70
621.34	29481.39
621.49	29113.92
621.65	29275.42
621.80	29532.88
621.95	28849.44
622.10	29151.37
622.25	29064.77
622.41	28854.12
622.56	29123.29
622.71	29345.64
622.86	29151.37
623.01	29226.27
623.16	29326.91
623.32	29006.26
623.47	28950.09
623.62	28657.52
623.77	29142.01
623.92	29209.89
624.07	28662.20
624.23	28917.32
624.38	29275.42
624.53	29303.51
624.68	29289.46
624.83	29455.64
624.98	29362.02
625.13	28891.57
625.29	28837.74
625.44	28739.44
625.59	28851.78
625.74	28786.25
625.89	28868.17
626.04	28622.41
626.19	28959.45
626.34	28599.01
626.49	28362.61
626.65	28748.80
626.80	28896.25
626.95	28746.46
627.10	28697.31
627.25	28692.63
627.40	28486.66
627.55	28545.17
627.70	28353.25
627.85	27864.08
628.00	28535.81
628.15	28596.67
628.30	28521.77
628.45	28400.06
628.60	28624.75
628.76	28245.58
628.91	28425.81
629.06	28168.35
629.21	28311.12
629.36	28364.95
629.51	28334.53
629.66	28386.02
629.81	27866.42
629.96	28222.18
630.11	27969.40
630.26	28367.29
630.41	27833.65
630.56	28201.11
630.71	28444.53
630.86	28109.83
631.01	28446.87
631.16	28484.32
631.31	28039.62
631.46	28257.29
631.61	28156.64
631.76	28411.76
631.91	28016.21
632.06	27999.83
632.21	28044.30
632.36	27709.60
632.51	27908.55
632.66	27779.82
632.81	27936.63
632.96	27775.14
633.10	27903.87
633.25	28467.94
633.40	28084.09
633.55	27791.52
633.70	27501.29
633.85	27433.42
634.00	27742.37
634.15	27950.68
634.30	27627.68
634.45	27566.83
634.60	27627.68
634.75	27721.30
634.90	27646.41
635.05	27641.73
635.19	28180.05
635.34	28245.58
635.49	28100.47
635.64	27901.53
635.79	27878.12
635.94	27728.33
636.09	27838.33
636.24	27585.55
636.39	27520.02
636.53	27618.32
636.68	27342.14
636.83	27374.91
636.98	27211.07
637.13	27765.78
637.28	27513.00
637.43	27534.06
637.57	27637.05
637.72	27592.58
637.87	27281.28
638.02	27536.40
638.17	27475.55
638.32	26955.95
638.46	27182.98
638.61	27105.74
638.76	27192.34
638.91	26885.73
639.06	27187.66
639.20	27239.15
639.35	27587.89
639.50	27456.82
639.65	27611.30
639.80	27250.86
639.94	27845.35
640.09	27140.85
640.24	27080.00
640.39	27185.32
640.54	27138.51
640.68	27307.03
640.83	27108.08
640.98	27089.36
641.13	26609.55
641.27	27122.13
641.42	26890.41
641.57	27342.14
641.72	27199.37
641.86	26754.66
642.01	26850.63
642.16	26993.40
642.31	26820.20
642.45	27058.93
642.60	26773.39
642.75	26742.96
642.90	26878.71
643.04	26834.24
643.19	26684.45
643.34	26874.03
643.48	26813.18
643.63	26689.13
643.78	26808.50
643.93	26515.93
644.07	26644.66
644.22	26972.33
644.37	26661.04
644.51	26733.60
644.66	26567.42
644.81	26319.32
644.95	26295.92
645.10	26415.29
645.25	26572.10
645.39	26478.48
645.54	26649.34
645.69	26562.74
645.83	26551.04
645.98	26214.00
646.13	26373.16
646.27	27117.45
646.42	26511.25
646.57	26347.41
646.71	26478.48
646.86	26448.05
647.00	26398.90
647.15	26611.89
647.30	26249.11
647.44	26005.69
647.59	26396.56
647.74	26122.72
647.88	25949.52
648.03	26382.52
648.17	26328.69
648.32	26424.65
648.47	26059.52
648.61	25984.63
648.76	26382.52
648.90	26305.28
649.05	26347.41
649.20	26146.12
649.34	26185.91
649.49	25788.02
649.63	26253.79
649.78	26181.23
649.92	25806.75
650.07	26111.02
650.21	25806.75
650.36	25783.34
650.51	25675.68
650.65	26103.99
650.80	25778.66
650.94	25883.98
651.09	25713.13
651.23	25532.90
651.38	25773.98
651.52	25682.70
651.67	25729.51
651.81	25855.90
651.96	26047.82
652.10	25773.98
652.25	25858.24
652.39	25652.27
652.54	25912.07
652.68	25589.08
652.83	25921.43
652.97	26195.28
653.12	25652.27
653.26	25565.67
653.41	25610.14
653.55	25766.96
653.70	25596.10
653.84	25579.71
653.99	25336.30
654.13	25589.08
654.27	25755.26
654.42	25537.59
654.56	25575.03
654.71	25628.87
654.85	25825.47
655.00	25762.28
655.14	25731.85
655.29	25383.11
655.43	25649.93
655.57	25343.32
655.72	25291.83
655.86	25207.57
656.01	25570.35
656.15	25099.90
656.30	25252.04
656.44	25207.57
656.58	25043.73
656.73	25092.88
656.87	25139.69
657.01	25357.36
657.16	25329.28
657.30	25025.01
657.45	25469.71
657.59	25142.03
657.73	25252.04
657.88	25364.39
658.02	24915.00
658.16	25427.58
658.31	25003.94
658.45	25261.40
658.60	24968.84
658.74	25256.72
658.88	24573.28
659.03	24833.08
659.17	25149.06
659.31	24718.40
659.46	25036.71
659.60	25130.33
659.74	24966.49
659.89	25074.16
660.03	24971.18
660.17	24863.51
660.32	24624.78
660.46	24587.33
660.60	24491.37
660.74	24680.95
660.89	24603.71
661.03	24126.24
661.17	24594.35
661.32	24463.28
661.46	24596.69
661.60	24496.05
661.74	24402.43
661.89	24652.86
662.03	24540.52
662.17	24596.69
662.31	24133.26
662.46	24121.56
662.60	24393.06
662.74	24503.07
662.88	24034.96
663.03	23873.46
663.17	24009.22
663.31	23852.40
663.45	23955.38
663.60	23660.48
663.74	23817.29
663.88	23742.39
664.02	23817.29
664.17	24224.54
664.31	23873.46
664.45	23941.34
664.59	23693.24
664.73	23924.96
664.88	23749.42
665.02	23398.34
665.16	23850.06
665.30	23693.24
665.44	23721.33
665.59	23463.87
665.73	23424.08
665.87	23339.82
666.01	23520.04
666.15	23524.72
666.29	23700.26
666.44	23564.51
666.58	23297.69
666.72	23297.69
666.86	23655.79
667.00	23168.96
667.14	23330.46
667.28	23398.34
667.43	23030.87
667.57	23215.77
667.71	23143.22
667.85	23122.15
667.99	23197.05
668.13	22745.33
668.27	22761.71
668.41	22897.46
668.56	23108.11
668.70	22689.15
668.84	23281.31
668.98	22916.19
669.12	23068.32
669.26	22651.70
669.40	22452.76
669.54	22733.62
669.68	22696.17
669.82	22623.62
669.96	22473.82
670.10	22293.60
670.25	22530.00
670.39	22487.87
670.53	22122.74
670.67	22272.54
670.81	22532.34
670.95	22228.07
671.09	22274.88
671.23	22111.04
671.37	22499.57
671.51	22244.45
671.65	22260.84
671.79	21626.55
671.93	22134.45
672.07	21972.95
672.21	21930.82
672.35	21759.96
672.49	21841.88
672.63	21755.28
672.77	22012.74
672.91	21811.45
673.05	21432.29
673.19	21443.99
673.33	21582.08
673.47	21296.53
673.61	21626.55
673.75	21582.08
673.89	21659.32
674.03	21378.45
674.17	21460.37
674.31	21104.61
674.45	21350.37
674.59	21558.67
674.73	21305.90
674.87	21500.16
675.01	20996.95
675.15	20678.63
675.29	20987.58
675.43	20816.72
675.56	20868.22
675.70	20950.14
675.84	20961.84
675.98	20664.59
676.12	20863.54
676.26	20996.95
676.40	20570.97
676.54	20858.85
676.68	20549.90
676.82	20046.69
676.96	20283.08
677.10	20386.07
677.23	19908.60
677.37	20034.99
677.51	20222.23
677.65	20051.37
677.79	19950.73
677.93	20004.56
678.07	19840.72
678.21	19789.23
678.34	20130.95
678.48	19578.58
678.62	19634.75
678.76	19658.16
678.90	19583.26
679.04	19742.42
679.18	19527.09
679.31	19372.61
679.45	19353.89
679.59	19234.52
679.73	19559.86
679.87	19044.94
680.00	19154.94
680.14	19129.20
680.28	19171.33
680.42	19096.43
680.56	19080.05
680.70	18972.38
680.83	18878.76
680.97	18745.35
681.11	18665.77
681.25	18572.15
681.39	18768.76
681.52	18738.33
681.66	18317.03
681.80	18780.46
681.94	18515.98
682.07	18595.56
682.21	18391.93
682.35	18319.37
682.49	18150.85
682.62	18129.79
682.76	18396.61
682.90	17984.68
683.04	17916.80
683.17	18340.44
683.31	17898.08
683.45	18277.24
683.59	18066.60
683.72	17717.86
683.86	17731.90
684.00	17848.93
684.13	17736.58
684.27	17532.95
684.41	17727.22
684.55	17556.36
684.68	17458.06
684.82	17270.81
684.96	17020.38
685.09	17226.34
685.23	17046.12
685.37	17261.45
685.50	17003.99
685.64	17034.42
685.78	17336.35
685.91	17062.51
686.05	17001.65
686.19	16713.77
686.32	16936.12
686.46	16622.48
686.60	16638.87
686.73	16821.43
686.87	16573.33
687.01	16570.99
687.14	16596.74
687.28	16552.27
687.42	16128.63
687.55	16182.46
687.69	16336.94
687.82	16067.78
687.96	15967.13
688.10	16336.94
688.23	16343.96
688.37	16044.37
688.50	15964.79
688.64	15791.59
688.78	15702.65
688.91	15679.25
689.05	15758.83
689.18	15424.13
689.32	15323.49
689.46	15672.23
689.59	15391.36
689.73	15520.09
689.86	15391.36
690.00	15707.34
690.13	15300.08
690.27	15295.40
690.41	15367.96
690.54	15124.54
690.68	15382.00
690.81	15101.14
690.95	15152.63
691.08	14899.85
691.22	15084.75
691.35	15119.86
691.49	14679.84
691.62	14778.14
691.76	14415.36
691.89	14443.45
692.03	14401.32
692.16	14492.60
692.30	14527.71
692.43	14150.88
692.57	14061.94
692.70	14413.02
692.84	14237.48
692.97	14090.02
693.11	14092.37
693.24	14017.47
693.38	13928.53
693.51	14001.08
693.65	14120.45
693.78	13881.72
693.92	13963.64
694.05	13619.58
694.19	13743.63
694.32	13614.90
694.45	13336.37
694.59	13296.58
694.72	13514.25
694.86	13427.65
694.99	13242.75
695.13	13085.94
695.26	13050.83
695.39	13317.65
695.53	13460.42
695.66	13085.94
695.80	12919.76
695.93	13137.43
696.07	13158.49
696.20	13107.00
696.33	13064.87
696.47	12821.45
696.60	13097.64
696.73	12800.39
696.87	12732.51
697.00	12421.22
697.14	12287.81
697.27	12278.45
697.40	12400.16
697.54	12362.71
697.67	12196.53
697.80	12383.77
697.94	12334.62
698.07	12173.13
698.21	12135.68
698.34	12109.93
698.47	12058.44
698.61	11882.90
698.74	12114.61
698.87	12081.85
699.01	11571.61
699.14	11557.57
699.27	11859.49
699.40	11913.33
699.54	11693.32
699.67	11602.04
699.80	11590.33
699.94	11644.17
700.07	11477.99
700.20	11300.11
700.34	11232.23
700.47	11459.26
700.60	11087.12
700.73	11281.38
700.87	11321.17
701.00	11002.86
701.13	11143.29
701.26	11059.03
701.40	11227.55
701.53	10895.19
701.66	11082.44
701.79	10958.39
701.93	10806.25
702.06	10803.91
702.19	10796.89
702.32	10494.96
702.46	10574.54
702.59	10497.30
702.72	10509.01
702.85	10303.04
702.99	10352.19
703.12	10403.68
703.25	10408.36
703.38	10225.80
703.51	10258.57
703.65	10279.63
703.78	10146.22
703.91	10246.87
704.04	10244.52
704.17	10214.10
704.31	10342.83
704.44	9951.96
704.57	9944.94
704.70	9776.42
704.83	9905.15
704.96	9816.21
705.10	9640.67
705.23	9511.94
>>>>>End Processed Spectral Data<<<<<
