SpectraSuite Data File
++++++++++++++++++++++++++++++++++++
Date: Fri Oct 18 13:57:53 GMT-05:00 2013
User: bianchi
Dark Spectrum Present: No
Reference Spectrum Present: No
Number of Sampled Component Spectra: 1
Spectrometers: USB2+H05261
Integration Time (usec): 50000 (USB2+H05261)
Spectra Averaged: 1 (USB2+H05261)
Boxcar Smoothing: 0 (USB2+H05261)
Correct for Electrical Dark: No (USB2+H05261)
Strobe/Lamp Enabled: No (USB2+H05261)
Correct for Detector Non-linearity: No (USB2+H05261)
Correct for Stray Light: No (USB2+H05261)
Number of Pixels in Processed Spectrum: 2048
>>>>>Begin Processed Spectral Data<<<<<
365.73	0.00
365.92	0.00
366.12	0.00
366.32	0.00
366.52	0.00
366.72	0.00
366.91	0.00
367.11	0.00
367.31	0.00
367.51	0.00
367.70	0.00
367.90	0.00
368.10	0.00
368.30	0.00
368.49	0.00
368.69	0.00
368.89	0.00
369.09	0.00
369.28	0.00
369.48	0.00
369.68	0.00
369.87	0.00
370.07	0.00
370.27	0.00
370.47	0.00
370.66	131.07
370.86	98.30
371.06	74.90
371.25	217.67
371.45	133.41
371.65	95.96
371.84	203.63
372.04	112.35
372.24	124.05
372.44	161.50
372.63	149.79
372.83	215.33
373.03	231.71
373.22	191.92
373.42	196.60
373.62	184.90
373.81	189.58
374.01	189.58
374.21	276.18
374.40	210.65
374.60	264.48
374.79	245.76
374.99	212.99
375.19	278.52
375.38	238.73
375.58	276.18
375.78	271.50
375.97	217.67
376.17	355.76
376.37	238.73
376.56	276.18
376.76	252.78
376.95	262.14
377.15	252.78
377.35	308.95
377.54	248.10
377.74	245.76
377.93	304.27
378.13	271.50
378.33	341.72
378.52	283.20
378.72	449.38
378.91	318.31
379.11	320.65
379.31	322.99
379.50	311.29
379.70	276.18
379.89	287.89
380.09	315.97
380.28	332.36
380.48	255.12
380.68	308.95
380.87	337.04
381.07	360.44
381.26	341.72
381.46	311.29
381.65	320.65
381.85	231.71
382.04	355.76
382.24	369.80
382.43	313.63
382.63	407.25
382.83	440.02
383.02	374.49
383.22	367.46
383.41	348.74
383.61	346.40
383.80	400.23
384.00	311.29
384.19	348.74
384.39	386.19
384.58	397.89
384.78	299.59
384.97	308.95
385.17	407.25
385.36	381.51
385.56	430.66
385.75	351.08
385.95	409.59
386.14	409.59
386.34	409.59
386.53	482.15
386.72	372.15
386.92	311.29
387.11	440.02
387.31	287.89
387.50	404.91
387.70	461.09
387.89	407.25
388.09	388.53
388.28	400.23
388.48	395.55
388.67	416.62
388.86	414.27
389.06	440.02
389.25	540.66
389.45	498.53
389.64	454.06
389.84	461.09
390.03	510.24
390.22	526.62
390.42	461.09
390.61	416.62
390.81	475.13
391.00	519.60
391.19	599.18
391.39	470.45
391.58	517.26
391.78	510.24
391.97	463.43
392.16	498.53
392.36	543.00
392.55	533.64
392.75	568.75
392.94	440.02
393.13	528.96
393.33	571.09
393.52	550.03
393.71	580.45
393.91	561.73
394.10	554.71
394.29	587.47
394.49	587.47
394.68	571.09
394.88	599.18
395.07	624.92
395.26	622.58
395.46	664.71
395.65	585.13
395.84	641.31
396.04	676.41
396.23	610.88
396.42	653.01
396.62	671.73
396.81	620.24
397.00	631.94
397.19	540.66
397.39	622.58
397.58	669.39
397.77	667.05
397.97	720.88
398.16	746.63
398.35	641.31
398.55	695.14
398.74	683.44
398.93	681.10
399.12	734.93
399.32	653.01
399.51	664.71
399.70	847.27
399.90	744.29
400.09	774.72
400.28	755.99
400.47	702.16
400.67	814.51
400.86	802.80
401.05	723.23
401.24	922.17
401.44	774.72
401.63	814.51
401.82	861.32
402.01	826.21
402.21	795.78
402.40	779.40
402.59	755.99
402.78	793.44
402.97	887.06
403.17	828.55
403.36	849.61
403.55	896.43
403.74	821.53
403.93	908.13
404.13	922.17
404.32	929.19
404.51	950.26
404.70	954.94
404.89	943.24
405.09	931.53
405.28	1015.79
405.47	891.74
405.66	966.64
405.85	952.60
406.05	926.85
406.24	1102.39
406.43	947.92
406.62	1029.84
406.81	1020.47
407.00	1083.67
407.20	922.17
407.39	973.66
407.58	971.32
407.77	1111.75
407.96	1086.01
408.15	1060.26
408.34	1130.48
408.54	1181.97
408.73	1050.90
408.92	1004.09
409.11	1165.59
409.30	1196.01
409.49	1029.84
409.68	1210.06
409.87	1128.14
410.07	1170.27
410.26	1252.19
410.45	1217.08
410.64	1212.40
410.83	1174.95
411.02	1263.89
411.21	1205.38
411.40	1301.34
411.59	1242.82
411.78	1315.38
411.98	1214.74
412.17	1240.48
412.36	1296.66
412.55	1266.23
412.74	1362.19
412.93	1425.39
413.12	1287.29
413.31	1444.11
413.50	1390.28
413.69	1409.00
413.88	1483.90
414.07	1460.49
414.26	1399.64
414.45	1441.77
414.64	1523.69
414.83	1327.08
415.02	1423.05
415.22	1607.95
415.41	1537.73
415.60	1568.16
415.79	1544.75
415.98	1516.67
416.17	1600.93
416.36	1643.06
416.55	1568.16
416.74	1572.84
416.93	1500.28
417.12	1778.81
417.31	1624.33
417.50	1760.08
417.69	1750.72
417.88	1771.79
418.07	1724.97
418.26	1776.47
418.45	1802.21
418.64	1870.09
418.83	1856.04
419.02	1776.47
419.21	1858.39
419.39	1884.13
419.58	1769.44
419.77	1764.76
419.96	1820.94
420.15	1839.66
420.34	1811.57
420.53	1991.80
420.72	1959.03
420.91	2085.42
421.10	1914.56
421.29	1921.58
421.48	1886.47
421.67	2029.24
421.86	1900.52
422.05	1886.47
422.24	1977.75
422.43	1944.99
422.61	2029.24
422.80	2010.52
422.99	2062.01
423.18	1881.79
423.37	2057.33
423.56	1977.75
423.75	2015.20
423.94	1947.33
424.13	1933.28
424.32	1912.22
424.50	2012.86
424.69	2094.78
424.88	2122.87
425.07	2139.25
425.26	1921.58
425.45	2108.82
425.64	2029.24
425.83	2078.40
426.01	2026.90
426.20	2108.82
426.39	2160.31
426.58	2087.76
426.77	2172.02
426.96	2019.88
427.15	2024.56
427.33	2054.99
427.52	2045.63
427.71	2073.71
427.90	2099.46
428.09	2169.68
428.28	2249.25
428.46	2167.34
428.65	2197.76
428.84	2195.42
429.03	2277.34
429.22	2195.42
429.40	2260.96
429.59	2352.24
429.78	2181.38
429.97	2141.59
430.16	2373.30
430.34	2300.75
430.53	2373.30
430.72	2354.58
430.91	2246.91
431.10	2333.51
431.28	2452.88
431.47	2417.77
431.66	2375.64
431.85	2317.13
432.03	2424.80
432.22	2429.48
432.41	2277.34
432.60	2349.90
432.79	2574.59
432.97	2523.10
433.16	2548.84
433.35	2441.18
433.54	2541.82
433.72	2548.84
433.91	2548.84
434.10	2539.48
434.28	2525.44
434.47	2483.31
434.66	2614.38
434.85	2480.97
435.03	2562.89
435.22	2782.90
435.41	2684.59
435.59	2675.23
435.78	2605.02
435.97	2633.10
436.16	2738.43
436.34	2672.89
436.53	2679.91
436.72	2724.38
436.90	2684.59
437.09	2825.03
437.28	2586.29
437.46	2663.53
437.65	2778.22
437.84	2822.69
438.02	2637.78
438.21	2796.94
438.40	2717.36
438.58	2890.56
438.77	3009.93
438.96	2904.60
439.14	2942.05
439.33	2864.82
439.52	3063.76
439.70	2998.23
439.89	3021.63
440.08	2995.89
440.26	3019.29
440.45	2991.20
440.63	3124.62
440.82	3075.46
441.01	3087.17
441.19	3260.37
441.38	3211.22
441.57	3171.43
441.75	3260.37
441.94	3262.71
442.12	3363.35
442.31	3368.03
442.50	3251.00
442.68	3246.32
442.87	3414.84
443.05	3417.18
443.24	3466.33
443.43	3365.69
443.61	3428.88
443.80	3506.12
443.98	3211.22
444.17	3293.13
444.35	3370.37
444.54	3463.99
444.73	3447.61
444.91	3426.54
445.10	3492.08
445.28	3342.28
445.47	3353.99
445.65	3370.37
445.84	3407.82
446.02	3445.27
446.21	3466.33
446.39	3332.92
446.58	3625.49
446.77	3515.48
446.95	3449.95
447.14	3447.61
447.32	3506.12
447.51	3527.19
447.69	3478.04
447.88	3564.64
448.06	3410.16
448.25	3576.34
448.43	3471.01
448.62	3522.51
448.80	3501.44
448.99	3555.27
449.17	3620.81
449.36	3623.15
449.54	3602.08
449.73	3754.22
449.91	3660.60
450.10	3728.47
450.28	3808.05
450.46	3758.90
450.65	3716.77
450.83	3782.31
451.02	3721.45
451.20	3948.48
451.39	3791.67
451.57	3794.01
451.76	3709.75
451.94	3786.99
452.13	3786.99
452.31	3854.86
452.49	3840.82
452.68	3868.91
452.86	3854.86
453.05	4053.81
453.23	3960.19
453.42	3992.95
453.60	3911.04
453.78	4056.15
453.97	4009.34
454.15	4025.72
454.34	3915.72
454.52	3995.29
454.70	4030.40
454.89	4095.94
455.07	4152.11
455.26	4053.81
455.44	4248.07
455.62	4070.19
455.81	4053.81
455.99	4257.43
456.17	4124.02
456.36	4056.15
456.54	4205.94
456.73	4351.06
456.91	4322.97
457.09	4418.93
457.28	4416.59
457.46	4294.88
457.64	4390.84
457.83	4292.54
458.01	4386.16
458.19	4545.32
458.38	4318.29
458.56	4409.57
458.74	4297.22
458.93	4472.76
459.11	4477.44
459.29	4437.66
459.48	4594.47
459.66	4545.32
459.84	4622.56
460.03	4667.03
460.21	4695.11
460.39	4578.09
460.57	4578.09
460.76	4706.82
460.94	4748.95
461.12	4629.58
461.31	4741.93
461.49	4627.24
461.67	4634.26
461.85	4826.18
462.04	4603.83
462.22	4884.70
462.40	4727.88
462.59	4779.37
462.77	4683.41
462.95	4898.74
463.13	4873.00
463.32	4933.85
463.50	4760.65
463.68	4713.84
463.86	5055.56
464.05	4762.99
464.23	4784.06
464.41	4884.70
464.59	4847.25
464.78	4940.87
464.96	4959.60
465.14	4926.83
465.32	4931.51
465.50	5069.60
465.69	5022.79
465.87	4880.02
466.05	4882.36
466.23	4978.32
466.41	5004.07
466.60	5041.51
466.78	4889.38
466.96	5100.03
467.14	5123.43
467.32	5132.79
467.51	5305.99
467.69	5135.14
467.87	5158.54
468.05	5135.14
468.23	5025.13
468.41	5135.14
468.60	5305.99
468.78	5322.38
468.96	5146.84
469.14	5357.49
469.32	5352.81
469.50	5203.01
469.69	5462.81
469.87	5425.36
470.05	5504.94
470.23	5371.53
470.41	5357.49
470.59	5547.07
470.77	5551.75
470.95	5371.53
471.14	5544.73
471.32	5359.83
471.50	5755.38
471.68	5537.71
471.86	5661.76
472.04	5699.20
472.22	5673.46
472.40	5645.37
472.58	5708.57
472.77	5678.14
472.95	5837.30
473.13	6083.05
473.31	5837.30
473.49	5851.34
473.67	5921.56
473.85	5966.03
474.03	6047.94
474.21	5951.98
474.39	6176.67
474.57	6132.20
474.75	6118.16
474.93	6211.78
475.12	6136.88
475.30	6314.77
475.48	6284.34
475.66	6319.45
475.84	6319.45
476.02	6333.49
476.20	6317.11
476.38	6469.24
476.56	6658.82
476.74	6537.12
476.92	6572.22
477.10	6487.96
477.28	6719.68
477.46	6726.70
477.64	6789.89
477.82	6918.62
478.00	7070.76
478.18	7054.37
478.36	7194.81
478.54	7094.16
478.72	6974.80
478.90	7260.34
479.08	7234.60
479.26	7162.04
479.44	7356.30
479.62	7375.03
479.80	7295.45
479.98	7534.18
480.16	7564.61
480.34	7611.42
480.52	7630.15
480.70	7634.83
480.88	7604.40
481.06	7829.09
481.24	7709.72
481.41	7695.68
481.59	7782.28
481.77	7864.20
481.95	8219.96
482.13	8182.51
482.31	8208.26
482.49	8219.96
482.67	8276.13
482.85	8458.70
483.03	8615.51
483.21	8643.60
483.39	8648.28
483.57	8774.67
483.74	8702.11
483.92	8826.16
484.10	8706.79
484.28	8896.38
484.46	9137.45
484.64	9259.16
484.82	9202.99
485.00	9149.15
485.18	9423.00
485.35	9455.76
485.53	9329.38
485.71	9605.56
485.89	9783.44
486.07	9399.59
486.25	9488.53
486.43	9741.31
486.61	9696.84
486.78	9930.89
486.96	10001.11
487.14	10092.39
487.32	10232.82
487.50	10319.42
487.68	10169.63
487.85	10291.34
488.03	10485.60
488.21	10703.27
488.39	10429.43
488.57	10516.03
488.75	10684.55
488.92	10867.11
489.10	10832.00
489.28	10958.39
489.46	11152.65
489.64	11206.48
489.81	11346.92
489.99	11461.60
490.17	11459.26
490.35	11485.01
490.53	11653.53
490.70	11798.64
490.88	11786.94
491.06	11808.00
491.24	11667.57
491.41	11957.80
491.59	12093.55
491.77	11901.62
491.95	12079.50
492.13	12402.50
492.30	12423.56
492.48	12271.43
492.66	12830.82
492.84	12475.06
493.01	12601.44
493.19	12629.53
493.37	12737.20
493.54	12678.68
493.72	12823.80
493.90	12889.33
494.08	13085.94
494.25	12847.20
494.43	13275.52
494.61	13179.56
494.79	13338.71
494.96	13167.85
495.14	13301.26
495.32	13582.13
495.49	13357.44
495.67	13764.69
495.85	13806.82
496.02	13963.64
496.20	14094.71
496.38	14155.56
496.55	14127.47
496.73	14527.71
496.91	14106.41
497.09	14193.01
497.26	14459.83
497.44	14195.35
497.62	14609.62
497.79	14775.80
497.97	14555.79
498.14	14738.35
498.32	14820.27
498.50	14839.00
498.67	15194.76
498.85	15169.01
499.03	15154.97
499.20	14890.49
499.38	15087.09
499.56	15314.13
499.73	15611.37
499.91	15660.52
500.08	15688.61
500.26	15520.09
500.44	15609.03
500.61	15723.72
500.79	15566.90
500.97	15819.68
501.14	16152.04
501.32	15686.27
501.49	15796.28
501.67	15941.39
501.84	16044.37
502.02	16205.87
502.20	16004.58
502.37	16531.20
502.55	16105.23
502.72	16259.70
502.90	16180.12
503.07	16320.56
503.25	16528.86
503.43	16472.69
503.60	16477.37
503.78	16800.37
503.95	16266.72
504.13	16793.34
504.30	16915.05
504.48	16643.55
504.65	16929.09
504.83	16882.28
505.01	17284.86
505.18	17067.19
505.36	17081.23
505.53	16985.27
505.71	17352.73
505.88	17530.61
506.06	17036.76
506.23	17661.68
506.41	17493.16
506.58	17638.28
506.76	17158.47
506.93	17612.53
507.11	17441.67
507.28	17579.76
507.46	17633.60
507.63	17708.49
507.81	18022.12
507.98	18010.42
508.16	18038.51
508.33	17839.56
508.50	18232.77
508.68	18024.47
508.85	18176.60
509.03	18200.01
509.20	18197.67
509.38	18441.08
509.55	18560.45
509.73	18558.11
509.90	18546.40
510.08	18333.42
510.25	18408.31
510.42	18345.12
510.60	18967.70
510.77	18853.02
510.95	18984.09
511.12	18611.94
511.30	18778.12
511.47	19068.34
511.64	18986.43
511.82	18801.52
511.99	19377.30
512.17	19461.55
512.34	19028.56
512.51	19330.48
512.69	19410.06
512.86	19318.78
513.04	19522.41
513.21	19569.22
513.38	19660.50
513.56	19389.00
513.73	19616.03
513.90	19613.69
514.08	19758.80
514.25	19477.94
514.43	19836.04
514.60	20170.74
514.77	20154.35
514.95	19971.79
515.12	19800.93
515.29	20051.37
515.47	19796.25
515.64	20531.18
515.81	20313.51
515.99	20449.26
516.16	20341.60
516.33	20606.08
516.51	20393.09
516.68	20472.67
516.85	20662.25
517.03	20580.33
517.20	20697.36
517.37	20533.52
517.54	20615.44
517.72	20734.81
517.89	20816.72
518.06	20994.61
518.24	20657.57
518.41	21067.16
518.58	20863.54
518.75	20987.58
518.93	21116.31
519.10	21109.29
519.27	20940.77
519.45	21003.97
519.62	21153.76
519.79	21420.58
519.96	21315.26
520.14	21443.99
520.31	21500.16
520.48	21551.65
520.65	21252.06
520.83	21535.27
521.00	21523.57
521.17	21591.44
521.34	21429.94
521.52	21596.12
521.69	21844.22
521.86	21816.13
522.03	22108.70
522.20	22190.62
522.38	21979.97
522.55	21907.41
522.72	21575.06
522.89	22094.66
523.07	22244.45
523.24	21970.61
523.41	22490.21
523.58	21783.37
523.75	22541.70
523.92	22075.93
524.10	22127.42
524.27	22904.48
524.44	22471.48
524.61	22628.30
524.78	22471.48
524.96	22745.33
525.13	22750.01
525.30	22799.16
525.47	22642.34
525.64	22693.83
525.81	22813.20
525.98	22712.56
526.16	22609.58
526.33	22876.40
526.50	22881.08
526.67	22970.02
526.84	23070.66
527.01	23178.33
527.18	23016.83
527.36	23349.18
527.53	23545.79
527.70	23522.38
527.87	23606.64
528.04	23225.14
528.21	23475.57
528.38	23580.90
528.55	23332.80
528.72	23513.02
528.89	23850.06
529.07	23496.64
529.24	23676.86
529.41	23637.07
529.58	23700.26
529.75	23489.62
529.92	23807.93
530.09	23646.43
530.26	23711.97
530.43	24219.86
530.60	24044.32
530.77	23665.16
530.94	23885.17
531.11	23889.85
531.28	23931.98
531.46	24184.76
531.63	24156.67
531.80	24271.36
531.97	24095.82
532.14	24479.66
532.31	24273.70
532.48	24666.91
532.65	24542.86
532.82	24299.44
532.99	24254.97
533.16	24159.01
533.33	24568.60
533.50	24720.74
533.67	24545.20
533.84	24189.44
534.01	24833.08
534.18	24425.83
534.35	24704.35
534.52	24666.91
534.69	24999.26
534.86	24929.05
535.03	24610.73
535.20	24650.52
535.37	25046.07
535.54	25048.41
535.71	24531.15
535.88	24999.26
536.05	24762.87
536.22	25378.43
536.38	25259.06
536.55	25380.77
536.72	25364.39
536.89	24964.15
537.06	25364.39
537.23	25083.52
537.40	25312.89
537.57	25261.40
537.74	25315.23
537.91	25607.80
538.08	25151.40
538.25	25401.83
538.42	25390.13
538.59	25383.11
538.75	25373.75
538.92	25308.21
539.09	25619.50
539.26	25544.61
539.43	25579.71
539.60	25879.30
539.77	25450.99
539.94	25654.61
540.11	25762.28
540.28	25783.34
540.44	25940.16
540.61	26031.44
540.78	25752.91
540.95	25942.50
541.12	26092.29
541.29	25986.97
541.46	26178.89
541.62	25935.48
541.79	26008.03
541.96	25993.99
542.13	25895.69
542.30	26228.04
542.47	26448.05
542.63	25949.52
542.80	26412.95
542.97	26534.65
543.14	26558.06
543.31	26726.58
543.48	26424.65
543.64	26588.49
543.81	26494.86
543.98	26476.14
544.15	26595.51
544.32	26639.98
544.48	26529.97
544.65	26466.78
544.82	26768.71
544.99	26656.36
545.16	26649.34
545.32	26881.05
545.49	27082.34
545.66	27412.35
545.83	26993.40
546.00	27318.73
546.16	27211.07
546.33	26663.38
546.50	26569.76
546.67	27037.87
546.83	26710.19
547.00	26895.10
547.17	26721.90
547.34	27346.82
547.50	27204.05
547.67	27253.20
547.84	27180.64
548.00	27344.48
548.17	27566.83
548.34	27068.30
548.51	27459.16
548.67	27964.72
548.84	27487.25
549.01	27288.31
549.18	27351.50
549.34	27257.88
549.51	27152.55
549.68	27199.37
549.84	27182.98
550.01	27552.79
550.18	27641.73
550.34	27363.20
550.51	27723.65
550.68	27597.26
550.84	27482.57
551.01	28027.92
551.18	27489.59
551.34	27707.26
551.51	27679.18
551.68	27859.40
551.84	27850.03
552.01	27840.67
552.18	27850.03
552.34	27988.13
552.51	28222.18
552.68	27934.29
552.84	27915.57
553.01	28318.14
553.18	27697.90
553.34	27990.47
553.51	28156.64
553.67	28109.83
553.84	28196.43
554.01	28449.21
554.17	28058.34
554.34	28205.80
554.51	27847.69
554.67	28531.13
554.84	28100.47
555.00	28350.91
555.17	28692.63
555.33	28095.79
555.50	28489.00
555.67	28381.34
555.83	28402.40
556.00	28294.74
556.16	28690.29
556.33	28563.90
556.50	28472.62
556.66	28701.99
556.83	28910.30
556.99	28720.71
557.16	28486.66
557.32	28697.31
557.49	28875.19
557.65	28704.33
557.82	28409.42
557.98	28613.05
558.15	28800.29
558.32	28655.18
558.48	28599.01
558.65	28800.29
558.81	28561.56
558.98	28503.04
559.14	28678.58
559.31	28854.12
559.47	28500.70
559.64	28538.15
559.80	29053.07
559.97	29223.93
560.13	28903.28
560.30	29326.91
560.46	28861.15
560.63	28971.15
560.79	29081.16
560.96	28912.64
561.12	28865.83
561.29	28720.71
561.45	29263.72
561.61	29125.63
561.78	29071.79
561.94	28950.09
562.11	29226.27
562.27	29195.84
562.44	29233.29
562.60	29149.03
562.77	28966.47
562.93	28959.45
563.10	29479.05
563.26	29078.82
563.42	29422.87
563.59	29153.71
563.75	29317.55
563.92	29355.00
564.08	29156.05
564.24	29347.98
564.41	29198.18
564.57	29378.40
564.74	29273.08
564.90	29476.71
565.07	29570.33
565.23	29778.64
565.39	29666.29
565.56	29390.11
565.72	29163.08
565.88	29291.80
566.05	29490.75
566.21	29280.10
566.38	29598.41
566.54	29427.56
566.70	30068.86
566.87	29783.32
567.03	29696.72
567.19	30160.14
567.36	29603.10
567.52	29378.40
567.68	29607.78
567.85	29420.53
568.01	29802.04
568.17	29476.71
568.34	29876.94
568.50	29771.61
568.66	29673.31
568.83	29558.63
568.99	29905.02
569.15	29867.58
569.32	29549.26
569.48	29720.12
569.64	29621.82
569.81	29773.95
569.97	29827.79
570.13	29855.87
570.30	29507.13
570.46	30120.35
570.62	29493.09
570.78	29752.89
570.95	29677.99
571.11	29755.23
571.27	29291.80
571.43	29762.25
571.60	29900.34
571.76	29626.50
571.92	29926.09
572.09	29654.59
572.25	29867.58
572.41	29692.04
572.57	29743.53
572.74	29717.78
572.90	29612.46
573.06	29589.05
573.22	30000.99
573.38	29738.85
573.55	29972.90
573.71	30354.41
573.87	30284.19
574.03	29591.39
574.20	29600.76
574.36	29537.56
574.52	30003.33
574.68	29778.64
574.84	30045.46
575.01	30228.02
575.17	30071.20
575.33	29905.02
575.49	30015.03
575.65	30125.04
575.82	29898.00
575.98	29876.94
576.14	29975.24
576.30	29883.96
576.46	30000.99
576.62	29617.14
576.79	29916.73
576.95	29879.28
577.11	30513.56
577.27	29956.52
577.43	30118.01
577.59	29898.00
577.75	30183.55
577.92	30242.06
578.08	29820.77
578.24	29956.52
578.40	30508.88
578.56	30120.35
578.72	30340.36
578.88	30548.67
579.04	30263.13
579.21	30354.41
579.37	30019.71
579.53	30349.73
579.69	30230.36
579.85	30118.01
580.01	29820.77
580.17	29954.18
580.33	30171.85
580.49	30008.01
580.65	30375.47
580.82	30235.04
580.98	30543.99
581.14	30064.18
581.30	30410.58
581.46	30178.87
581.62	29970.56
581.78	30038.44
581.94	30387.18
582.10	29853.53
582.26	30328.66
582.42	29965.88
582.58	30190.57
582.74	29656.93
582.90	30583.78
583.06	29921.41
583.22	30352.07
583.38	30366.11
583.54	30387.18
583.70	30185.89
583.86	30132.06
584.02	30115.67
584.18	30288.87
584.34	30494.84
584.50	30108.65
584.66	30412.92
584.82	29797.36
584.98	30242.06
585.14	30022.05
585.30	29881.62
585.46	30092.27
585.62	30029.07
585.78	29893.32
585.94	29752.89
586.10	30146.10
586.26	30766.34
586.42	30316.96
586.58	30122.69
586.74	30478.46
586.90	30125.04
587.06	30169.51
587.22	30089.93
587.38	30408.24
587.54	30157.80
587.70	30424.62
587.86	30501.86
588.02	30693.79
588.18	30600.16
588.34	30551.01
588.49	30176.53
588.65	30036.09
588.81	30604.84
588.97	29977.58
589.13	30270.15
589.29	30487.82
589.45	30352.07
589.61	30670.38
589.77	30604.84
589.93	30710.17
590.08	30703.15
590.24	30497.18
590.40	30560.37
590.56	30754.64
590.72	30471.43
590.88	30307.60
591.04	30576.76
591.20	30670.38
591.35	30462.07
591.51	31108.06
591.67	30764.00
591.83	31000.40
591.99	30813.15
592.15	30775.70
592.31	30588.46
592.46	30349.73
592.62	30625.91
592.78	30192.91
592.94	30682.08
593.10	30850.60
593.26	30742.94
593.41	30817.83
593.57	30728.89
593.73	30810.81
593.89	30686.76
594.05	30749.96
594.20	30614.21
594.36	30838.90
594.52	30258.45
594.68	30857.62
594.84	30366.11
594.99	30464.41
595.15	30412.92
595.31	31084.65
595.47	30745.28
595.62	30691.44
595.78	30518.25
595.94	30831.88
596.10	30438.67
596.25	30663.36
596.41	30754.64
596.57	30408.24
596.73	30749.96
596.88	30424.62
597.04	30682.08
597.20	30808.47
597.36	30787.41
597.51	31187.64
597.67	31028.48
597.83	30785.07
597.99	30593.14
598.14	30705.49
598.30	30817.83
598.46	30782.73
598.61	31012.10
598.77	30654.00
598.93	30684.42
599.09	31260.20
599.24	31550.42
599.40	31061.25
599.56	30787.41
599.71	30993.37
599.87	30780.39
600.03	30649.32
600.18	30799.11
600.34	30703.15
600.50	30843.58
600.65	30995.71
600.81	31384.24
600.97	30937.20
601.12	30955.93
601.28	31171.25
601.44	30946.56
601.59	31552.76
601.75	30918.48
601.91	31182.96
602.06	30953.58
602.22	31033.16
602.37	31180.62
602.53	30735.92
602.69	31096.36
602.84	30436.33
603.00	30761.66
603.16	30792.09
603.31	30649.32
603.47	31445.10
603.62	31035.50
603.78	30515.90
603.94	30492.50
604.09	30668.04
604.25	30859.96
604.40	30979.33
604.56	30874.01
604.71	31515.31
604.87	31051.89
605.03	31133.81
605.18	31356.16
605.34	30923.16
605.49	30991.03
605.65	30714.85
605.80	30916.14
605.96	30668.04
606.12	30878.69
606.27	30965.29
606.43	30288.87
606.58	31154.87
606.74	30976.99
606.89	30654.00
607.05	31019.12
607.20	30925.50
607.36	31189.98
607.51	31129.12
607.67	30824.86
607.82	30258.45
607.98	30417.60
608.13	30810.81
608.29	30438.67
608.44	30806.13
608.60	30813.15
608.75	30761.66
608.91	30829.54
609.06	30462.07
609.22	30979.33
609.37	30363.77
609.53	30595.48
609.68	30668.04
609.84	30448.03
609.99	30567.40
610.15	30415.26
610.30	30700.81
610.46	30228.02
610.61	30527.61
610.76	30309.94
610.92	30415.26
611.07	30452.71
611.23	30305.26
611.38	30756.98
611.54	30417.60
611.69	30277.17
611.84	30192.91
612.00	30272.49
612.15	30483.14
612.31	30478.46
612.46	30003.33
612.62	30433.99
612.77	30522.93
612.92	30476.12
613.08	30405.90
613.23	30525.27
613.39	30654.00
613.54	30073.54
613.69	30529.95
613.85	30326.32
614.00	30450.37
614.15	30417.60
614.31	30319.30
614.46	30361.43
614.62	30506.54
614.77	30724.21
614.92	30115.67
615.08	30302.92
615.23	30141.42
615.38	30438.67
615.54	30012.69
615.69	30110.99
615.84	30419.94
616.00	30043.12
616.15	30038.44
616.30	30000.99
616.46	29844.17
616.61	30143.76
616.76	30204.61
616.92	30108.65
617.07	30335.68
617.22	30190.57
617.37	30185.89
617.53	30029.07
617.68	29935.45
617.83	29900.34
617.99	29949.50
618.14	29776.30
618.29	29656.93
618.45	30298.23
618.60	30167.16
618.75	30120.35
618.90	29689.70
619.06	29706.08
619.21	29797.36
619.36	29736.51
619.51	29853.53
619.67	29916.73
619.82	29289.46
619.97	29462.66
620.12	29663.95
620.28	29549.26
620.43	29923.75
620.58	29965.88
620.73	29975.24
620.89	29670.97
621.04	30118.01
621.19	29685.01
621.34	29619.48
621.49	29546.92
621.65	29158.39
621.80	29710.76
621.95	29373.72
622.10	29418.19
622.25	29450.96
622.41	29460.32
622.56	29305.85
622.71	29432.24
622.86	29205.20
623.01	29542.24
623.16	29738.85
623.32	29329.25
623.47	29223.93
623.62	29500.11
623.77	29467.34
623.92	29221.59
624.07	29207.55
624.23	29085.84
624.38	29268.40
624.53	29745.87
624.68	29455.64
624.83	29652.25
624.98	29670.97
625.13	29113.92
625.29	29244.99
625.44	29259.04
625.59	29247.33
625.74	28840.08
625.89	28769.86
626.04	28898.59
626.19	29017.96
626.34	29088.18
626.49	28903.28
626.65	28575.60
626.80	29434.58
626.95	28837.74
627.10	28914.98
627.25	28811.99
627.40	29151.37
627.55	29024.98
627.70	28961.79
627.85	28903.28
628.00	28872.85
628.15	28872.85
628.30	28545.17
628.45	28783.91
628.60	28751.14
628.76	28727.74
628.91	28821.36
629.06	28404.74
629.21	28622.41
629.36	28538.15
629.51	28533.47
629.66	28629.43
629.81	28432.83
629.96	28470.28
630.11	28451.55
630.26	28224.52
630.41	28446.87
630.56	28229.20
630.71	28465.60
630.86	28545.17
631.01	28828.38
631.16	28535.81
631.31	28493.68
631.46	28254.95
631.61	28601.35
631.76	28198.77
631.91	28615.39
632.06	28458.57
632.21	28432.83
632.36	28458.57
632.51	28032.60
632.66	28240.90
632.81	28081.75
632.96	28243.24
633.10	28395.38
633.25	28102.81
633.40	28512.41
633.55	28591.98
633.70	27946.00
633.85	28243.24
634.00	28128.56
634.15	28116.86
634.30	27805.56
634.45	27976.42
634.60	27859.40
634.75	27913.23
634.90	28077.07
635.05	28154.30
635.19	28233.88
635.34	28013.87
635.49	27960.04
635.64	28346.23
635.79	27733.01
635.94	28084.09
636.09	27761.09
636.24	27880.46
636.39	27646.41
636.53	28100.47
636.68	27541.08
636.83	27835.99
636.98	27634.71
637.13	27906.21
637.28	28144.94
637.43	27910.89
637.57	28044.30
637.72	27903.87
637.87	27613.64
638.02	27946.00
638.17	27672.15
638.32	27531.72
638.46	27487.25
638.61	27335.12
638.76	27138.51
638.91	27267.24
639.06	27122.13
639.20	27730.67
639.35	27990.47
639.50	27489.59
639.65	27555.13
639.80	27346.82
639.94	27421.72
640.09	27442.78
640.24	27454.48
640.39	27152.55
640.54	27124.47
640.68	27285.97
640.83	27302.35
640.98	26923.18
641.13	27143.19
641.27	27304.69
641.42	27402.99
641.57	27260.22
641.72	27335.12
641.86	27065.96
642.01	26974.67
642.16	27108.08
642.31	26986.38
642.45	27248.52
642.60	26616.57
642.75	27117.45
642.90	26703.17
643.04	27002.76
643.19	26827.22
643.34	27115.11
643.48	27089.36
643.63	27051.91
643.78	26785.09
643.93	27065.96
644.07	27234.47
644.22	26857.65
644.37	27094.04
644.51	26773.39
644.66	27157.24
644.81	26597.85
644.95	26518.27
645.10	26548.70
645.25	27222.77
645.39	26703.17
645.54	26794.45
645.69	26944.25
645.83	27021.48
645.98	26686.79
646.13	27021.48
646.27	26878.71
646.42	26356.77
646.57	26801.47
646.71	26785.09
646.86	26831.90
647.00	26925.52
647.15	26597.85
647.30	26588.49
647.44	26628.27
647.59	26852.97
647.74	26590.83
647.88	26799.13
648.03	26593.17
648.17	26668.06
648.32	26506.57
648.47	26382.52
648.61	26726.58
648.76	26611.89
648.90	26544.02
649.05	26405.92
649.20	26455.08
649.34	26218.68
649.49	26251.45
649.63	26497.20
649.78	26389.54
649.92	26111.02
650.07	26270.17
650.21	26466.78
650.36	26410.60
650.51	26328.69
650.65	26541.68
650.80	26522.95
650.94	26005.69
651.09	26047.82
651.23	25947.18
651.38	25989.31
651.52	26342.73
651.67	26118.04
651.81	26029.10
651.96	26321.66
652.10	26012.71
652.25	25989.31
652.39	26405.92
652.54	25874.62
652.68	26309.96
652.83	25647.59
652.97	26113.36
653.12	26361.45
653.26	25781.00
653.41	25914.41
653.55	25937.82
653.70	25640.57
653.84	25738.87
653.99	26078.25
654.13	26270.17
654.27	25876.96
654.42	25928.45
654.56	25846.54
654.71	25879.30
654.85	25699.08
655.00	26106.34
655.14	25507.16
655.29	25694.40
655.43	25628.87
655.57	25729.51
655.72	25734.19
655.86	25607.80
656.01	25692.06
656.15	25270.76
656.30	25294.17
656.44	25301.19
656.58	25284.81
656.73	25357.36
656.87	25333.96
657.01	25631.21
657.16	25624.18
657.30	25900.37
657.45	25675.68
657.59	25748.23
657.73	25188.85
657.88	25525.88
658.02	25500.14
658.16	25153.74
658.31	25420.56
658.45	25046.07
658.60	25216.93
658.74	25083.52
658.88	24868.19
659.03	25078.84
659.17	25462.69
659.31	25198.21
659.46	25226.29
659.60	24959.47
659.74	25074.16
659.89	25027.35
660.03	24840.11
660.17	25228.63
660.32	24687.97
660.46	24851.81
660.60	24800.32
660.74	24917.34
660.89	24805.00
661.03	24727.76
661.17	24879.89
661.32	24807.34
661.46	25125.65
661.60	24716.06
661.74	24643.50
661.89	24503.07
662.03	24666.91
662.17	24641.16
662.31	24088.79
662.46	24840.11
662.60	24278.38
662.74	24425.83
662.88	24395.40
663.03	24425.83
663.17	24374.34
663.31	24081.77
663.45	24231.57
663.60	24283.06
663.74	24144.97
663.88	23917.93
664.02	24292.42
664.17	24004.53
664.31	24273.70
664.45	24070.07
664.59	24170.71
664.73	24161.35
664.88	23826.65
665.02	23791.55
665.16	23924.96
665.30	23880.49
665.44	24093.47
665.59	23367.91
665.73	23646.43
665.87	23566.85
666.01	23850.06
666.15	24009.22
666.29	23644.09
666.44	23803.25
666.58	23587.92
666.72	23707.29
666.86	23218.11
667.00	23929.64
667.14	23381.95
667.28	23477.91
667.43	23433.44
667.57	23412.38
667.71	23234.50
667.85	23440.47
667.99	23185.35
668.13	23344.50
668.27	23056.62
668.41	23325.78
668.56	23126.83
668.70	23611.32
668.84	23276.63
668.98	23187.69
669.12	22883.42
669.26	22995.76
669.40	22808.52
669.54	23220.45
669.68	22925.55
669.82	22501.91
669.96	22572.13
670.10	22471.48
670.25	22899.80
670.39	22815.54
670.53	22431.69
670.67	22335.73
670.81	22668.09
670.95	22530.00
671.09	22632.98
671.23	22785.12
671.37	22937.25
671.51	22417.65
671.65	22417.65
671.79	22326.37
671.93	22202.32
672.07	22419.99
672.21	22190.62
672.35	21928.48
672.49	21483.78
672.63	21802.09
672.77	22218.71
672.91	21792.73
673.05	21731.87
673.19	21949.54
673.33	21776.34
673.47	21586.76
673.61	22078.27
673.75	21769.32
673.89	21900.39
674.03	21680.38
674.17	21881.67
674.31	21678.04
674.45	21376.11
674.59	21813.79
674.73	21376.11
674.87	21329.30
675.01	21151.42
675.15	21174.83
675.29	21216.96
675.43	21245.04
675.56	21394.84
675.70	21022.69
675.84	21275.47
675.98	20711.40
676.12	20886.94
676.26	21333.98
676.40	21067.16
676.54	20957.16
676.68	20891.62
676.82	20549.90
676.96	20673.95
677.10	20702.04
677.23	20463.30
677.37	20585.01
677.51	20463.30
677.65	20315.85
677.79	20386.07
677.93	20336.91
678.07	20095.84
678.21	20018.60
678.34	20084.14
678.48	20016.26
678.62	19768.16
678.76	19737.74
678.90	19594.96
679.04	19784.55
679.18	20013.92
679.31	19414.74
679.45	19482.62
679.59	19311.76
679.73	19403.04
679.87	19363.25
680.00	19236.86
680.14	19286.01
680.28	19339.85
680.42	19063.66
680.56	19318.78
680.70	19206.44
680.83	19606.67
680.97	18913.87
681.11	19129.20
681.25	19058.98
681.39	19016.85
681.52	19005.15
681.66	18553.43
681.80	18813.23
681.94	18562.79
682.07	18555.77
682.21	18494.91
682.35	18427.04
682.49	18483.21
682.62	18368.52
682.76	18476.19
682.90	18471.51
683.04	18352.14
683.17	18218.73
683.31	18356.82
683.45	18359.16
683.59	18136.81
683.72	17980.00
683.86	18061.91
684.00	17703.81
684.13	17844.24
684.27	17830.20
684.41	17542.32
684.55	17378.48
684.68	17614.87
684.82	17287.20
684.96	17479.12
685.09	17472.10
685.23	17221.66
685.37	17312.94
685.50	17521.25
685.64	17277.83
685.78	17472.10
685.91	17385.50
686.05	17366.78
686.19	17226.34
686.32	17085.91
686.46	16802.71
686.60	16760.58
686.73	16947.82
686.87	16776.96
687.01	16554.61
687.14	16863.56
687.28	16318.22
687.42	16430.56
687.55	16676.32
687.69	16266.72
687.82	16224.59
687.96	16360.34
688.10	16217.57
688.23	16294.81
688.37	16163.74
688.50	15868.83
688.64	15985.86
688.78	16320.56
688.91	16133.31
689.05	15772.87
689.18	15899.26
689.32	15695.63
689.46	15740.10
689.59	15620.74
689.73	15548.18
689.86	15564.56
690.00	15473.28
690.13	15531.80
690.27	15267.31
690.41	15330.51
690.54	15314.13
690.68	15140.93
690.81	15272.00
690.95	15138.58
691.08	15349.23
691.22	15066.03
691.35	15157.31
691.49	15112.84
691.62	15145.61
691.76	14764.10
691.89	14855.38
692.03	14457.49
692.16	14530.05
692.30	14686.86
692.43	14359.19
692.57	14284.29
692.70	14183.65
692.84	14406.00
692.97	14127.47
693.11	14398.98
693.24	14260.88
693.38	14157.90
693.51	14104.07
693.65	14335.78
693.78	14064.28
693.92	14237.48
694.05	14029.17
694.19	13855.97
694.32	13797.46
694.45	13420.63
694.59	13738.94
694.72	13472.12
694.86	13507.23
694.99	13193.60
695.13	13319.99
695.26	13385.52
695.39	13528.30
695.53	13132.75
695.66	13366.80
695.80	13341.05
695.93	13205.30
696.07	13380.84
696.20	13383.18
696.33	12954.87
696.47	13146.79
696.60	12784.01
696.73	12924.44
696.87	12926.78
697.00	12629.53
697.14	12737.20
697.27	12430.59
697.40	12676.34
697.54	12669.32
697.67	12404.84
697.80	12475.06
697.94	12180.15
698.07	12245.68
698.21	12191.85
698.34	12428.24
698.47	12306.54
698.61	12250.36
698.74	12318.24
698.87	12147.38
699.01	12329.94
699.14	12006.95
699.27	11875.88
699.40	11932.05
699.54	12013.97
699.67	11747.15
699.80	11894.60
699.94	11492.03
700.07	11791.62
700.20	11382.03
700.34	11421.81
700.47	11337.56
700.60	11337.56
700.73	11421.81
700.87	11445.22
701.00	11501.39
701.13	11246.27
701.26	11356.28
701.40	11234.57
701.53	11204.14
701.66	11307.13
701.79	11089.46
701.93	11007.54
702.06	11002.86
702.19	10714.97
702.32	10878.81
702.46	10696.25
702.59	10546.45
702.72	10602.63
702.85	10752.42
702.99	10614.33
703.12	10497.30
703.25	10408.36
703.38	10333.47
703.51	10544.11
703.65	10181.33
703.78	10317.08
703.91	10349.85
704.04	10286.65
704.17	10410.70
704.31	10148.56
704.44	10171.97
704.57	10010.47
704.70	9963.66
704.83	9748.33
704.96	10108.77
705.10	9921.53
705.23	9776.42
>>>>>End Processed Spectral Data<<<<<
