SpectraSuite Data File
++++++++++++++++++++++++++++++++++++
Date: Fri Oct 18 13:57:55 GMT-05:00 2013
User: bianchi
Dark Spectrum Present: No
Reference Spectrum Present: No
Number of Sampled Component Spectra: 1
Spectrometers: USB2+H05261
Integration Time (usec): 50000 (USB2+H05261)
Spectra Averaged: 1 (USB2+H05261)
Boxcar Smoothing: 0 (USB2+H05261)
Correct for Electrical Dark: No (USB2+H05261)
Strobe/Lamp Enabled: No (USB2+H05261)
Correct for Detector Non-linearity: No (USB2+H05261)
Correct for Stray Light: No (USB2+H05261)
Number of Pixels in Processed Spectrum: 2048
>>>>>Begin Processed Spectral Data<<<<<
365.73	0.00
365.92	0.00
366.12	0.00
366.32	0.00
366.52	0.00
366.72	0.00
366.91	0.00
367.11	0.00
367.31	0.00
367.51	0.00
367.70	0.00
367.90	0.00
368.10	0.00
368.30	0.00
368.49	0.00
368.69	0.00
368.89	0.00
369.09	0.00
369.28	0.00
369.48	0.00
369.68	0.00
369.87	0.00
370.07	0.00
370.27	0.00
370.47	0.00
370.66	42.13
370.86	135.75
371.06	131.07
371.25	70.22
371.45	124.05
371.65	156.82
371.84	187.24
372.04	140.43
372.24	177.88
372.44	114.69
372.63	163.84
372.83	175.54
373.03	166.18
373.22	189.58
373.42	259.80
373.62	241.08
373.81	220.01
374.01	299.59
374.21	276.18
374.40	292.57
374.60	304.27
374.79	236.39
374.99	259.80
375.19	243.42
375.38	241.08
375.58	222.35
375.78	220.01
375.97	229.37
376.17	294.91
376.37	278.52
376.56	365.12
376.76	238.73
376.95	287.89
377.15	297.25
377.35	255.12
377.54	215.33
377.74	290.23
377.93	229.37
378.13	245.76
378.33	271.50
378.52	203.63
378.72	262.14
378.91	313.63
379.11	348.74
379.31	315.97
379.50	238.73
379.70	301.93
379.89	250.44
380.09	266.82
380.28	285.55
380.48	369.80
380.68	372.15
380.87	332.36
381.07	266.82
381.26	397.89
381.46	386.19
381.65	376.83
381.85	306.61
382.04	339.38
382.24	376.83
382.43	395.55
382.63	404.91
382.83	358.10
383.02	285.55
383.22	421.30
383.41	315.97
383.61	404.91
383.80	337.04
384.00	325.33
384.19	360.44
384.39	491.51
384.58	374.49
384.78	344.06
384.97	360.44
385.17	400.23
385.36	470.45
385.56	428.32
385.75	353.42
385.95	423.64
386.14	500.87
386.34	402.57
386.53	367.46
386.72	390.87
386.92	521.94
387.11	376.83
387.31	486.83
387.50	437.68
387.70	407.25
387.89	468.11
388.09	418.96
388.28	486.83
388.48	484.49
388.67	440.02
388.86	486.83
389.06	496.19
389.25	465.77
389.45	479.81
389.64	433.00
389.84	547.69
390.03	486.83
390.22	475.13
390.42	482.15
390.61	491.51
390.81	451.72
391.00	500.87
391.19	454.06
391.39	592.16
391.58	540.66
391.78	503.22
391.97	526.62
392.16	521.94
392.36	603.86
392.55	615.56
392.75	521.94
392.94	585.13
393.13	564.07
393.33	617.90
393.52	559.39
393.71	690.46
393.91	578.11
394.10	638.97
394.29	589.82
394.49	599.18
394.68	650.67
394.88	615.56
395.07	638.97
395.26	620.24
395.46	664.71
395.65	603.86
395.84	688.12
396.04	655.35
396.23	678.76
396.42	643.65
396.62	671.73
396.81	732.59
397.00	622.58
397.19	688.12
397.39	730.25
397.58	748.97
397.77	718.54
397.97	688.12
398.16	737.27
398.35	737.27
398.55	734.93
398.74	695.14
398.93	744.29
399.12	676.41
399.32	751.31
399.51	709.18
399.70	774.72
399.90	765.36
400.09	737.27
400.28	882.38
400.47	791.10
400.67	770.04
400.86	802.80
401.05	835.57
401.24	795.78
401.44	809.83
401.63	891.74
401.82	870.68
402.01	739.61
402.21	901.11
402.40	882.38
402.59	891.74
402.78	802.80
402.97	861.32
403.17	882.38
403.36	922.17
403.55	926.85
403.74	940.90
403.93	828.55
404.13	861.32
404.32	882.38
404.51	884.72
404.70	873.02
404.89	922.17
405.09	978.34
405.28	1039.20
405.47	961.96
405.66	1053.24
405.85	903.45
406.05	1048.56
406.24	938.55
406.43	1128.14
406.62	976.00
406.81	1142.18
407.00	1069.62
407.20	978.34
407.39	966.64
407.58	1060.26
407.77	1018.13
407.96	1102.39
408.15	1158.57
408.34	1121.12
408.54	1043.88
408.73	1160.91
408.92	1067.28
409.11	1104.73
409.30	1160.91
409.49	1123.46
409.68	1217.08
409.87	1149.20
410.07	1130.48
410.26	1224.10
410.45	1284.95
410.64	1181.97
410.83	1231.12
411.02	1165.59
411.21	1252.19
411.40	1287.29
411.59	1324.74
411.78	1233.46
411.98	1275.59
412.17	1387.94
412.36	1341.13
412.55	1359.85
412.74	1315.38
412.93	1390.28
413.12	1366.87
413.31	1383.26
413.50	1378.58
413.69	1352.83
413.88	1523.69
414.07	1486.24
414.26	1507.30
414.45	1451.13
414.64	1427.73
414.83	1607.95
415.02	1549.43
415.22	1572.84
415.41	1579.86
415.60	1631.35
415.79	1572.84
415.98	1650.08
416.17	1612.63
416.36	1694.55
416.55	1743.70
416.74	1699.23
416.93	1802.21
417.12	1645.40
417.31	1682.85
417.50	1760.08
417.69	1792.85
417.88	1816.26
418.07	1781.15
418.26	1813.92
418.45	1739.02
418.64	1834.98
418.83	1842.00
419.02	1685.19
419.21	1844.34
419.39	1888.81
419.58	1827.96
419.77	1790.51
419.96	1940.30
420.15	1980.09
420.34	1867.75
420.53	1842.00
420.72	1987.11
420.91	1914.56
421.10	2017.54
421.29	2003.50
421.48	2012.86
421.67	2022.22
421.86	2078.40
422.05	2115.84
422.24	2050.31
422.43	1989.46
422.61	2017.54
422.80	2085.42
422.99	2120.53
423.18	2200.10
423.37	2036.27
423.56	2015.20
423.75	2038.61
423.94	2057.33
424.13	2015.20
424.32	1961.37
424.50	2059.67
424.69	2197.76
424.88	2232.87
425.07	2118.18
425.26	2017.54
425.45	2078.40
425.64	2120.53
425.83	2080.74
426.01	2132.23
426.20	2071.37
426.39	2087.76
426.58	2059.67
426.77	2080.74
426.96	2193.08
427.15	2225.85
427.33	2221.17
427.52	2083.08
427.71	2111.16
427.90	2338.20
428.09	2251.60
428.28	2190.74
428.46	2242.23
428.65	2356.92
428.84	2375.64
429.03	2394.37
429.22	2214.15
429.40	2321.81
429.59	2183.72
429.78	2197.76
429.97	2289.04
430.16	2363.94
430.34	2394.37
430.53	2356.92
430.72	2373.30
430.91	2368.62
431.10	2375.64
431.28	2396.71
431.47	2359.26
431.66	2424.80
431.85	2392.03
432.03	2424.80
432.22	2637.78
432.41	2546.50
432.60	2471.61
432.79	2480.97
432.97	2588.63
433.16	2485.65
433.35	2495.01
433.54	2593.31
433.72	2710.34
433.91	2595.65
434.10	2593.31
434.28	2736.09
434.47	2668.21
434.66	2644.81
434.85	2640.12
435.03	2663.53
435.22	2682.25
435.41	2825.03
435.59	2726.72
435.78	2733.75
435.97	2729.06
436.16	2703.32
436.34	2726.72
436.53	2848.43
436.72	2909.29
436.90	2729.06
437.09	2857.79
437.28	2663.53
437.46	2780.56
437.65	2839.07
437.84	2916.31
438.02	2738.43
438.21	2876.52
438.40	2829.71
438.58	2876.52
438.77	2977.16
438.96	2932.69
439.14	2942.05
439.33	2939.71
439.52	2993.55
439.70	3201.85
439.89	3141.00
440.08	3138.66
440.26	3157.38
440.45	3084.83
440.63	3220.58
440.82	3215.90
441.01	3178.45
441.19	3185.47
441.38	3407.82
441.57	3251.00
441.75	3293.13
441.94	3431.23
442.12	3330.58
442.31	3414.84
442.50	3393.78
442.68	3384.41
442.87	3384.41
443.05	3501.44
443.24	3527.19
443.43	3431.23
443.61	3529.53
443.80	3707.41
443.98	3438.25
444.17	3468.67
444.35	3536.55
444.54	3480.38
444.73	3550.59
444.91	3557.61
445.10	3438.25
445.28	3440.59
445.47	3424.20
445.65	3559.95
445.84	3674.64
446.02	3747.20
446.21	3595.06
446.39	3410.16
446.58	3581.02
446.77	3648.90
446.95	3559.95
447.14	3627.83
447.32	3574.00
447.51	3676.98
447.69	3618.47
447.88	3655.92
448.06	3679.32
448.25	3606.77
448.43	3566.98
448.62	3576.34
448.80	3679.32
448.99	3660.60
449.17	3758.90
449.36	3798.69
449.54	3831.46
449.73	3728.47
449.91	3791.67
450.10	3749.54
450.28	3808.05
450.46	3831.46
450.65	3803.37
450.83	3815.07
451.02	3758.90
451.20	3882.95
451.39	3803.37
451.57	3817.41
451.76	3819.75
451.94	3864.22
452.13	4007.00
452.31	4053.81
452.49	3922.74
452.68	3925.08
452.86	3939.12
453.05	3946.14
453.23	4060.83
453.42	4011.68
453.60	4049.13
453.78	3985.93
453.97	4014.02
454.15	3960.19
454.34	3929.76
454.52	4191.90
454.70	4088.92
454.89	4105.30
455.07	4070.19
455.26	4109.98
455.44	4318.29
455.62	4205.94
455.81	4205.94
455.99	4142.75
456.17	4250.41
456.36	4325.31
456.54	4341.69
456.73	4346.37
456.91	4432.97
457.09	4458.72
457.28	4444.68
457.46	4416.59
457.64	4542.98
457.83	4440.00
458.01	4484.47
458.19	4477.44
458.38	4428.29
458.56	4636.60
458.74	4608.51
458.93	4580.43
459.11	4589.79
459.29	4585.11
459.48	4629.58
459.66	4802.78
459.84	4641.28
460.03	4702.14
460.21	4702.14
460.39	4695.11
460.57	4655.33
460.76	4702.14
460.94	4833.21
461.12	4795.76
461.31	4823.84
461.49	4720.86
461.67	4695.11
461.85	4816.82
462.04	4800.44
462.22	5064.92
462.40	5008.75
462.59	4837.89
462.77	4816.82
462.95	4952.57
463.13	4957.25
463.32	4882.36
463.50	4926.83
463.68	4898.74
463.86	4882.36
464.05	5067.26
464.23	5156.20
464.41	5027.47
464.59	4933.85
464.78	5240.46
464.96	5219.39
465.14	5107.05
465.32	5282.59
465.50	5184.29
465.69	5294.29
465.87	5036.83
466.05	5064.92
466.23	5064.92
466.41	5219.39
466.60	5310.68
466.78	5135.14
466.96	5109.39
467.14	5298.97
467.32	5268.55
467.51	5313.02
467.69	5146.84
467.87	5427.70
468.05	5427.70
468.23	5170.24
468.41	5191.31
468.60	5439.40
468.78	5514.30
468.96	5411.32
469.14	5479.19
469.32	5481.53
469.50	5336.42
469.69	5493.24
469.87	5451.11
470.05	5514.30
470.23	5577.50
470.41	5755.38
470.59	5678.14
470.77	5600.90
470.95	5589.20
471.14	5610.26
471.32	5565.79
471.50	5816.23
471.68	5823.25
471.86	5797.51
472.04	5874.74
472.22	5916.87
472.40	5856.02
472.58	5942.62
472.77	5900.49
472.95	5930.92
473.13	6260.93
473.31	6087.73
473.49	5970.71
473.67	5975.39
473.85	6090.07
474.03	6139.23
474.21	6225.82
474.39	6232.85
474.57	6263.27
474.75	6452.86
474.93	6342.85
475.12	6202.42
475.30	6366.26
475.48	6513.71
475.66	6595.63
475.84	6558.18
476.02	6532.44
476.20	6420.09
476.38	6633.08
476.56	6686.91
476.74	6860.11
476.92	6773.51
477.10	6663.51
477.28	6633.08
477.46	6867.13
477.64	6918.62
477.82	7136.29
478.00	7297.79
478.18	7150.34
478.36	7236.94
478.54	7286.09
478.72	7290.77
478.90	7253.32
479.08	7335.24
479.26	7506.10
479.44	7456.95
479.62	7641.85
479.80	7625.47
479.98	7691.00
480.16	7871.22
480.34	7742.49
480.52	7934.42
480.70	7903.99
480.88	7655.89
481.06	7838.45
481.24	7997.61
481.41	8056.12
481.59	8182.51
481.77	8023.36
481.95	8177.83
482.13	8362.73
482.31	8234.00
482.49	8482.10
482.67	8477.42
482.85	8587.43
483.03	8608.49
483.21	8727.86
483.39	8854.25
483.57	8940.85
483.74	8863.61
483.92	8992.34
484.10	9060.21
484.28	9336.40
484.46	9392.57
484.64	9699.18
484.82	9212.35
485.00	9329.38
485.18	9352.78
485.35	9694.50
485.53	9701.52
485.71	9624.28
485.89	10022.17
486.07	9891.10
486.25	10033.88
486.43	9970.68
486.61	10260.91
486.78	10270.27
486.96	10345.17
487.14	10473.90
487.32	10462.19
487.50	10443.47
487.68	10415.38
487.85	10560.50
488.03	10843.70
488.21	10991.16
488.39	11028.60
488.57	11042.65
488.75	11332.87
488.92	11049.67
489.10	11290.74
489.28	11199.46
489.46	11370.32
489.64	11386.71
489.81	11571.61
489.99	11700.34
490.17	11726.08
490.35	12182.49
490.53	12042.06
490.70	11992.90
490.88	11824.39
491.06	12093.55
491.24	12093.55
491.41	12201.21
491.59	12409.52
491.77	12489.10
491.95	12507.82
492.13	12573.36
492.30	12779.32
492.48	12746.56
492.66	12758.26
492.84	12723.15
493.01	13067.21
493.19	12877.63
493.37	13130.41
493.54	13280.20
493.72	13341.05
493.90	13312.97
494.08	13425.31
494.25	13371.48
494.43	13694.47
494.61	13799.80
494.79	13813.84
494.96	13776.39
495.14	13937.89
495.32	14003.43
495.49	14200.03
495.67	14272.59
495.85	14377.91
496.02	14406.00
496.20	14342.80
496.38	14317.06
496.55	14476.21
496.73	14743.03
496.91	14546.43
497.09	14413.02
497.26	14995.81
497.44	14658.78
497.62	15040.28
497.79	15323.49
497.97	14902.19
498.14	15103.48
498.32	15229.87
498.50	15309.44
498.67	15536.48
498.85	15349.23
499.03	15229.87
499.20	15255.61
499.38	15515.41
499.56	15726.06
499.73	15889.90
499.91	16081.82
500.08	16215.23
500.26	15529.45
500.44	15742.44
500.61	16133.31
500.79	16079.48
500.97	16205.87
501.14	16327.58
501.32	16402.47
501.49	16217.57
501.67	16168.42
501.84	16528.86
502.02	16519.50
502.20	16755.90
502.37	16870.58
502.55	16760.58
502.72	16535.88
502.90	16940.80
503.07	16795.68
503.25	16741.85
503.43	16758.24
503.60	16865.90
503.78	17198.26
503.95	17158.47
504.13	17125.70
504.30	17219.32
504.48	17146.76
504.65	17572.74
504.83	17671.04
505.01	17736.58
505.18	17570.40
505.36	17867.65
505.53	17671.04
505.71	17647.64
505.88	17619.55
506.06	17837.22
506.23	18071.28
506.41	18118.09
506.58	18300.65
506.76	17724.88
506.93	17987.02
507.11	17982.34
507.28	18422.36
507.46	18291.29
507.63	18359.16
507.81	18548.75
507.98	18223.41
508.16	18328.74
508.33	18335.76
508.50	18480.87
508.68	18651.73
508.85	18838.97
509.03	18721.95
509.20	18855.36
509.38	19133.88
509.55	19061.32
509.73	18960.68
509.90	19115.16
510.08	18853.02
510.25	19346.87
510.42	19005.15
510.60	19178.35
510.77	19339.85
510.95	19154.94
511.12	18838.97
511.30	19683.91
511.47	19229.84
511.64	19381.98
511.82	19641.78
511.99	19711.99
512.17	19829.02
512.34	19765.82
512.51	19545.81
512.69	19625.39
512.86	20102.86
513.04	20079.46
513.21	20259.68
513.38	20240.95
513.56	20283.08
513.73	19967.11
513.90	20470.33
514.08	19775.19
514.25	20365.00
514.43	20341.60
514.60	20688.00
514.77	20357.98
514.95	20664.59
515.12	20191.80
515.29	20641.18
515.47	20891.62
515.64	20676.29
515.81	20755.87
515.99	21003.97
516.16	21123.33
516.33	20943.11
516.51	20954.82
516.68	21123.33
516.85	21013.33
517.03	20744.17
517.20	21078.86
517.37	21216.96
517.54	21256.75
517.72	21261.43
517.89	21329.30
518.06	21348.03
518.24	21418.24
518.41	21408.88
518.58	21785.71
518.75	21233.34
518.93	21848.90
519.10	21490.80
519.27	21956.57
519.45	21781.03
519.62	21956.57
519.79	21692.08
519.96	22064.23
520.14	21799.75
520.31	21605.49
520.48	22214.02
520.65	22040.82
520.83	22190.62
521.00	22169.55
521.17	22143.81
521.34	22347.44
521.52	22321.69
521.69	22726.60
521.86	22958.31
522.03	22347.44
522.20	22780.43
522.38	22157.85
522.55	22469.14
522.72	22338.07
522.89	22747.67
523.07	23131.51
523.24	22808.52
523.41	22789.80
523.58	22963.00
523.75	22946.61
523.92	22796.82
524.10	22712.56
524.27	22888.10
524.44	23365.57
524.61	23351.52
524.78	23206.41
524.96	23257.90
525.13	23187.69
525.30	23328.12
525.47	23311.74
525.64	23461.53
525.81	23637.07
525.98	23599.62
526.16	23821.97
526.33	23379.61
526.50	23931.98
526.67	23674.52
526.84	23817.29
527.01	23271.95
527.18	23873.46
527.36	24128.58
527.53	24299.44
527.70	24334.55
527.87	23920.28
528.04	24065.39
528.21	24245.61
528.38	24009.22
528.55	24446.90
528.72	24294.76
528.89	24512.43
529.07	24159.01
529.24	24252.63
529.41	24524.13
529.58	24215.18
529.75	24449.24
529.92	24428.17
530.09	24278.38
530.26	24641.16
530.43	24259.65
530.60	24547.54
530.77	24631.80
530.94	25050.75
531.11	24470.30
531.28	24706.70
531.46	24582.65
531.63	24797.98
531.80	24919.68
531.97	24968.84
532.14	24875.21
532.31	24669.25
532.48	24847.13
532.65	24961.81
532.82	25120.97
532.99	25060.12
533.16	24938.41
533.33	25137.35
533.50	25252.04
533.67	25067.14
533.84	25270.76
534.01	25329.28
534.18	24943.09
534.35	25394.81
534.52	25261.40
534.69	25678.02
534.86	25612.48
535.03	25228.63
535.20	25642.91
535.37	25593.76
535.54	25668.66
535.71	25537.59
535.88	25649.93
536.05	25558.65
536.22	25928.45
536.38	26279.54
536.55	25886.32
536.72	26019.74
536.89	25804.41
537.06	25991.65
537.23	26038.46
537.40	25785.68
537.57	26307.62
537.74	26157.83
537.91	26253.79
538.08	26195.28
538.25	26221.02
538.42	25902.71
538.59	26314.64
538.75	26164.85
538.92	26340.39
539.09	26448.05
539.26	25926.11
539.43	26239.75
539.60	26457.42
539.77	26918.50
539.94	26700.83
540.11	26609.55
540.28	26192.94
540.44	26375.50
540.61	26492.52
540.78	26689.13
540.95	26511.25
541.12	26457.42
541.29	26675.09
541.46	26515.93
541.62	26766.37
541.79	26665.72
541.96	26810.84
542.13	26916.16
542.30	26815.52
542.47	27138.51
542.63	27112.77
542.80	27129.15
542.97	27292.99
543.14	27428.74
543.31	27477.89
543.48	27021.48
543.64	27180.64
543.81	27283.62
543.98	27524.70
544.15	27845.35
544.32	27412.35
544.48	27672.15
544.65	27520.02
544.82	27513.00
544.99	27061.27
545.16	27620.66
545.32	27585.55
545.49	27866.42
545.66	27920.25
545.83	27955.36
546.00	28095.79
546.16	27824.29
546.33	27623.00
546.50	27660.45
546.67	27927.27
546.83	27747.05
547.00	28187.07
547.17	27786.84
547.34	27665.13
547.50	28079.41
547.67	28203.46
547.84	28219.84
548.00	28133.24
548.17	28079.41
548.34	28116.86
548.51	28325.16
548.67	28126.22
548.84	28147.28
549.01	27875.78
549.18	28210.48
549.34	28386.02
549.51	28158.99
549.68	28381.34
549.84	28084.09
550.01	28336.87
550.18	28102.81
550.34	28624.75
550.51	28730.08
550.68	28755.82
550.84	28481.98
551.01	28634.11
551.18	28725.39
551.34	28416.44
551.51	28601.35
551.68	28886.89
551.84	28725.39
552.01	28503.04
552.18	28758.16
552.34	28631.77
552.51	28980.51
552.68	28741.78
552.84	28706.67
553.01	28996.90
553.18	29029.66
553.34	29392.45
553.51	28964.13
553.67	28982.85
553.84	29303.51
554.01	29053.07
554.17	29041.37
554.34	29280.10
554.51	28844.76
554.67	29465.00
554.84	29132.65
555.00	29308.19
555.17	28854.12
555.33	29289.46
555.50	29310.53
555.67	29067.11
555.83	29329.25
556.00	29345.64
556.16	29839.49
556.33	29514.16
556.50	29441.60
556.66	29209.89
556.83	29441.60
556.99	29614.80
557.16	29357.34
557.32	29495.43
557.49	29942.47
557.65	29537.56
557.82	29357.34
557.98	29315.21
558.15	29839.49
558.32	29846.51
558.48	29542.24
558.65	29736.51
558.81	29603.10
558.98	29542.24
559.14	29546.92
559.31	29504.79
559.47	29539.90
559.64	29963.54
559.80	29500.11
559.97	30134.40
560.13	29642.88
560.30	29846.51
560.46	29942.47
560.63	29961.20
560.79	29633.52
560.96	30202.27
561.12	29780.98
561.29	29816.08
561.45	30078.22
561.61	30118.01
561.78	30380.15
561.94	30094.61
562.11	30038.44
562.27	30150.78
562.44	30054.82
562.60	29867.58
562.77	30221.00
562.93	29776.30
563.10	30305.26
563.26	30230.36
563.42	30225.68
563.59	30008.01
563.75	30281.85
563.92	30244.40
564.08	29865.24
564.24	30209.29
564.41	30148.44
564.57	30148.44
564.74	30183.55
564.90	30555.69
565.07	30272.49
565.23	30396.54
565.39	30263.13
565.56	30747.62
565.72	30293.55
565.88	30443.35
566.05	30258.45
566.21	30543.99
566.38	30738.26
566.54	30347.39
566.70	30817.83
566.87	30731.23
567.03	30012.69
567.19	30593.14
567.36	30649.32
567.52	30232.70
567.68	30637.61
567.85	30431.65
568.01	30670.38
568.17	30590.80
568.34	30773.36
568.50	30609.53
568.66	30843.58
568.83	30848.26
568.99	30588.46
569.15	30632.93
569.32	30522.93
569.48	30700.81
569.64	30590.80
569.81	30778.04
569.97	30698.47
570.13	30377.81
570.30	30579.10
570.46	31019.12
570.62	30611.87
570.78	30682.08
570.95	30670.38
571.11	30752.30
571.27	30897.41
571.43	30675.06
571.60	30646.97
571.76	31033.16
571.92	30759.32
572.09	30345.05
572.25	30965.29
572.41	30672.72
572.57	30714.85
572.74	31241.47
572.90	30728.89
573.06	30904.43
573.22	30642.29
573.38	30588.46
573.55	30438.67
573.71	31318.71
573.87	30759.32
574.03	30689.10
574.20	30850.60
574.36	31098.70
574.52	30810.81
574.68	30778.04
574.84	30967.63
575.01	30824.86
575.17	31182.96
575.33	31005.08
575.49	30855.28
575.65	31145.51
575.82	31159.55
575.98	31246.15
576.14	30944.22
576.30	30948.90
576.46	30955.93
576.62	30567.40
576.79	31012.10
576.95	30998.06
577.11	30876.35
577.27	30881.03
577.43	30927.84
577.59	30883.37
577.75	30960.61
577.92	30925.50
578.08	30955.93
578.24	30761.66
578.40	30721.87
578.56	31070.61
578.72	31185.30
578.88	31470.84
579.04	31239.13
579.21	31138.49
579.37	31384.24
579.53	31197.00
579.69	30703.15
579.85	30916.14
580.01	31353.82
580.17	30871.67
580.33	31182.96
580.49	31311.69
580.65	31229.77
580.82	31283.60
580.98	31082.31
581.14	31145.51
581.30	31089.34
581.46	31468.50
581.62	31047.21
581.78	30911.46
581.94	31459.14
582.10	30988.69
582.26	31026.14
582.42	31133.81
582.58	31412.33
582.74	31328.07
582.90	30939.54
583.06	31201.68
583.22	31084.65
583.38	31564.46
583.54	31323.39
583.70	31070.61
583.86	31440.42
584.02	30932.52
584.18	31648.72
584.34	31365.52
584.50	31349.14
584.66	30953.58
584.82	30843.58
584.98	31381.90
585.14	31014.44
585.30	31253.17
585.46	31323.39
585.62	30719.53
585.78	31229.77
585.94	31136.15
586.10	31370.20
586.26	31505.95
586.42	31501.27
586.58	31288.28
586.74	31405.31
586.90	30618.89
587.06	31026.14
587.22	31255.51
587.38	31283.60
587.54	31967.04
587.70	31257.85
587.86	31393.61
588.02	31522.34
588.18	31503.61
588.34	31676.81
588.49	31173.60
588.65	31283.60
588.81	31384.24
588.97	31269.56
589.13	31426.37
589.29	30888.05
589.45	31447.44
589.61	31545.74
589.77	31789.16
589.93	31817.24
590.08	31824.26
590.24	31646.38
590.40	31601.91
590.56	31538.72
590.72	31452.12
590.88	30974.65
591.04	31466.16
591.20	31871.07
591.35	31864.05
591.51	31903.84
591.67	31821.92
591.83	31828.95
591.99	31775.11
592.15	31545.74
592.31	31402.97
592.46	31454.46
592.62	31578.51
592.78	31480.21
592.94	31672.13
593.10	31747.03
593.26	31683.83
593.41	32009.17
593.57	31555.10
593.73	31648.72
593.89	31964.70
594.05	31297.64
594.20	31646.38
594.36	31594.89
594.52	31414.67
594.68	31742.35
594.84	31295.30
594.99	31819.58
595.15	31702.56
595.31	31538.72
595.47	31896.82
595.62	31761.07
595.78	31583.19
595.94	31653.40
596.10	31824.26
596.25	31819.58
596.41	31789.16
596.57	31349.14
596.73	31854.69
596.88	31702.56
597.04	31768.09
597.20	32046.62
597.36	31938.95
597.51	32205.77
597.67	31835.97
597.83	31573.83
597.99	31688.51
598.14	31725.96
598.30	31477.86
598.46	31555.10
598.61	31985.76
598.77	32020.87
598.93	32203.43
599.09	32189.39
599.24	32168.32
599.40	32334.50
599.56	31878.10
599.71	32051.30
599.87	31950.65
600.03	31903.84
600.18	31997.46
600.34	31915.54
600.50	31885.12
600.65	31854.69
600.81	32114.49
600.97	31868.73
601.12	32175.34
601.28	31826.60
601.44	32259.60
601.59	32088.74
601.75	32189.39
601.91	31814.90
602.06	31992.78
602.22	32308.76
602.37	31838.31
602.53	31819.58
602.69	31938.95
602.84	31981.08
603.00	31662.77
603.16	31768.09
603.31	31948.31
603.47	31887.46
603.62	32011.51
603.78	32418.76
603.94	31784.48
604.09	31920.23
604.25	31463.82
604.40	31227.43
604.56	31751.71
604.71	32620.05
604.87	32318.12
605.03	32093.43
605.18	31651.06
605.34	31833.63
605.49	31990.44
605.65	31613.62
605.80	31594.89
605.96	31903.84
606.12	31814.90
606.27	32350.88
606.43	31765.75
606.58	31838.31
606.74	31737.66
606.89	31728.30
607.05	31845.33
607.20	31824.26
607.36	32065.34
607.51	32245.56
607.67	31505.95
607.82	31494.25
607.98	31824.26
608.13	31838.31
608.29	31786.82
608.44	31903.84
608.60	31695.53
608.75	31747.03
608.91	31896.82
609.06	31538.72
609.22	31435.74
609.37	31241.47
609.53	31456.80
609.68	31421.69
609.84	31527.02
609.99	31732.98
610.15	31271.90
610.30	31501.27
610.46	31751.71
610.61	31419.35
610.76	31847.67
610.92	31936.61
611.07	31723.62
611.23	31587.87
611.38	31365.52
611.54	31414.67
611.69	31374.88
611.84	31164.23
612.00	31828.95
612.15	31721.28
612.31	31796.18
612.46	31187.64
612.62	31332.75
612.77	31061.25
612.92	31873.42
613.08	31824.26
613.23	31779.79
613.39	31246.15
613.54	31037.84
613.69	31321.05
613.85	31391.26
614.00	31288.28
614.15	31351.48
614.31	31094.02
614.46	31250.83
614.62	31653.40
614.77	31168.91
614.92	31161.89
615.08	31213.38
615.23	31227.43
615.38	31262.54
615.54	31255.51
615.69	31136.15
615.84	31023.80
616.00	30843.58
616.15	30714.85
616.30	31337.43
616.46	31035.50
616.61	30883.37
616.76	31552.76
616.92	30785.07
617.07	31262.54
617.22	30913.80
617.37	30911.46
617.53	30885.71
617.68	30806.13
617.83	30654.00
617.99	30881.03
618.14	30661.02
618.29	30693.79
618.45	31065.93
618.60	31171.25
618.75	30778.04
618.90	30988.69
619.06	30749.96
619.21	31000.40
619.36	31143.17
619.51	30499.52
619.67	30415.26
619.82	30628.25
619.97	30848.26
620.12	30146.10
620.28	30663.36
620.43	30747.62
620.58	30752.30
620.73	30986.35
620.89	30670.38
621.04	30976.99
621.19	30366.11
621.34	30782.73
621.49	30609.53
621.65	30555.69
621.80	30661.02
621.95	30572.08
622.10	30569.74
622.25	30249.08
622.41	30616.55
622.56	30551.01
622.71	30614.21
622.86	30539.31
623.01	30176.53
623.16	30548.67
623.32	30370.79
623.47	30230.36
623.62	30225.68
623.77	29984.60
623.92	30773.36
624.07	30026.73
624.23	30099.29
624.38	30195.25
624.53	30122.69
624.68	29949.50
624.83	30579.10
624.98	30567.40
625.13	30309.94
625.29	30370.79
625.44	30190.57
625.59	29895.66
625.74	29813.74
625.89	30160.14
626.04	29867.58
626.19	29879.28
626.34	30403.56
626.49	30242.06
626.65	30377.81
626.80	30256.11
626.95	29811.40
627.10	29656.93
627.25	29937.79
627.40	29879.28
627.55	29780.98
627.70	29727.14
627.85	29443.94
628.00	29729.48
628.15	29635.86
628.30	29724.80
628.45	29860.55
628.60	29872.26
628.76	30108.65
628.91	29703.74
629.06	29572.67
629.21	29970.56
629.36	29965.88
629.51	29759.91
629.66	29443.94
629.81	29151.37
629.96	29558.63
630.11	29628.84
630.26	29509.47
630.41	29500.11
630.56	29467.34
630.71	29521.18
630.86	29530.54
631.01	29216.91
631.16	29085.84
631.31	29729.48
631.46	29338.62
631.61	29216.91
631.76	29233.29
631.91	29521.18
632.06	29214.57
632.21	29205.20
632.36	29462.66
632.51	28769.86
632.66	29488.41
632.81	29064.77
632.96	29247.33
633.10	29352.66
633.25	29710.76
633.40	29738.85
633.55	29500.11
633.70	29158.39
633.85	28713.69
634.00	28807.31
634.15	29355.00
634.30	28952.43
634.45	28872.85
634.60	28713.69
634.75	28978.17
634.90	28737.10
635.05	29013.28
635.19	29167.76
635.34	29048.39
635.49	29032.00
635.64	28638.80
635.79	29020.30
635.94	28706.67
636.09	28957.11
636.24	28737.10
636.39	28926.68
636.53	28793.27
636.68	28872.85
636.83	28369.63
636.98	29064.77
637.13	29106.90
637.28	29022.64
637.43	28767.52
637.57	28872.85
637.72	28276.01
637.87	28425.81
638.02	28819.02
638.17	28599.01
638.32	28411.76
638.46	28503.04
638.61	28503.04
638.76	28322.82
638.91	28465.60
639.06	28306.44
639.20	28730.08
639.35	28753.48
639.50	28687.95
639.65	28666.88
639.80	28624.75
639.94	28849.44
640.09	28554.54
640.24	28383.68
640.39	28676.24
640.54	28156.64
640.68	28421.13
640.83	28320.48
640.98	27859.40
641.13	28250.27
641.27	28367.29
641.42	28224.52
641.57	28226.86
641.72	28425.81
641.86	28093.45
642.01	28126.22
642.16	28123.88
642.31	28056.00
642.45	28364.95
642.60	28041.96
642.75	27924.93
642.90	28004.51
643.04	27861.74
643.19	27906.21
643.34	28041.96
643.48	27955.36
643.63	27859.40
643.78	27953.02
643.93	28144.94
644.07	28208.14
644.22	28112.17
644.37	27861.74
644.51	27866.42
644.66	27990.47
644.81	27826.63
644.95	27545.76
645.10	27604.28
645.25	27594.92
645.39	27552.79
645.54	27597.26
645.69	27690.88
645.83	27662.79
645.98	27716.62
646.13	27967.06
646.27	27990.47
646.42	27733.01
646.57	27590.24
646.71	27618.32
646.86	27688.54
647.00	27674.49
647.15	27367.88
647.30	27655.77
647.44	27653.43
647.59	27585.55
647.74	27405.33
647.88	27725.99
648.03	27648.75
648.17	27791.52
648.32	28051.32
648.47	27667.47
648.61	27623.00
648.76	27508.32
648.90	27541.08
649.05	27267.24
649.20	27276.60
649.34	27264.90
649.49	26890.41
649.63	27122.13
649.78	27042.55
649.92	27112.77
650.07	27168.94
650.21	27187.66
650.36	27122.13
650.51	27243.84
650.65	27400.65
650.80	27082.34
650.94	27030.85
651.09	27012.12
651.23	26831.90
651.38	26892.76
651.52	27047.23
651.67	26874.03
651.81	27175.96
651.96	26944.25
652.10	27243.84
652.25	26906.80
652.39	27126.81
652.54	27222.77
652.68	26621.25
652.83	27171.28
652.97	27150.21
653.12	27110.43
653.26	27260.22
653.41	26794.45
653.55	26527.63
653.70	26878.71
653.84	26600.19
653.99	26885.73
654.13	26972.33
654.27	26881.05
654.42	26647.00
654.56	27019.14
654.71	26890.41
654.85	27005.10
655.00	26691.47
655.14	26862.33
655.29	26508.91
655.43	26455.08
655.57	26834.24
655.72	26810.84
655.86	26544.02
656.01	26689.13
656.15	26429.33
656.30	26991.06
656.44	26235.06
656.58	26539.33
656.73	26448.05
656.87	26548.70
657.01	26396.56
657.16	26757.00
657.30	26445.71
657.45	26621.25
657.59	26387.20
657.73	26464.44
657.88	26450.39
658.02	26066.55
658.16	26382.52
658.31	26190.59
658.45	26019.74
658.60	25970.58
658.74	26096.97
658.88	26087.61
659.03	25900.37
659.17	26155.49
659.31	26118.04
659.46	25860.58
659.60	26118.04
659.74	26087.61
659.89	26019.74
660.03	25970.58
660.17	26096.97
660.32	25982.29
660.46	25479.07
660.60	25914.41
660.74	25722.49
660.89	25549.29
661.03	25324.60
661.17	25879.30
661.32	25717.81
661.46	25647.59
661.60	25509.50
661.74	25937.82
661.89	25682.70
662.03	25441.62
662.17	25338.64
662.31	25102.25
662.46	25364.39
662.60	25376.09
662.74	25315.23
662.88	25221.61
663.03	25425.24
663.17	24950.11
663.31	24919.68
663.45	24685.63
663.60	25294.17
663.74	24929.05
663.88	25238.00
664.02	24676.27
664.17	25245.02
664.31	25123.31
664.45	24842.45
664.59	24809.68
664.73	25331.62
664.88	24573.28
665.02	24320.51
665.16	24826.06
665.30	24982.88
665.44	24999.26
665.59	24482.00
665.73	24594.35
665.87	24758.19
666.01	24692.65
666.15	24723.08
666.29	24620.10
666.44	24664.57
666.58	24304.12
666.72	23971.77
666.86	24418.81
667.00	24704.35
667.14	24362.64
667.28	24121.56
667.43	24252.63
667.57	24273.70
667.71	24058.37
667.85	24311.14
667.99	24180.07
668.13	24072.41
668.27	23887.51
668.41	24238.59
668.56	24032.62
668.70	24077.09
668.84	24170.71
668.98	24322.85
669.12	23777.50
669.26	24149.65
669.40	23936.66
669.54	23718.99
669.68	23964.75
669.82	23562.17
669.96	23601.96
670.10	23590.26
670.25	23459.19
670.39	23466.21
670.53	23414.72
670.67	23388.97
670.81	23662.82
670.95	23194.71
671.09	23489.62
671.23	23342.16
671.37	23608.98
671.51	23768.14
671.65	23323.44
671.79	23267.27
671.93	23412.38
672.07	23192.37
672.21	23033.21
672.35	22892.78
672.49	22857.67
672.63	22691.49
672.77	22745.33
672.91	22752.35
673.05	22370.84
673.19	22977.04
673.33	22686.81
673.47	22630.64
673.61	22544.04
673.75	22759.37
673.89	22328.71
674.03	22831.93
674.17	22487.87
674.31	22267.86
674.45	22396.59
674.59	22345.09
674.73	22389.56
674.87	22441.06
675.01	22150.83
675.15	22073.59
675.29	21809.11
675.43	22190.62
675.56	22047.85
675.70	22085.30
675.84	22174.24
675.98	21551.65
676.12	21820.81
676.26	22040.82
676.40	21921.46
676.54	21731.87
676.68	21762.30
676.82	21270.79
676.96	21500.16
677.10	21153.76
677.23	21378.45
677.37	21561.02
677.51	21207.59
677.65	21074.18
677.79	21130.36
677.93	20987.58
678.07	20734.81
678.21	20863.54
678.34	21085.89
678.48	20961.84
678.62	20580.33
678.76	20570.97
678.90	20706.72
679.04	20620.12
679.18	20489.05
679.31	20159.03
679.45	20545.22
679.59	20343.94
679.73	20273.72
679.87	19976.47
680.00	19889.87
680.14	20198.82
680.28	19803.27
680.42	20013.92
680.56	20023.28
680.70	20276.06
680.83	20070.09
680.97	19789.23
681.11	19817.32
681.25	19508.37
681.39	19756.46
681.52	19676.88
681.66	19531.77
681.80	19269.63
681.94	19393.68
682.07	19391.34
682.21	19260.27
682.35	19269.63
682.49	19129.20
682.62	18902.17
682.76	19339.85
682.90	19168.99
683.04	19026.21
683.17	18829.61
683.31	18668.11
683.45	19023.87
683.59	18822.59
683.72	18752.37
683.86	18508.96
684.00	18876.42
684.13	18658.75
684.27	18597.90
684.41	18314.69
684.55	18141.49
684.68	17968.29
684.82	18200.01
684.96	18104.04
685.09	18099.36
685.23	17972.97
685.37	17916.80
685.50	18031.49
685.64	17965.95
685.78	17706.15
685.91	18080.64
686.05	17640.62
686.19	17823.18
686.32	17839.56
686.46	17305.92
686.60	17476.78
686.73	17408.90
686.87	17039.10
687.01	17542.32
687.14	17556.36
687.28	17046.12
687.42	16919.73
687.55	17025.06
687.69	16908.03
687.82	17111.66
687.96	16992.29
688.10	16671.64
688.23	16987.61
688.37	17062.51
688.50	16697.38
688.64	16816.75
688.78	16538.23
688.91	16566.31
689.05	16400.13
689.18	16720.79
689.32	16072.46
689.46	16039.69
689.59	16208.21
689.73	16510.14
689.86	16074.80
690.00	15939.05
690.13	16051.39
690.27	16219.91
690.41	16025.65
690.54	16269.06
690.68	15723.72
690.81	15733.08
690.95	15936.71
691.08	15740.10
691.22	15793.94
691.35	15637.12
691.49	15548.18
691.62	15815.00
691.76	15499.03
691.89	15232.21
692.03	15365.62
692.16	14958.36
692.30	14892.83
692.43	15096.46
692.57	15068.37
692.70	14932.62
692.84	14747.72
692.97	14508.98
693.11	14817.93
693.24	14743.03
693.38	14867.08
693.51	14490.26
693.65	14757.08
693.78	14567.49
693.92	14839.00
694.05	14508.98
694.19	14476.21
694.32	14225.78
694.45	14218.75
694.59	14218.75
694.72	13926.19
694.86	13834.91
694.99	13928.53
695.13	14295.99
695.26	13617.24
695.39	13816.18
695.53	13989.38
695.66	13970.66
695.80	13832.57
695.93	13996.40
696.07	13912.14
696.20	13699.16
696.33	13783.41
696.47	13619.58
696.60	13425.31
696.73	13654.69
696.87	13420.63
697.00	13317.65
697.14	13186.58
697.27	13170.19
697.40	12943.16
697.54	12870.61
697.67	12638.89
697.80	12964.23
697.94	12592.08
698.07	12669.32
698.21	12666.98
698.34	12573.36
698.47	12524.21
698.61	12575.70
698.74	12793.37
698.87	12664.64
699.01	12428.24
699.14	12425.90
699.27	12402.50
699.40	12381.43
699.54	12257.39
699.67	12208.23
699.80	12114.61
699.94	12166.10
700.07	11943.75
700.20	11655.87
700.34	11744.81
700.47	11815.02
700.60	11798.64
700.73	12095.89
700.87	11632.46
701.00	11487.35
701.13	11765.87
701.26	11644.17
701.40	11754.17
701.53	11674.59
701.66	11702.68
701.79	11342.24
701.93	11438.20
702.06	11447.56
702.19	11019.24
702.32	11089.46
702.46	11023.92
702.59	11044.99
702.72	10897.53
702.85	11183.08
702.99	10832.00
703.12	10806.25
703.25	10855.40
703.38	10923.28
703.51	10892.85
703.65	10972.43
703.78	10750.08
703.91	10731.36
704.04	10757.10
704.17	10663.48
704.31	10511.35
704.44	10553.48
704.57	10462.19
704.70	10389.64
704.83	10277.29
704.96	10260.91
705.10	10164.95
705.23	10230.48
>>>>>End Processed Spectral Data<<<<<
