SpectraSuite Data File
++++++++++++++++++++++++++++++++++++
Date: Fri Oct 18 13:58:43 GMT-05:00 2013
User: bianchi
Dark Spectrum Present: No
Reference Spectrum Present: No
Number of Sampled Component Spectra: 1
Spectrometers: USB2+H05261
Integration Time (usec): 50000 (USB2+H05261)
Spectra Averaged: 1 (USB2+H05261)
Boxcar Smoothing: 0 (USB2+H05261)
Correct for Electrical Dark: No (USB2+H05261)
Strobe/Lamp Enabled: No (USB2+H05261)
Correct for Detector Non-linearity: No (USB2+H05261)
Correct for Stray Light: No (USB2+H05261)
Number of Pixels in Processed Spectrum: 2048
>>>>>Begin Processed Spectral Data<<<<<
365.73	0.00
365.92	0.00
366.12	0.00
366.32	0.00
366.52	0.00
366.72	0.00
366.91	0.00
367.11	0.00
367.31	0.00
367.51	0.00
367.70	0.00
367.90	0.00
368.10	0.00
368.30	0.00
368.49	0.00
368.69	0.00
368.89	0.00
369.09	0.00
369.28	0.00
369.48	0.00
369.68	0.00
369.87	0.00
370.07	0.00
370.27	0.00
370.47	0.00
370.66	100.64
370.86	117.03
371.06	112.35
371.25	88.94
371.45	100.64
371.65	102.98
371.84	154.48
372.04	126.39
372.24	163.84
372.44	126.39
372.63	229.37
372.83	182.56
373.03	198.95
373.22	222.35
373.42	203.63
373.62	227.03
373.81	241.08
374.01	196.60
374.21	217.67
374.40	205.97
374.60	224.69
374.79	187.24
374.99	182.56
375.19	215.33
375.38	294.91
375.58	203.63
375.78	264.48
375.97	210.65
376.17	255.12
376.37	308.95
376.56	262.14
376.76	210.65
376.95	325.33
377.15	245.76
377.35	304.27
377.54	248.10
377.74	280.86
377.93	248.10
378.13	271.50
378.33	280.86
378.52	241.08
378.72	203.63
378.91	285.55
379.11	304.27
379.31	203.63
379.50	294.91
379.70	330.02
379.89	346.40
380.09	330.02
380.28	215.33
380.48	332.36
380.68	273.84
380.87	334.70
381.07	266.82
381.26	292.57
381.46	341.72
381.65	332.36
381.85	348.74
382.04	334.70
382.24	257.46
382.43	280.86
382.63	360.44
382.83	330.02
383.02	346.40
383.22	465.77
383.41	386.19
383.61	355.76
383.80	322.99
384.00	353.42
384.19	414.27
384.39	372.15
384.58	362.78
384.78	374.49
384.97	444.70
385.17	348.74
385.36	376.83
385.56	425.98
385.75	369.80
385.95	381.51
386.14	353.42
386.34	367.46
386.53	365.12
386.72	409.59
386.92	477.47
387.11	484.49
387.31	437.68
387.50	491.51
387.70	423.64
387.89	407.25
388.09	404.91
388.28	477.47
388.48	425.98
388.67	514.92
388.86	472.79
389.06	435.34
389.25	493.85
389.45	423.64
389.64	512.58
389.84	456.40
390.03	437.68
390.22	433.00
390.42	425.98
390.61	463.43
390.81	486.83
391.00	442.36
391.19	475.13
391.39	458.74
391.58	437.68
391.78	538.32
391.97	526.62
392.16	547.69
392.36	538.32
392.55	585.13
392.75	479.81
392.94	557.05
393.13	503.22
393.33	601.52
393.52	538.32
393.71	631.94
393.91	545.34
394.10	585.13
394.29	564.07
394.49	559.39
394.68	552.37
394.88	592.16
395.07	653.01
395.26	674.07
395.46	587.47
395.65	657.69
395.84	629.60
396.04	683.44
396.23	660.03
396.42	615.56
396.62	631.94
396.81	716.20
397.00	667.05
397.19	596.84
397.39	641.31
397.58	638.97
397.77	702.16
397.97	615.56
398.16	706.84
398.35	788.76
398.55	674.07
398.74	713.86
398.93	755.99
399.12	723.23
399.32	641.31
399.51	671.73
399.70	688.12
399.90	758.33
400.09	758.33
400.28	772.38
400.47	755.99
400.67	734.93
400.86	751.31
401.05	725.57
401.24	734.93
401.44	704.50
401.63	800.46
401.82	781.74
402.01	802.80
402.21	798.12
402.40	873.02
402.59	802.80
402.78	793.44
402.97	814.51
403.17	791.10
403.36	746.63
403.55	837.91
403.74	891.74
403.93	936.21
404.13	912.81
404.32	847.27
404.51	894.08
404.70	968.98
404.89	856.64
405.09	945.58
405.28	908.13
405.47	901.11
405.66	851.96
405.85	915.15
406.05	997.07
406.24	968.98
406.43	950.26
406.62	901.11
406.81	980.68
407.00	964.30
407.20	866.00
407.39	1020.47
407.58	1018.13
407.77	1041.54
407.96	1034.52
408.15	1004.09
408.34	1116.44
408.54	1074.31
408.73	1083.67
408.92	1071.97
409.11	1071.97
409.30	964.30
409.49	1128.14
409.68	1100.05
409.87	1158.57
410.07	1121.12
410.26	1210.06
410.45	1116.44
410.64	1174.95
410.83	1116.44
411.02	1207.72
411.21	1203.04
411.40	1174.95
411.59	1233.46
411.78	1224.10
411.98	1263.89
412.17	1301.34
412.36	1282.61
412.55	1266.23
412.74	1247.51
412.93	1373.89
413.12	1411.34
413.31	1425.39
413.50	1362.19
413.69	1371.55
413.88	1409.00
414.07	1378.58
414.26	1441.77
414.45	1500.28
414.64	1401.98
414.83	1561.14
415.02	1409.00
415.22	1476.88
415.41	1572.84
415.60	1460.49
415.79	1526.03
415.98	1561.14
416.17	1596.25
416.36	1561.14
416.55	1673.48
416.74	1652.42
416.93	1661.78
417.12	1717.95
417.31	1607.95
417.50	1755.40
417.69	1760.08
417.88	1696.89
418.07	1710.93
418.26	1589.22
418.45	1743.70
418.64	1818.60
418.83	1755.40
419.02	1666.46
419.21	1886.47
419.39	1827.96
419.58	1746.04
419.77	1802.21
419.96	1858.39
420.15	1809.23
420.34	1771.79
420.53	1816.26
420.72	1921.58
420.91	1963.71
421.10	1884.13
421.29	1928.60
421.48	1764.76
421.67	1909.88
421.86	1984.77
422.05	1956.69
422.24	1998.82
422.43	1928.60
422.61	1975.41
422.80	1963.71
422.99	1996.48
423.18	1982.43
423.37	2031.58
423.56	2001.16
423.75	1923.92
423.94	1956.69
424.13	1874.77
424.32	1923.92
424.50	1998.82
424.69	2052.65
424.88	1982.43
425.07	2073.71
425.26	2050.31
425.45	2092.44
425.64	2085.42
425.83	1970.73
426.01	2040.95
426.20	2019.88
426.39	1975.41
426.58	2026.90
426.77	2052.65
426.96	2097.12
427.15	2062.01
427.33	2071.37
427.52	2148.61
427.71	2106.48
427.90	2167.34
428.09	2045.63
428.28	2169.68
428.46	2146.27
428.65	2165.00
428.84	2179.04
429.03	2200.10
429.22	2127.55
429.40	2183.72
429.59	2211.81
429.78	2087.76
429.97	2153.29
430.16	2190.74
430.34	2422.45
430.53	2310.11
430.72	2385.01
430.91	2403.73
431.10	2324.15
431.28	2385.01
431.47	2312.45
431.66	2333.51
431.85	2417.77
432.03	2345.22
432.22	2483.31
432.41	2356.92
432.60	2342.88
432.79	2403.73
432.97	2366.28
433.16	2410.75
433.35	2382.67
433.54	2317.13
433.72	2485.65
433.91	2504.37
434.10	2495.01
434.28	2436.50
434.47	2422.45
434.66	2513.74
434.85	2663.53
435.03	2541.82
435.22	2548.84
435.41	2616.72
435.59	2455.22
435.78	2729.06
435.97	2722.04
436.16	2759.49
436.34	2675.23
436.53	2698.64
436.72	2738.43
436.90	2621.40
437.09	2693.96
437.28	2628.42
437.46	2658.85
437.65	2750.13
437.84	2733.75
438.02	2787.58
438.21	2729.06
438.40	2696.30
438.58	2836.73
438.77	2829.71
438.96	2757.15
439.14	2923.33
439.33	2965.46
439.52	2956.10
439.70	2970.14
439.89	2946.73
440.08	2897.58
440.26	3021.63
440.45	3075.46
440.63	3124.62
440.82	3054.40
441.01	3054.40
441.19	3265.05
441.38	3124.62
441.57	3236.96
441.75	3213.56
441.94	3204.19
442.12	3286.11
442.31	3368.03
442.50	3211.22
442.68	3358.67
442.87	3272.07
443.05	3335.26
443.24	3314.20
443.43	3283.77
443.61	3183.13
443.80	3372.71
443.98	3428.88
444.17	3246.32
444.35	3459.31
444.54	3461.65
444.73	3349.31
444.91	3370.37
445.10	3384.41
445.28	3351.65
445.47	3433.57
445.65	3365.69
445.84	3461.65
446.02	3421.86
446.21	3391.44
446.39	3386.76
446.58	3527.19
446.77	3487.40
446.95	3363.35
447.14	3473.36
447.32	3578.68
447.51	3571.66
447.69	3407.82
447.88	3480.38
448.06	3438.25
448.25	3520.17
448.43	3503.78
448.62	3328.24
448.80	3391.44
448.99	3611.45
449.17	3644.21
449.36	3550.59
449.54	3571.66
449.73	3758.90
449.91	3721.45
450.10	3721.45
450.28	3740.18
450.46	3574.00
450.65	3744.86
450.83	3667.62
451.02	3702.73
451.20	3801.03
451.39	3857.20
451.57	3857.20
451.76	3723.79
451.94	3796.35
452.13	3927.42
452.31	3873.59
452.49	3632.51
452.68	3896.99
452.86	3875.93
453.05	3803.37
453.23	3939.12
453.42	3854.86
453.60	3763.58
453.78	3887.63
453.97	3843.16
454.15	4086.58
454.34	3812.73
454.52	3857.20
454.70	4016.36
454.89	3971.89
455.07	3932.10
455.26	3981.25
455.44	4044.45
455.62	4060.83
455.81	4025.72
455.99	4081.89
456.17	4138.07
456.36	4007.00
456.54	4084.23
456.73	4224.67
456.91	4386.16
457.09	4428.29
457.28	4334.67
457.46	4231.69
457.64	4337.01
457.83	4170.83
458.01	4126.36
458.19	4313.61
458.38	4372.12
458.56	4423.61
458.74	4297.22
458.93	4346.37
459.11	4451.70
459.29	4278.50
459.48	4542.98
459.66	4526.60
459.84	4486.81
460.03	4596.81
460.21	4456.38
460.39	4440.00
460.57	4564.04
460.76	4636.60
460.94	4582.77
461.12	4606.17
461.31	4498.51
461.49	4557.02
461.67	4561.70
461.85	4657.67
462.04	4636.60
462.22	4772.35
462.40	4671.71
462.59	4695.11
462.77	4671.71
462.95	4802.78
463.13	4688.09
463.32	4793.42
463.50	4849.59
463.68	4821.50
463.86	4788.74
464.05	4727.88
464.23	4858.95
464.41	4884.70
464.59	4753.63
464.78	4788.74
464.96	4837.89
465.14	4716.18
465.32	4854.27
465.50	4943.21
465.69	4994.70
465.87	4889.38
466.05	4868.31
466.23	5001.72
466.41	4959.60
466.60	5123.43
466.78	4849.59
466.96	5004.07
467.14	4964.28
467.32	4997.04
467.51	5135.14
467.69	4938.53
467.87	5064.92
468.05	5160.88
468.23	5013.43
468.41	5219.39
468.60	5184.29
468.78	5167.90
468.96	5069.60
469.14	5184.29
469.32	5352.81
469.50	5090.67
469.69	5334.08
469.87	5507.28
470.05	5338.76
470.23	5345.78
470.41	5179.61
470.59	5406.64
470.77	5408.98
470.95	5366.85
471.14	5418.34
471.32	5329.40
471.50	5577.50
471.68	5521.32
471.86	5617.29
472.04	5598.56
472.22	5743.67
472.40	5495.58
472.58	5598.56
472.77	5680.48
472.95	5722.61
473.13	5923.90
473.31	5694.52
473.49	5605.58
473.67	5769.42
473.85	5874.74
474.03	6101.78
474.21	5970.71
474.39	5998.79
474.57	6029.22
474.75	6214.12
474.93	6235.19
475.12	6101.78
475.30	6033.90
475.48	6134.54
475.66	6141.57
475.84	6274.98
476.02	6312.42
476.20	6363.92
476.38	6560.52
476.56	6387.32
476.74	6455.20
476.92	6483.28
477.10	6349.87
477.28	6476.26
477.46	6457.54
477.64	6544.14
477.82	6750.10
478.00	6775.85
478.18	6846.07
478.36	6876.49
478.54	6984.16
478.72	7133.95
478.90	6963.09
479.08	7241.62
479.26	7124.59
479.44	7414.82
479.62	7255.66
479.80	7194.81
479.98	7290.77
480.16	7501.42
480.34	7517.80
480.52	7557.59
480.70	7461.63
480.88	7384.39
481.06	7536.52
481.24	7676.96
481.41	7705.04
481.59	7927.39
481.77	7983.57
481.95	7887.61
482.13	8093.57
482.31	8006.97
482.49	8084.21
482.67	8109.96
482.85	8393.16
483.03	8348.69
483.21	8423.59
483.39	8465.72
483.57	8418.91
483.74	8592.11
483.92	8688.07
484.10	8479.76
484.28	8762.97
484.46	8856.59
484.64	9188.94
484.82	8896.38
485.00	8945.53
485.18	9193.62
485.35	9430.02
485.53	9273.20
485.71	9312.99
485.89	9563.43
486.07	9207.67
486.25	9533.00
486.43	9303.63
486.61	9521.30
486.78	10005.79
486.96	9804.50
487.14	10003.45
487.32	9792.80
487.50	9991.75
487.68	10071.33
487.85	10286.65
488.03	10356.87
488.21	10471.56
488.39	10583.90
488.57	10422.41
488.75	10682.20
488.92	10733.70
489.10	10794.55
489.28	10897.53
489.46	10883.49
489.64	10857.75
489.81	11044.99
489.99	11269.68
490.17	11335.21
490.35	11517.78
490.53	11557.57
490.70	11583.31
490.88	11426.50
491.06	11508.41
491.24	11709.70
491.41	11754.17
491.59	11901.62
491.77	11910.99
491.95	11887.58
492.13	11992.90
492.30	12259.73
492.48	12219.94
492.66	12241.00
492.84	12308.88
493.01	12346.33
493.19	12236.32
493.37	12456.33
493.54	12870.61
493.72	12545.27
493.90	12814.43
494.08	12828.48
494.25	12755.92
494.43	13137.43
494.61	13345.73
494.79	13142.11
494.96	13193.60
495.14	13130.41
495.32	13348.08
495.49	13394.89
495.67	13319.99
495.85	13413.61
496.02	13701.50
496.20	13872.36
496.38	13804.48
496.55	13767.03
496.73	14476.21
496.91	13961.30
497.09	14317.06
497.26	14272.59
497.44	14090.02
497.62	14298.33
497.79	14281.95
497.97	14270.25
498.14	14656.43
498.32	14796.87
498.50	14537.07
498.67	14773.46
498.85	14401.32
499.03	14843.68
499.20	14705.59
499.38	14953.68
499.56	15194.76
499.73	15108.16
499.91	15241.57
500.08	15122.20
500.26	15119.86
500.44	15150.29
500.61	15449.88
500.79	15267.31
500.97	15627.76
501.14	15690.95
501.32	15435.83
501.49	15372.64
501.67	15578.61
501.84	15716.70
502.02	15768.19
502.20	16051.39
502.37	15943.73
502.55	15805.64
502.72	15988.20
502.90	15873.51
503.07	15969.48
503.25	16100.55
503.43	16011.60
503.60	16135.65
503.78	16566.31
503.95	16458.65
504.13	16273.74
504.30	16704.40
504.48	16505.46
504.65	16681.00
504.83	16688.02
505.01	16844.84
505.18	16781.64
505.36	16718.45
505.53	16798.02
505.71	16915.05
505.88	16903.35
506.06	16917.39
506.23	17088.25
506.41	17240.39
506.58	17383.16
506.76	17001.65
506.93	17343.37
507.11	16957.18
507.28	17231.02
507.46	17427.63
507.63	17488.48
507.81	17795.09
507.98	17434.65
508.16	17762.33
508.33	17708.49
508.50	17717.86
508.68	17891.06
508.85	17804.46
509.03	17830.20
509.20	17795.09
509.38	18525.34
509.55	18139.15
509.73	18190.64
509.90	18111.07
510.08	17776.37
510.25	18162.56
510.42	18370.86
510.60	18251.50
510.77	18314.69
510.95	18382.57
511.12	18225.75
511.30	18450.44
511.47	18728.97
511.64	18621.30
511.82	18822.59
511.99	18750.03
512.17	18764.07
512.34	18977.06
512.51	19016.85
512.69	19173.67
512.86	19023.87
513.04	19063.66
513.21	19300.06
513.38	19349.21
513.56	19426.45
513.73	18853.02
513.90	19183.03
514.08	18988.77
514.25	19501.34
514.43	19370.27
514.60	19475.60
514.77	19700.29
514.95	19648.80
515.12	19431.13
515.29	19693.27
515.47	19686.25
515.64	20060.73
515.81	19641.78
515.99	19775.19
516.16	20121.59
516.33	20100.52
516.51	20020.94
516.68	19719.01
516.85	20222.23
517.03	20231.59
517.20	20212.87
517.37	20538.20
517.54	20332.23
517.72	20685.65
517.89	20423.51
518.06	19997.54
518.24	20269.04
518.41	20507.77
518.58	20582.67
518.75	20510.11
518.93	20664.59
519.10	20645.87
519.27	20669.27
519.45	20922.05
519.62	20943.11
519.79	20718.42
519.96	20498.41
520.14	20961.84
520.31	21078.86
520.48	21296.53
520.65	21022.69
520.83	21422.92
521.00	21142.06
521.17	21186.53
521.34	21341.00
521.52	21193.55
521.69	21453.35
521.86	21521.23
522.03	21818.47
522.20	21806.77
522.38	21359.73
522.55	21553.99
522.72	21731.87
522.89	21631.23
523.07	21565.70
523.24	21851.24
523.41	21926.14
523.58	21816.13
523.75	21902.73
523.92	21647.61
524.10	21977.63
524.27	22052.53
524.44	22078.27
524.61	22071.25
524.78	22632.98
524.96	22150.83
525.13	22146.15
525.30	21965.93
525.47	22410.63
525.64	22134.45
525.81	22174.24
525.98	22991.08
526.16	22443.40
526.33	22258.49
526.50	22761.71
526.67	22569.79
526.84	22581.49
527.01	22511.27
527.18	22874.06
527.36	22953.63
527.53	22852.99
527.70	23227.48
527.87	22815.54
528.04	22707.88
528.21	22972.36
528.38	23201.73
528.55	23168.96
528.72	23061.30
528.89	23267.27
529.07	23229.82
529.24	23105.77
529.41	22953.63
529.58	23211.09
529.75	23168.96
529.92	22946.61
530.09	22738.30
530.26	23412.38
530.43	23515.36
530.60	23344.50
530.77	23122.15
530.94	23285.99
531.11	23054.28
531.28	23651.11
531.46	23548.13
531.63	23573.88
531.80	24105.18
531.97	23730.69
532.14	23859.42
532.31	23683.88
532.48	23744.73
532.65	23868.78
532.82	23747.08
532.99	23803.25
533.16	24046.66
533.33	23957.72
533.50	24051.34
533.67	24189.44
533.84	23924.96
534.01	23871.12
534.18	24102.84
534.35	24177.73
534.52	24030.28
534.69	24065.39
534.86	24439.87
535.03	24056.03
535.20	24671.59
535.37	24306.46
535.54	24514.77
535.71	24372.00
535.88	24149.65
536.05	24348.59
536.22	24680.95
536.38	24463.28
536.55	24744.14
536.72	24835.42
536.89	24414.13
537.06	24528.81
537.23	24973.52
537.40	24683.29
537.57	24606.05
537.74	25097.56
537.91	24851.81
538.08	24790.95
538.25	24758.19
538.42	24882.24
538.59	25095.22
538.75	25123.31
538.92	24940.75
539.09	25228.63
539.26	25062.46
539.43	25275.45
539.60	25160.76
539.77	25238.00
539.94	25703.76
540.11	25111.61
540.28	24875.21
540.44	25048.41
540.61	25109.27
540.78	25352.68
540.95	25652.27
541.12	25261.40
541.29	25617.16
541.46	25399.49
541.62	25668.66
541.79	25413.54
541.96	25336.30
542.13	25488.43
542.30	25734.19
542.47	25645.25
542.63	25689.72
542.80	26031.44
542.97	26132.08
543.14	26328.69
543.31	25944.84
543.48	25804.41
543.64	25886.32
543.81	26134.42
543.98	26321.66
544.15	26192.94
544.32	26223.36
544.48	26403.58
544.65	26218.68
544.82	26199.96
544.99	26302.94
545.16	26352.09
545.32	26068.89
545.49	26459.76
545.66	26473.80
545.83	26249.11
546.00	26820.20
546.16	26647.00
546.33	25998.67
546.50	26015.05
546.67	26436.35
546.83	26148.46
547.00	26700.83
547.17	26796.79
547.34	26167.19
547.50	26408.26
547.67	26939.57
547.84	26469.12
548.00	26675.09
548.17	26806.16
548.34	26867.01
548.51	26965.31
548.67	27206.39
548.84	26670.40
549.01	27021.48
549.18	27058.93
549.34	26754.66
549.51	27063.61
549.68	26927.86
549.84	27129.15
550.01	27101.06
550.18	26747.64
550.34	27260.22
550.51	27243.84
550.68	27344.48
550.84	26984.04
551.01	27225.11
551.18	27372.57
551.34	26703.17
551.51	27178.30
551.68	27091.70
551.84	27309.37
552.01	27065.96
552.18	27314.05
552.34	27435.76
552.51	27651.09
552.68	27325.75
552.84	27742.37
553.01	27480.23
553.18	27578.53
553.34	27550.45
553.51	27725.99
553.67	27606.62
553.84	27337.46
554.01	27817.27
554.17	27709.60
554.34	27733.01
554.51	27421.72
554.67	27328.10
554.84	27821.95
555.00	27578.53
555.17	27562.15
555.33	28168.35
555.50	27751.73
555.67	27283.62
555.83	27491.93
556.00	27936.63
556.16	28158.99
556.33	27943.66
556.50	27922.59
556.66	28474.96
556.83	27845.35
556.99	28137.92
557.16	28524.11
557.32	28067.70
557.49	28304.10
557.65	27946.00
557.82	27821.95
557.98	27936.63
558.15	28189.41
558.32	28283.03
558.48	28051.32
558.65	28566.24
558.81	28130.90
558.98	28163.67
559.14	28173.03
559.31	27943.66
559.47	28402.40
559.64	28236.22
559.80	28254.95
559.97	28304.10
560.13	28353.25
560.30	28584.96
560.46	28402.40
560.63	28339.21
560.79	28500.70
560.96	28685.61
561.12	28421.13
561.29	28486.66
561.45	28397.72
561.61	28479.64
561.78	28456.23
561.94	28540.49
562.11	28896.25
562.27	28484.32
562.44	28374.31
562.60	28545.17
562.77	28428.15
562.93	28449.21
563.10	28704.33
563.26	28599.01
563.42	28964.13
563.59	28755.82
563.75	28641.14
563.92	28751.14
564.08	28669.22
564.24	28727.74
564.41	28816.68
564.57	28545.17
564.74	28552.20
564.90	29139.67
565.07	28629.43
565.23	28645.82
565.39	28430.49
565.56	28734.76
565.72	28793.27
565.88	28652.84
566.05	28697.31
566.21	28659.86
566.38	28718.37
566.54	28662.20
566.70	28879.87
566.87	29259.04
567.03	28430.49
567.19	29345.64
567.36	28989.88
567.52	28603.69
567.68	28978.17
567.85	28762.84
568.01	29118.60
568.17	29158.39
568.34	28751.14
568.50	28994.56
568.66	29090.52
568.83	29050.73
568.99	28989.88
569.15	29160.73
569.32	29048.39
569.48	28868.17
569.64	29048.39
569.81	29146.69
569.97	29116.26
570.13	29645.23
570.30	29142.01
570.46	29291.80
570.62	28954.77
570.78	28900.94
570.95	29127.97
571.11	29303.51
571.27	29022.64
571.43	28968.81
571.60	29280.10
571.76	28954.77
571.92	28973.49
572.09	28842.42
572.25	29635.86
572.41	29247.33
572.57	29228.61
572.74	29287.12
572.90	28823.70
573.06	29465.00
573.22	28823.70
573.38	29041.37
573.55	29404.15
573.71	29369.04
573.87	29216.91
574.03	29240.31
574.20	29645.23
574.36	29099.88
574.52	29188.82
574.68	29001.58
574.84	29289.46
575.01	29118.60
575.17	29350.32
575.33	29139.67
575.49	29092.86
575.65	29699.06
575.82	29399.47
575.98	29273.08
576.14	29390.11
576.30	29457.98
576.46	29095.20
576.62	29607.78
576.79	29219.25
576.95	29542.24
577.11	29134.99
577.27	29556.28
577.43	28931.36
577.59	29041.37
577.75	29216.91
577.92	29518.84
578.08	28961.79
578.24	29240.31
578.40	29656.93
578.56	29579.69
578.72	29394.79
578.88	29345.64
579.04	29682.67
579.21	29270.74
579.37	29572.67
579.53	29532.88
579.69	29371.38
579.85	29579.69
580.01	29315.21
580.17	29247.33
580.33	29296.49
580.49	29558.63
580.65	29624.16
580.82	29383.09
580.98	29579.69
581.14	29631.18
581.30	29481.39
581.46	29390.11
581.62	29642.88
581.78	29230.95
581.94	29645.23
582.10	29457.98
582.26	29628.84
582.42	29488.41
582.58	29675.65
582.74	29724.80
582.90	29855.87
583.06	29427.56
583.22	29624.16
583.38	29600.76
583.54	29617.14
583.70	29415.85
583.86	29362.02
584.02	29326.91
584.18	29434.58
584.34	29593.73
584.50	29429.90
584.66	29350.32
584.82	29589.05
584.98	29390.11
585.14	29369.04
585.30	29544.58
585.46	29411.17
585.62	29186.48
585.78	29399.47
585.94	29127.97
586.10	29392.45
586.26	29397.13
586.42	29783.32
586.58	29336.27
586.74	29736.51
586.90	29460.32
587.06	29408.83
587.22	29373.72
587.38	29713.10
587.54	29659.27
587.70	29607.78
587.86	29586.71
588.02	30045.46
588.18	29680.33
588.34	29647.57
588.49	29848.85
588.65	29675.65
588.81	29476.71
588.97	29376.06
589.13	29462.66
589.29	29876.94
589.45	29745.87
589.61	30237.38
589.77	30515.90
589.93	29970.56
590.08	30052.48
590.24	30129.72
590.40	29937.79
590.56	29788.00
590.72	29862.90
590.88	30052.48
591.04	29579.69
591.20	30249.08
591.35	30052.48
591.51	30417.60
591.67	29839.49
591.83	30150.78
591.99	30307.60
592.15	29865.24
592.31	29610.12
592.46	29586.71
592.62	29668.63
592.78	29846.51
592.94	30066.52
593.10	29708.42
593.26	29898.00
593.41	30244.40
593.57	29919.07
593.73	30005.67
593.89	30005.67
594.05	29731.83
594.20	29993.97
594.36	29909.71
594.52	29799.70
594.68	29736.51
594.84	29729.48
594.99	29888.64
595.15	30167.16
595.31	30391.86
595.47	30382.49
595.62	30167.16
595.78	30171.85
595.94	30075.88
596.10	30307.60
596.25	30391.86
596.41	30015.03
596.57	29715.44
596.73	30305.26
596.88	29603.10
597.04	29986.94
597.20	29912.05
597.36	30340.36
597.51	29895.66
597.67	30134.40
597.83	30008.01
597.99	29907.37
598.14	29762.25
598.30	29895.66
598.46	29888.64
598.61	30181.21
598.77	29724.80
598.93	29853.53
599.09	30192.91
599.24	30480.80
599.40	30139.08
599.56	30267.81
599.71	30110.99
599.87	30267.81
600.03	30256.11
600.18	30026.73
600.34	29869.92
600.50	30115.67
600.65	30139.08
600.81	30394.20
600.97	30192.91
601.12	30625.91
601.28	30448.03
601.44	30244.40
601.59	30508.88
601.75	30401.22
601.91	30321.64
602.06	29888.64
602.22	30288.87
602.37	29631.18
602.53	29869.92
602.69	30199.93
602.84	30408.24
603.00	29986.94
603.16	30230.36
603.31	30108.65
603.47	29998.65
603.62	29933.11
603.78	30101.63
603.94	30216.32
604.09	30061.84
604.25	29935.45
604.40	30010.35
604.56	30031.41
604.71	30342.70
604.87	30366.11
605.03	30237.38
605.18	29907.37
605.34	29909.71
605.49	29603.10
605.65	30000.99
605.80	29567.99
605.96	29956.52
606.12	29556.28
606.27	29944.81
606.43	29591.39
606.58	30497.18
606.74	29654.59
606.89	30092.27
607.05	30555.69
607.20	30412.92
607.36	30017.37
607.51	30206.95
607.67	29916.73
607.82	29912.05
607.98	30043.12
608.13	29818.42
608.29	30059.50
608.44	29820.77
608.60	30059.50
608.75	30455.05
608.91	30195.25
609.06	30195.25
609.22	30127.38
609.37	29521.18
609.53	29563.31
609.68	29701.40
609.84	29764.59
609.99	30085.25
610.15	29790.34
610.30	29834.81
610.46	29853.53
610.61	29476.71
610.76	29844.17
610.92	29830.13
611.07	29947.15
611.23	29696.72
611.38	29844.17
611.54	29649.91
611.69	29748.21
611.84	29537.56
612.00	29930.77
612.15	29579.69
612.31	29818.42
612.46	29675.65
612.62	30059.50
612.77	29598.41
612.92	29900.34
613.08	29591.39
613.23	29982.26
613.39	29605.44
613.54	29043.71
613.69	30033.75
613.85	29127.97
614.00	29532.88
614.15	29476.71
614.31	29509.47
614.46	29462.66
614.62	29607.78
614.77	29677.99
614.92	29642.88
615.08	29553.94
615.23	29230.95
615.38	29338.62
615.54	29092.86
615.69	29237.97
615.84	29242.65
616.00	29184.14
616.15	29670.97
616.30	29439.26
616.46	29371.38
616.61	29378.40
616.76	29427.56
616.92	29067.11
617.07	29453.30
617.22	28952.43
617.37	28870.51
617.53	29223.93
617.68	28959.45
617.83	29156.05
617.99	29097.54
618.14	28872.85
618.29	29497.77
618.45	29057.75
618.60	29450.96
618.75	29425.22
618.90	28755.82
619.06	29216.91
619.21	29027.32
619.36	29139.67
619.51	28959.45
619.67	28584.96
619.82	28922.00
619.97	29071.79
620.12	28781.57
620.28	28828.38
620.43	28819.02
620.58	29109.24
620.73	28947.75
620.89	29008.60
621.04	29130.31
621.19	28858.81
621.34	28732.42
621.49	28842.42
621.65	28479.64
621.80	28783.91
621.95	28580.28
622.10	28802.63
622.25	28847.10
622.41	28554.54
622.56	28566.24
622.71	28821.36
622.86	28847.10
623.01	28865.83
623.16	28875.19
623.32	28526.45
623.47	28877.53
623.62	28507.72
623.77	28552.20
623.92	28851.78
624.07	28519.43
624.23	28229.20
624.38	28697.31
624.53	28404.74
624.68	28741.78
624.83	28435.17
624.98	28709.01
625.13	28374.31
625.29	28496.02
625.44	29006.26
625.59	28273.67
625.74	28341.55
625.89	28379.00
626.04	27878.12
626.19	28315.80
626.34	28039.62
626.49	27800.88
626.65	28510.07
626.80	28063.02
626.95	27941.32
627.10	28163.67
627.25	28107.49
627.40	28276.01
627.55	28048.98
627.70	27866.42
627.85	27538.74
628.00	27543.42
628.15	27700.24
628.30	27831.31
628.45	27798.54
628.60	28095.79
628.76	27761.09
628.91	28002.17
629.06	27924.93
629.21	27833.65
629.36	28379.00
629.51	28030.26
629.66	27803.22
629.81	27562.15
629.96	27592.58
630.11	27503.64
630.26	27690.88
630.41	27751.73
630.56	27667.47
630.71	27782.16
630.86	27791.52
631.01	27426.40
631.16	27461.51
631.31	27510.66
631.46	27419.38
631.61	27597.26
631.76	27487.25
631.91	27508.32
632.06	27704.92
632.21	27161.92
632.36	27669.81
632.51	27433.42
632.66	27463.85
632.81	27307.03
632.96	27749.39
633.10	27583.21
633.25	27529.38
633.40	27513.00
633.55	27426.40
633.70	27229.79
633.85	27428.74
634.00	27414.69
634.15	27428.74
634.30	27302.35
634.45	27068.30
634.60	27211.07
634.75	27335.12
634.90	27491.93
635.05	27211.07
635.19	27295.33
635.34	27531.72
635.49	27351.50
635.64	27424.06
635.79	27346.82
635.94	27056.59
636.09	27339.80
636.24	26909.14
636.39	26724.24
636.53	27412.35
636.68	27211.07
636.83	26593.17
636.98	27122.13
637.13	27042.55
637.28	27023.83
637.43	26862.33
637.57	27325.75
637.72	26895.10
637.87	26916.16
638.02	26740.62
638.17	26969.99
638.32	26719.56
638.46	26773.39
638.61	26700.83
638.76	26647.00
638.91	26616.57
639.06	26789.77
639.20	26775.73
639.35	26958.29
639.50	26696.15
639.65	26916.16
639.80	27180.64
639.94	27101.06
640.09	26618.91
640.24	26574.44
640.39	26789.77
640.54	26345.07
640.68	26494.86
640.83	26579.12
640.98	26324.01
641.13	26501.89
641.27	27138.51
641.42	26422.31
641.57	26658.70
641.72	26728.92
641.86	26391.88
642.01	26335.71
642.16	26312.30
642.31	26319.32
642.45	26614.23
642.60	26228.04
642.75	26127.40
642.90	26237.41
643.04	26312.30
643.19	26216.34
643.34	26115.70
643.48	26455.08
643.63	26298.26
643.78	26316.98
643.93	26209.32
644.07	26223.36
644.22	26724.24
644.37	26291.24
644.51	26267.83
644.66	26429.33
644.81	26019.74
644.95	25977.61
645.10	26001.01
645.25	26068.89
645.39	26202.30
645.54	25972.92
645.69	26101.65
645.83	26085.27
645.98	25984.63
646.13	26040.80
646.27	25872.28
646.42	26026.76
646.57	26307.62
646.71	25673.34
646.86	25652.27
647.00	26080.59
647.15	25930.80
647.30	25813.77
647.44	25708.44
647.59	26438.69
647.74	25568.01
647.88	25963.56
648.03	25799.73
648.17	25895.69
648.32	25949.52
648.47	25773.98
648.61	25907.39
648.76	26059.52
648.90	25802.07
649.05	25921.43
649.20	25727.17
649.34	25525.88
649.49	25170.12
649.63	25432.26
649.78	25411.20
649.92	25462.69
650.07	25666.31
650.21	25977.61
650.36	25420.56
650.51	25755.26
650.65	25869.94
650.80	25394.81
650.94	25479.07
651.09	25390.13
651.23	25298.85
651.38	25806.75
651.52	25151.40
651.67	25179.48
651.81	25762.28
651.96	25804.41
652.10	25326.94
652.25	25633.55
652.39	25769.30
652.54	25497.80
652.68	25762.28
652.83	25865.26
652.97	25509.50
653.12	25132.67
653.26	25125.65
653.41	25006.28
653.55	25095.22
653.70	24933.73
653.84	25144.38
653.99	25003.94
654.13	25263.74
654.27	25006.28
654.42	25064.80
654.56	24973.52
654.71	25165.44
654.85	25074.16
655.00	25294.17
655.14	24861.17
655.29	24929.05
655.43	24978.20
655.57	24844.79
655.72	24755.85
655.86	25120.97
656.01	25022.67
656.15	25160.76
656.30	25029.69
656.44	24915.00
656.58	24709.04
656.73	24863.51
656.87	24985.22
657.01	24638.82
657.16	25146.72
657.30	24814.36
657.45	24702.01
657.59	24893.94
657.73	24718.40
657.88	24650.52
658.02	24627.12
658.16	24486.68
658.31	24367.32
658.45	24547.54
658.60	24084.11
658.74	24119.22
658.88	24004.53
659.03	24496.05
659.17	24444.56
659.31	24430.51
659.46	24308.80
659.60	24217.52
659.74	24500.73
659.89	24273.70
660.03	24299.44
660.17	24182.42
660.32	24283.06
660.46	24269.01
660.60	24058.37
660.74	24308.80
660.89	24229.23
661.03	24149.65
661.17	24020.92
661.32	24112.20
661.46	23962.40
661.60	23960.06
661.74	24112.20
661.89	24084.11
662.03	23962.40
662.17	23922.62
662.31	23733.03
662.46	23948.36
662.60	23922.62
662.74	23943.68
662.88	23779.84
663.03	23571.54
663.17	23646.43
663.31	23309.40
663.45	23466.21
663.60	23632.39
663.74	23412.38
663.88	23695.58
664.02	23756.44
664.17	23861.76
664.31	23344.50
664.45	23414.72
664.59	23414.72
664.73	23199.39
664.88	23388.97
665.02	23126.83
665.16	23199.39
665.30	22874.06
665.44	23248.54
665.59	23108.11
665.73	23091.73
665.87	23227.48
666.01	23194.71
666.15	23075.34
666.29	23037.89
666.44	22951.29
666.58	23131.51
666.72	22810.86
666.86	22920.87
667.00	22773.41
667.14	23063.64
667.28	22867.03
667.43	22492.55
667.57	22565.10
667.71	22799.16
667.85	22562.76
667.99	22382.54
668.13	22766.39
668.27	22387.22
668.41	22827.24
668.56	22312.33
668.70	22717.24
668.84	22883.42
668.98	22501.91
669.12	22483.19
669.26	22558.08
669.40	22422.33
669.54	22731.28
669.68	22293.60
669.82	22391.91
669.96	21806.77
670.10	21858.26
670.25	22291.26
670.39	21891.03
670.53	21898.05
670.67	21715.49
670.81	21879.33
670.95	22150.83
671.09	21799.75
671.23	21750.60
671.37	21944.86
671.51	21823.16
671.65	22164.87
671.79	21834.86
671.93	21586.76
672.07	21563.36
672.21	21579.74
672.35	21511.86
672.49	21266.11
672.63	21378.45
672.77	21228.66
672.91	21415.90
673.05	21427.60
673.19	21408.88
673.33	21216.96
673.47	21095.25
673.61	21275.47
673.75	21139.72
673.89	21025.03
674.03	21254.40
674.17	21109.29
674.31	20627.14
674.45	21003.97
674.59	20758.21
674.73	20917.37
674.87	20896.30
675.01	20886.94
675.15	20739.49
675.29	20631.82
675.43	20666.93
675.56	20421.17
675.70	20479.69
675.84	20465.64
675.98	20201.16
676.12	20549.90
676.26	20376.70
676.40	20449.26
676.54	20283.08
676.68	20383.73
676.82	19997.54
676.96	20149.67
677.10	19882.85
677.23	19992.86
677.37	19733.06
677.51	19824.34
677.65	19740.08
677.79	19391.34
677.93	19571.56
678.07	19543.47
678.21	19564.54
678.34	19421.77
678.48	19351.55
678.62	19232.18
678.76	19370.27
678.90	19293.04
679.04	18963.02
679.18	19302.40
679.31	19033.24
679.45	19051.96
679.59	18892.80
679.73	18747.69
679.87	18810.89
680.00	18546.40
680.14	18719.60
680.28	18647.05
680.42	18625.98
680.56	19194.73
680.70	18672.79
680.83	18424.70
680.97	18689.18
681.11	18293.63
681.25	18607.26
681.39	18445.76
681.52	18455.12
681.66	18071.28
681.80	18195.32
681.94	18377.89
682.07	18157.88
682.21	17958.93
682.35	17860.63
682.49	18038.51
682.62	17689.77
682.76	17881.69
682.90	17820.84
683.04	17839.56
683.17	17774.03
683.31	17804.46
683.45	17919.14
683.59	17394.86
683.72	17731.90
683.86	17193.58
684.00	17469.76
684.13	17202.94
684.27	17064.85
684.41	17160.81
684.55	16821.43
684.68	16973.56
684.82	16739.51
684.96	16741.85
685.09	16669.30
685.23	16800.37
685.37	16795.68
685.50	16748.87
685.64	16999.31
685.78	16716.11
685.91	16685.68
686.05	16507.80
686.19	16615.46
686.32	16362.69
686.46	16231.62
686.60	16044.37
686.73	16264.38
686.87	16091.18
687.01	15957.77
687.14	16252.68
687.28	16100.55
687.42	15976.50
687.55	15969.48
687.69	16135.65
687.82	15749.46
687.96	15707.34
688.10	16011.60
688.23	15800.96
688.37	15524.77
688.50	15529.45
688.64	15496.69
688.78	15810.32
688.91	15510.73
689.05	15419.45
689.18	15288.38
689.32	15250.93
689.46	14923.26
689.59	15145.61
689.73	15143.27
689.86	14960.70
690.00	14874.10
690.13	15157.31
690.27	15161.99
690.41	14904.53
690.54	14883.47
690.68	14822.61
690.81	14972.41
690.95	14806.23
691.08	14775.80
691.22	14766.44
691.35	14644.73
691.49	14539.41
691.62	14736.01
691.76	14429.40
691.89	14352.16
692.03	14160.24
692.16	13757.67
692.30	13912.14
692.43	13998.74
692.57	14239.82
692.70	13748.31
692.84	13930.87
692.97	13657.03
693.11	13996.40
693.24	13745.97
693.38	14108.75
693.51	13853.63
693.65	13666.39
693.78	13905.12
693.92	13540.00
694.05	13490.85
694.19	13458.08
694.32	13446.38
694.45	13294.24
694.59	13184.24
694.72	13160.83
694.86	13172.54
694.99	12950.18
695.13	12973.59
695.26	13193.60
695.39	12999.34
695.53	12901.03
695.66	12863.58
695.80	13111.68
695.93	13022.74
696.07	12943.16
696.20	12828.48
696.33	12683.36
696.47	12774.64
696.60	12531.23
696.73	12702.09
696.87	12669.32
697.00	12379.09
697.14	12362.71
697.27	12070.14
697.40	12266.75
697.54	12215.26
697.67	12311.22
697.80	12191.85
697.94	12013.97
698.07	11960.14
698.21	11845.45
698.34	11793.96
698.47	12028.01
698.61	11932.05
698.74	12039.72
698.87	11719.06
699.01	11536.50
699.14	11644.17
699.27	11569.27
699.40	11646.51
699.54	11648.85
699.67	11391.39
699.80	11389.05
699.94	11339.90
700.07	11145.63
700.20	11087.12
700.34	11075.42
700.47	10967.75
700.60	11159.67
700.73	11194.78
700.87	11171.38
701.00	11133.93
701.13	10768.80
701.26	11021.58
701.40	10944.34
701.53	10951.37
701.66	10654.12
701.79	10768.80
701.93	10583.90
702.06	10497.30
702.19	10597.95
702.32	10464.54
702.46	10399.00
702.59	10326.44
702.72	10270.27
702.85	10314.74
702.99	10328.78
703.12	10171.97
703.25	10361.55
703.38	10106.43
703.51	10258.57
703.65	10073.67
703.78	9879.40
703.91	10076.01
704.04	10277.29
704.17	10125.16
704.31	9982.38
704.44	10050.26
704.57	9874.72
704.70	9713.22
704.83	9657.05
704.96	9762.37
705.10	9533.00
705.23	9544.70
>>>>>End Processed Spectral Data<<<<<
