SpectraSuite Data File
++++++++++++++++++++++++++++++++++++
Date: Fri Oct 18 13:58:35 GMT-05:00 2013
User: bianchi
Dark Spectrum Present: No
Reference Spectrum Present: No
Number of Sampled Component Spectra: 1
Spectrometers: USB2+H05261
Integration Time (usec): 50000 (USB2+H05261)
Spectra Averaged: 1 (USB2+H05261)
Boxcar Smoothing: 0 (USB2+H05261)
Correct for Electrical Dark: No (USB2+H05261)
Strobe/Lamp Enabled: No (USB2+H05261)
Correct for Detector Non-linearity: No (USB2+H05261)
Correct for Stray Light: No (USB2+H05261)
Number of Pixels in Processed Spectrum: 2048
>>>>>Begin Processed Spectral Data<<<<<
365.73	0.00
365.92	0.00
366.12	0.00
366.32	0.00
366.52	0.00
366.72	0.00
366.91	0.00
367.11	0.00
367.31	0.00
367.51	0.00
367.70	0.00
367.90	0.00
368.10	0.00
368.30	0.00
368.49	0.00
368.69	0.00
368.89	0.00
369.09	0.00
369.28	0.00
369.48	0.00
369.68	0.00
369.87	0.00
370.07	0.00
370.27	0.00
370.47	25.75
370.66	28.09
370.86	119.37
371.06	28.09
371.25	182.56
371.45	56.17
371.65	105.32
371.84	173.20
372.04	128.73
372.24	135.75
372.44	163.84
372.63	154.48
372.83	234.05
373.03	292.57
373.22	105.32
373.42	255.12
373.62	149.79
373.81	191.92
374.01	220.01
374.21	220.01
374.40	224.69
374.60	287.89
374.79	292.57
374.99	306.61
375.19	292.57
375.38	308.95
375.58	208.31
375.78	280.86
375.97	243.42
376.17	276.18
376.37	306.61
376.56	238.73
376.76	257.46
376.95	250.44
377.15	313.63
377.35	318.31
377.54	227.03
377.74	262.14
377.93	290.23
378.13	273.84
378.33	318.31
378.52	313.63
378.72	315.97
378.91	330.02
379.11	276.18
379.31	285.55
379.50	229.37
379.70	294.91
379.89	322.99
380.09	334.70
380.28	280.86
380.48	259.80
380.68	306.61
380.87	360.44
381.07	278.52
381.26	351.08
381.46	334.70
381.65	322.99
381.85	301.93
382.04	360.44
382.24	372.15
382.43	337.04
382.63	360.44
382.83	358.10
383.02	355.76
383.22	418.96
383.41	313.63
383.61	409.59
383.80	351.08
384.00	297.25
384.19	355.76
384.39	372.15
384.58	376.83
384.78	397.89
384.97	386.19
385.17	355.76
385.36	327.68
385.56	351.08
385.75	374.49
385.95	322.99
386.14	372.15
386.34	395.55
386.53	409.59
386.72	388.53
386.92	442.36
387.11	421.30
387.31	390.87
387.50	400.23
387.70	421.30
387.89	477.47
388.09	411.93
388.28	395.55
388.48	425.98
388.67	465.77
388.86	400.23
389.06	468.11
389.25	468.11
389.45	507.90
389.64	475.13
389.84	386.19
390.03	507.90
390.22	524.28
390.42	449.38
390.61	517.26
390.81	461.09
391.00	461.09
391.19	404.91
391.39	418.96
391.58	437.68
391.78	540.66
391.97	545.34
392.16	653.01
392.36	528.96
392.55	451.72
392.75	596.84
392.94	557.05
393.13	528.96
393.33	538.32
393.52	531.30
393.71	653.01
393.91	603.86
394.10	517.26
394.29	620.24
394.49	580.45
394.68	589.82
394.88	521.94
395.07	559.39
395.26	636.63
395.46	592.16
395.65	622.58
395.84	636.63
396.04	671.73
396.23	648.33
396.42	610.88
396.62	573.43
396.81	648.33
397.00	594.50
397.19	709.18
397.39	622.58
397.58	716.20
397.77	678.76
397.97	582.79
398.16	622.58
398.35	681.10
398.55	603.86
398.74	723.23
398.93	704.50
399.12	753.65
399.32	697.48
399.51	739.61
399.70	847.27
399.90	674.07
400.09	748.97
400.28	788.76
400.47	795.78
400.67	814.51
400.86	732.59
401.05	713.86
401.24	767.70
401.44	779.40
401.63	692.80
401.82	681.10
402.01	725.57
402.21	837.91
402.40	795.78
402.59	809.83
402.78	798.12
402.97	774.72
403.17	833.23
403.36	894.08
403.55	856.64
403.74	898.77
403.93	835.57
404.13	863.66
404.32	891.74
404.51	891.74
404.70	952.60
404.89	936.21
405.09	868.34
405.28	938.55
405.47	1025.15
405.66	1001.75
405.85	919.83
406.05	997.07
406.24	976.00
406.43	1013.45
406.62	985.37
406.81	1111.75
407.00	926.85
407.20	1029.84
407.39	1062.60
407.58	1076.65
407.77	994.73
407.96	1048.56
408.15	1135.16
408.34	1060.26
408.54	1076.65
408.73	1064.94
408.92	1135.16
409.11	1093.03
409.30	1177.29
409.49	1132.82
409.68	1151.54
409.87	1158.57
410.07	1196.01
410.26	1181.97
410.45	1266.23
410.64	1081.33
410.83	1252.19
411.02	1186.65
411.21	1303.68
411.40	1196.01
411.59	1256.87
411.78	1343.47
411.98	1242.82
412.17	1273.25
412.36	1294.32
412.55	1430.07
412.74	1334.11
412.93	1343.47
413.12	1392.62
413.31	1383.26
413.50	1406.66
413.69	1430.07
413.88	1472.20
414.07	1453.47
414.26	1423.05
414.45	1469.86
414.64	1514.33
414.83	1404.32
415.02	1497.94
415.22	1533.05
415.41	1577.52
415.60	1572.84
415.79	1584.54
415.98	1624.33
416.17	1673.48
416.36	1610.29
416.55	1586.88
416.74	1643.06
416.93	1462.83
417.12	1790.51
417.31	1650.08
417.50	1762.42
417.69	1724.97
417.88	1682.85
418.07	1699.23
418.26	1778.81
418.45	1715.61
418.64	1771.79
418.83	1743.70
419.02	1753.06
419.21	1748.38
419.39	1816.26
419.58	1774.13
419.77	1762.42
419.96	1923.92
420.15	1827.96
420.34	1809.23
420.53	1891.15
420.72	1898.17
420.91	1935.62
421.10	1984.77
421.29	1874.77
421.48	1980.09
421.67	1982.43
421.86	1926.26
422.05	1874.77
422.24	1914.56
422.43	2036.27
422.61	1870.09
422.80	2031.58
422.99	1949.67
423.18	2047.97
423.37	2141.59
423.56	1909.88
423.75	1935.62
423.94	1905.20
424.13	1935.62
424.32	2066.69
424.50	2033.93
424.69	1982.43
424.88	2115.84
425.07	1996.48
425.26	1991.80
425.45	2022.22
425.64	2019.88
425.83	2019.88
426.01	1989.46
426.20	2162.66
426.39	2036.27
426.58	2108.82
426.77	2076.06
426.96	2097.12
427.15	2071.37
427.33	2099.46
427.52	2186.06
427.71	2165.00
427.90	2057.33
428.09	2113.50
428.28	2050.31
428.46	2277.34
428.65	2125.21
428.84	2216.49
429.03	2258.62
429.22	2115.84
429.40	2354.58
429.59	2293.72
429.78	2179.04
429.97	2193.08
430.16	2209.47
430.34	2291.38
430.53	2401.39
430.72	2291.38
430.91	2321.81
431.10	2333.51
431.28	2399.05
431.47	2296.07
431.66	2450.54
431.85	2473.95
432.03	2326.49
432.22	2499.69
432.41	2342.88
432.60	2487.99
432.79	2434.16
432.97	2356.92
433.16	2480.97
433.35	2509.05
433.54	2518.42
433.72	2532.46
433.91	2448.20
434.10	2581.61
434.28	2541.82
434.47	2574.59
434.66	2516.08
434.85	2626.08
435.03	2581.61
435.22	2579.27
435.41	2644.81
435.59	2607.36
435.78	2705.66
435.97	2647.15
436.16	2703.32
436.34	2593.31
436.53	2555.86
436.72	2733.75
436.90	2754.81
437.09	2892.90
437.28	2705.66
437.46	2789.92
437.65	2892.90
437.84	2857.79
438.02	2834.39
438.21	2780.56
438.40	2719.70
438.58	2874.18
438.77	2951.42
438.96	2853.11
439.14	2913.97
439.33	2986.52
439.52	3028.65
439.70	3049.72
439.89	3052.06
440.08	3009.93
440.26	3094.19
440.45	3054.40
440.63	3047.38
440.82	3119.93
441.01	3201.85
441.19	3236.96
441.38	3185.47
441.57	3155.04
441.75	3199.51
441.94	3323.56
442.12	3281.43
442.31	3382.07
442.50	3218.24
442.68	3314.20
442.87	3164.40
443.05	3342.28
443.24	3426.54
443.43	3274.41
443.61	3414.84
443.80	3438.25
443.98	3346.97
444.17	3199.51
444.35	3325.90
444.54	3463.99
444.73	3517.83
444.91	3449.95
445.10	3456.97
445.28	3531.87
445.47	3400.80
445.65	3475.70
445.84	3520.17
446.02	3571.66
446.21	3480.38
446.39	3473.36
446.58	3529.53
446.77	3536.55
446.95	3311.86
447.14	3522.51
447.32	3618.47
447.51	3471.01
447.69	3527.19
447.88	3379.73
448.06	3536.55
448.25	3522.51
448.43	3564.64
448.62	3602.08
448.80	3468.67
448.99	3529.53
449.17	3510.80
449.36	3627.83
449.54	3794.01
449.73	3592.72
449.91	3709.75
450.10	3651.24
450.28	3723.79
450.46	3620.81
450.65	3822.09
450.83	3747.20
451.02	3700.39
451.20	3794.01
451.39	3962.53
451.57	3779.97
451.76	3852.52
451.94	3873.59
452.13	3899.33
452.31	3941.46
452.49	3803.37
452.68	3763.58
452.86	3864.22
453.05	3866.56
453.23	3850.18
453.42	3915.72
453.60	3868.91
453.78	3964.87
453.97	3911.04
454.15	3880.61
454.34	3733.15
454.52	4166.15
454.70	3887.63
454.89	3885.29
455.07	4028.06
455.26	4077.21
455.44	4173.18
455.62	4037.42
455.81	4046.79
455.99	4105.30
456.17	4196.58
456.36	4138.07
456.54	4234.03
456.73	4292.54
456.91	4234.03
457.09	4306.59
457.28	4273.82
457.46	4217.65
457.64	4379.14
457.83	4376.80
458.01	4311.27
458.19	4414.25
458.38	4432.97
458.56	4535.96
458.74	4465.74
458.93	4353.40
459.11	4421.27
459.29	4547.66
459.48	4503.19
459.66	4545.32
459.84	4486.81
460.03	4585.11
460.21	4456.38
460.39	4580.43
460.57	4624.90
460.76	4624.90
460.94	4535.96
461.12	4709.16
461.31	4636.60
461.49	4535.96
461.67	4601.49
461.85	4758.31
462.04	4596.81
462.22	4638.94
462.40	4620.22
462.59	4767.67
462.77	4870.65
462.95	4840.23
463.13	4828.53
463.32	4842.57
463.50	4884.70
463.68	4751.29
463.86	4891.72
464.05	4875.34
464.23	4800.44
464.41	4858.95
464.59	4903.42
464.78	4971.30
464.96	5039.17
465.14	5004.07
465.32	5039.17
465.50	5041.51
465.69	5011.09
465.87	4873.00
466.05	4961.94
466.23	5043.85
466.41	5041.51
466.60	5193.65
466.78	4997.04
466.96	5041.51
467.14	5114.07
467.32	5146.84
467.51	5057.90
467.69	5116.41
467.87	5193.65
468.05	5242.80
468.23	5039.17
468.41	5195.99
468.60	5167.90
468.78	5123.43
468.96	5144.50
469.14	5137.48
469.32	5247.48
469.50	5151.52
469.69	5444.09
469.87	5359.83
470.05	5305.99
470.23	5341.10
470.41	5277.91
470.59	5526.00
470.77	5350.46
470.95	5453.45
471.14	5432.38
471.32	5425.36
471.50	5638.35
471.68	5682.82
471.86	5837.30
472.04	5636.01
472.22	5748.36
472.40	5682.82
472.58	5760.06
472.77	5727.29
472.95	5792.83
473.13	5937.94
473.31	5746.02
473.49	5888.79
473.67	6022.20
473.85	5898.15
474.03	5994.11
474.21	5944.96
474.39	6253.91
474.57	6267.95
474.75	6134.54
474.93	6129.86
475.12	6076.03
475.30	6480.94
475.48	6244.55
475.66	6324.13
475.84	6015.18
476.02	6473.92
476.20	6424.77
476.38	6354.55
476.56	6766.49
476.74	6520.73
476.92	6630.74
477.10	6483.28
477.28	6787.55
477.46	6651.80
477.64	6815.64
477.82	6871.81
478.00	7122.25
478.18	6726.70
478.36	7073.10
478.54	6967.77
478.72	7068.42
478.90	7110.55
479.08	7232.26
479.26	7215.87
479.44	7279.07
479.62	7178.42
479.80	7365.67
479.98	7515.46
480.16	7566.95
480.34	7522.48
480.52	7573.97
480.70	7456.95
480.88	7590.36
481.06	7648.87
481.24	7854.84
481.41	7878.24
481.59	7953.14
481.77	7810.37
481.95	8070.17
482.13	8063.15
482.31	8084.21
482.49	8573.38
482.67	8290.18
482.85	8351.03
483.03	8510.19
483.21	8643.60
483.39	8610.83
483.57	8582.74
483.74	8524.23
483.92	8659.98
484.10	8697.43
484.28	8945.53
484.46	8856.59
484.64	9252.14
484.82	8828.50
485.00	9085.96
485.18	9294.27
485.35	9324.69
485.53	9364.48
485.71	9404.27
485.89	9516.62
486.07	9664.07
486.25	9673.43
486.43	9554.07
486.61	9792.80
486.78	9961.32
486.96	9870.04
487.14	10068.98
487.32	10083.03
487.50	10038.56
487.68	10286.65
487.85	10410.70
488.03	10607.31
488.21	10682.20
488.39	10614.33
488.57	10719.65
488.75	10501.98
488.92	10885.83
489.10	11152.65
489.28	11049.67
489.46	11133.93
489.64	11190.10
489.81	11309.47
489.99	11309.47
490.17	11335.21
490.35	11527.14
490.53	11679.27
490.70	11580.97
490.88	11936.73
491.06	11686.29
491.24	11824.39
491.41	11889.92
491.59	12105.25
491.77	12006.95
491.95	12175.47
492.13	12184.83
492.30	12430.59
492.48	12393.14
492.66	12276.11
492.84	12250.36
493.01	12475.06
493.19	12627.19
493.37	12776.98
493.54	12762.94
493.72	12985.29
493.90	12681.02
494.08	13011.04
494.25	12957.21
494.43	13207.64
494.61	13390.20
494.79	13242.75
494.96	13273.18
495.14	13287.22
495.32	13565.74
495.49	13441.70
495.67	13369.14
495.85	13998.74
496.02	13696.82
496.20	14108.75
496.38	14113.43
496.55	14314.72
496.73	14448.13
496.91	14090.02
497.09	14258.54
497.26	14593.24
497.44	14466.85
497.62	14352.16
497.79	14525.36
497.97	14677.50
498.14	14785.16
498.32	14801.55
498.50	14988.79
498.67	15110.50
498.85	15075.39
499.03	15101.14
499.20	14857.72
499.38	15353.91
499.56	15197.10
499.73	15379.66
499.91	15555.20
500.08	15506.05
500.26	15264.97
500.44	15264.97
500.61	15494.35
500.79	15309.44
500.97	15697.97
501.14	15878.19
501.32	15702.65
501.49	15721.38
501.67	15826.70
501.84	15948.41
502.02	16114.59
502.20	16053.73
502.37	16140.33
502.55	16250.34
502.72	16308.85
502.90	16294.81
503.07	16027.99
503.25	16248.00
503.43	16341.62
503.60	16458.65
503.78	16442.26
503.95	16580.36
504.13	16458.65
504.30	16741.85
504.48	16786.32
504.65	16648.23
504.83	16849.52
505.01	17195.92
505.18	17224.00
505.36	16854.20
505.53	16786.32
505.71	17055.48
505.88	17202.94
506.06	17097.61
506.23	17357.41
506.41	17263.79
506.58	17523.59
506.76	17568.06
506.93	17261.45
507.11	17343.37
507.28	17348.05
507.46	17767.01
507.63	17649.98
507.81	17806.80
507.98	17748.28
508.16	17774.03
508.33	17654.66
508.50	17792.75
508.68	18057.23
508.85	18214.05
509.03	18157.88
509.20	18466.83
509.38	18188.30
509.55	18356.82
509.73	18354.48
509.90	18335.76
510.08	18487.89
510.25	18429.38
510.42	18726.63
510.60	18473.85
510.77	18787.48
510.95	18693.86
511.12	18429.38
511.30	18944.30
511.47	18916.21
511.64	18754.71
511.82	19075.37
511.99	18979.40
512.17	19183.03
512.34	19124.52
512.51	19391.34
512.69	19131.54
512.86	19370.27
513.04	19578.58
513.21	19449.85
513.38	19414.74
513.56	19623.05
513.73	19623.05
513.90	19482.62
514.08	19477.94
514.25	19747.10
514.43	19655.82
514.60	19819.66
514.77	19896.89
514.95	19885.19
515.12	20086.48
515.29	19763.48
515.47	19896.89
515.64	20252.66
515.81	19974.13
515.99	20343.94
516.16	20208.19
516.33	20723.10
516.51	20222.23
516.68	20135.63
516.85	20362.66
517.03	20409.47
517.20	20510.11
517.37	20540.54
517.54	20996.95
517.72	20491.39
517.89	20711.40
518.06	20533.52
518.24	20367.34
518.41	20723.10
518.58	20437.56
518.75	20781.62
518.93	20971.20
519.10	20968.86
519.27	21200.57
519.45	20943.11
519.62	21010.99
519.79	21018.01
519.96	21315.26
520.14	21060.14
520.31	21233.34
520.48	21392.50
520.65	21394.84
520.83	21612.51
521.00	21727.19
521.17	21429.94
521.34	21692.08
521.52	21404.20
521.69	21507.18
521.86	21666.34
522.03	21783.37
522.20	21724.85
522.38	21909.75
522.55	21762.30
522.72	21804.43
522.89	21673.36
523.07	22108.70
523.24	22167.21
523.41	21965.93
523.58	22022.10
523.75	22270.20
523.92	22274.88
524.10	22162.53
524.27	22508.93
524.44	22331.05
524.61	22703.20
524.78	22478.50
524.96	22691.49
525.13	22527.66
525.30	22380.20
525.47	22565.10
525.64	22576.81
525.81	22609.58
525.98	22700.86
526.16	22714.90
526.33	22682.13
526.50	22831.93
526.67	22745.33
526.84	23131.51
527.01	22668.09
527.18	22979.38
527.36	22904.48
527.53	23494.30
527.70	23307.05
527.87	23243.86
528.04	23278.97
528.21	23276.63
528.38	22981.72
528.55	23419.40
528.72	23365.57
528.89	23307.05
529.07	23501.32
529.24	23480.25
529.41	23175.98
529.58	23267.27
529.75	23410.04
529.92	23166.62
530.09	23580.90
530.26	24041.98
530.43	23917.93
530.60	23580.90
530.77	23513.02
530.94	23955.38
531.11	24041.98
531.28	24067.73
531.46	23620.69
531.63	24072.41
531.80	24318.17
531.97	24065.39
532.14	24229.23
532.31	24030.28
532.48	24297.10
532.65	24397.74
532.82	24037.30
532.99	24264.33
533.16	24376.68
533.33	24264.33
533.50	24437.53
533.67	24559.24
533.84	24081.77
534.01	24070.07
534.18	24458.60
534.35	24786.27
534.52	24212.84
534.69	24500.73
534.86	24582.65
535.03	24521.79
535.20	24751.17
535.37	24774.57
535.54	24936.07
535.71	24767.55
535.88	25001.60
536.05	24943.09
536.22	25067.14
536.38	25450.99
536.55	24907.98
536.72	25195.87
536.89	24730.10
537.06	24709.04
537.23	25055.43
537.40	24996.92
537.57	24872.87
537.74	25319.92
537.91	25598.44
538.08	25212.25
538.25	25053.09
538.42	25287.15
538.59	25413.54
538.75	25425.24
538.92	25132.67
539.09	25568.01
539.26	25565.67
539.43	25397.15
539.60	25319.92
539.77	25727.17
539.94	25586.74
540.11	25490.77
540.28	25387.79
540.44	25310.55
540.61	25256.72
540.78	25422.90
540.95	25972.92
541.12	25703.76
541.29	25720.15
541.46	25701.42
541.62	25617.16
541.79	25837.17
541.96	25392.47
542.13	25921.43
542.30	25977.61
542.47	26134.42
542.63	26204.64
542.80	26324.01
542.97	26450.39
543.14	26096.97
543.31	26155.49
543.48	26094.63
543.64	26506.57
543.81	26644.66
543.98	26813.18
544.15	26366.13
544.32	26347.41
544.48	26258.47
544.65	26579.12
544.82	26497.20
544.99	26309.96
545.16	26726.58
545.32	26600.19
545.49	26843.60
545.66	26665.72
545.83	27239.15
546.00	26883.39
546.16	27204.05
546.33	26525.29
546.50	26787.43
546.67	26836.58
546.83	26494.86
547.00	26998.08
547.17	26937.23
547.34	26782.75
547.50	27300.01
547.67	27061.27
547.84	27271.92
548.00	27091.70
548.17	27246.18
548.34	27269.58
548.51	27110.43
548.67	27042.55
548.84	27365.54
549.01	27260.22
549.18	27030.85
549.34	27014.46
549.51	27110.43
549.68	27164.26
549.84	27534.06
550.01	27143.19
550.18	27304.69
550.34	27756.41
550.51	27557.47
550.68	27496.61
550.84	27339.80
551.01	27754.07
551.18	27304.69
551.34	27342.14
551.51	27442.78
551.68	27702.58
551.84	27770.46
552.01	27360.86
552.18	27789.18
552.34	27569.17
552.51	27908.55
552.68	27555.13
552.84	27978.76
553.01	28177.71
553.18	27665.13
553.34	27793.86
553.51	27711.94
553.67	28301.76
553.84	27985.79
554.01	27990.47
554.17	28030.26
554.34	27791.52
554.51	28163.67
554.67	27814.93
554.84	28219.84
555.00	27847.69
555.17	27840.67
555.33	28229.20
555.50	28531.13
555.67	28201.11
555.83	28418.78
556.00	28142.60
556.16	28460.91
556.33	28121.54
556.50	28390.70
556.66	28362.61
556.83	28121.54
556.99	28390.70
557.16	28367.29
557.32	28360.27
557.49	28573.26
557.65	27896.85
557.82	28154.30
557.98	28290.06
558.15	28182.39
558.32	28645.82
558.48	28620.07
558.65	28524.11
558.81	28779.23
558.98	28287.71
559.14	28779.23
559.31	28194.09
559.47	28692.63
559.64	28652.84
559.80	28912.64
559.97	28753.48
560.13	28884.55
560.30	29097.54
560.46	28903.28
560.63	28795.61
560.79	28875.19
560.96	29001.58
561.12	28734.76
561.29	28865.83
561.45	29015.62
561.61	29186.48
561.78	28861.15
561.94	28924.34
562.11	28898.59
562.27	28905.62
562.44	29151.37
562.60	28971.15
562.77	28744.12
562.93	28758.16
563.10	28863.49
563.26	28748.80
563.42	28959.45
563.59	29142.01
563.75	28947.75
563.92	29153.71
564.08	29142.01
564.24	28863.49
564.41	28968.81
564.57	28964.13
564.74	28987.53
564.90	29191.16
565.07	29518.84
565.23	29069.45
565.39	29418.19
565.56	29420.53
565.72	29153.71
565.88	28959.45
566.05	28875.19
566.21	29078.82
566.38	29198.18
566.54	29102.22
566.70	29390.11
566.87	29109.24
567.03	29230.95
567.19	29549.26
567.36	29310.53
567.52	29214.57
567.68	29596.07
567.85	29326.91
568.01	29277.76
568.17	29481.39
568.34	29689.70
568.50	29359.68
568.66	29404.15
568.83	29450.96
568.99	29305.85
569.15	29022.64
569.32	29184.14
569.48	29216.91
569.64	29516.50
569.81	29214.57
569.97	29362.02
570.13	29472.03
570.30	29322.23
570.46	29474.37
570.62	29486.07
570.78	29322.23
570.95	29277.76
571.11	29441.60
571.27	29469.69
571.43	29603.10
571.60	29663.95
571.76	29308.19
571.92	29895.66
572.09	29619.48
572.25	29797.36
572.41	29448.62
572.57	29617.14
572.74	29645.23
572.90	29631.18
573.06	29308.19
573.22	29575.01
573.38	29809.06
573.55	29490.75
573.71	29984.60
573.87	29570.33
574.03	29617.14
574.20	29741.19
574.36	29685.01
574.52	29783.32
574.68	29366.70
574.84	29434.58
575.01	29598.41
575.17	29680.33
575.33	29755.23
575.49	30071.20
575.65	29788.00
575.82	30089.93
575.98	29535.22
576.14	29488.41
576.30	29717.78
576.46	29495.43
576.62	29970.56
576.79	29916.73
576.95	29717.78
577.11	29893.32
577.27	29902.68
577.43	29961.20
577.59	29677.99
577.75	29785.66
577.92	29750.55
578.08	29701.40
578.24	29539.90
578.40	29727.14
578.56	29865.24
578.72	29734.17
578.88	30312.28
579.04	29890.98
579.21	29448.62
579.37	29729.48
579.53	30274.83
579.69	29535.22
579.85	29661.61
580.01	29748.21
580.17	29979.92
580.33	29802.04
580.49	29682.67
580.65	30167.16
580.82	29933.11
580.98	29827.79
581.14	29977.58
581.30	29724.80
581.46	29736.51
581.62	30092.27
581.78	29596.07
581.94	29895.66
582.10	29465.00
582.26	29575.01
582.42	29769.27
582.58	29968.22
582.74	29970.56
582.90	29919.07
583.06	30160.14
583.22	29443.94
583.38	29795.02
583.54	30005.67
583.70	29881.62
583.86	29837.15
584.02	29935.45
584.18	30113.33
584.34	29802.04
584.50	29989.28
584.66	29795.02
584.82	29869.92
584.98	29930.77
585.14	29975.24
585.30	29752.89
585.46	30136.74
585.62	29582.03
585.78	29867.58
585.94	29474.37
586.10	29682.67
586.26	29914.39
586.42	29853.53
586.58	30202.27
586.74	30089.93
586.90	29551.60
587.06	29720.12
587.22	29970.56
587.38	30141.42
587.54	30054.82
587.70	30483.14
587.86	29970.56
588.02	30122.69
588.18	30265.47
588.34	30199.93
588.49	30185.89
588.65	29837.15
588.81	29860.55
588.97	29802.04
589.13	30312.28
589.29	29589.05
589.45	29745.87
589.61	30136.74
589.77	30366.11
589.93	30333.34
590.08	30525.27
590.24	30445.69
590.40	30080.56
590.56	30260.79
590.72	30546.33
590.88	29556.28
591.04	30122.69
591.20	30415.26
591.35	30714.85
591.51	30869.33
591.67	30731.23
591.83	30785.07
591.99	30649.32
592.15	30597.82
592.31	30284.19
592.46	30492.50
592.62	29902.68
592.78	30146.10
592.94	30380.15
593.10	29865.24
593.26	30057.16
593.41	30164.82
593.57	30373.13
593.73	30513.56
593.89	30237.38
594.05	30565.06
594.20	30331.00
594.36	30216.32
594.52	30218.66
594.68	30405.90
594.84	30033.75
594.99	30583.78
595.15	30405.90
595.31	30731.23
595.47	30520.59
595.62	30265.47
595.78	30216.32
595.94	30726.55
596.10	30192.91
596.25	30438.67
596.41	30235.04
596.57	30244.40
596.73	30721.87
596.88	30450.37
597.04	30551.01
597.20	30703.15
597.36	30724.21
597.51	30476.12
597.67	30595.48
597.83	30298.23
597.99	30349.73
598.14	30607.19
598.30	30508.88
598.46	30228.02
598.61	30731.23
598.77	30375.47
598.93	30410.58
599.09	30485.48
599.24	30733.57
599.40	30874.01
599.56	30429.30
599.71	30759.32
599.87	30995.71
600.03	30859.96
600.18	30136.74
600.34	30368.45
600.50	30527.61
600.65	30382.49
600.81	30740.60
600.97	30506.54
601.12	30632.93
601.28	30642.29
601.44	30740.60
601.59	31014.44
601.75	30529.95
601.91	30939.54
602.06	30436.33
602.22	30328.66
602.37	30464.41
602.53	30567.40
602.69	30941.88
602.84	30469.09
603.00	30677.40
603.16	30717.19
603.31	30815.49
603.47	30183.55
603.62	30618.89
603.78	30408.24
603.94	30359.09
604.09	30497.18
604.25	30518.25
604.40	30675.06
604.56	30518.25
604.71	30930.18
604.87	30836.56
605.03	30487.82
605.18	30536.97
605.34	30810.81
605.49	30293.55
605.65	30548.67
605.80	30087.59
605.96	30368.45
606.12	30408.24
606.27	30122.69
606.43	30494.84
606.58	31112.74
606.74	30401.22
606.89	30408.24
607.05	30724.21
607.20	30405.90
607.36	30307.60
607.51	30370.79
607.67	29984.60
607.82	30080.56
607.98	30015.03
608.13	30157.80
608.29	30448.03
608.44	30597.82
608.60	30087.59
608.75	30574.42
608.91	29923.75
609.06	30103.97
609.22	30291.21
609.37	29879.28
609.53	30190.57
609.68	30323.98
609.84	30408.24
609.99	30176.53
610.15	30010.35
610.30	30370.79
610.46	30059.50
610.61	30370.79
610.76	30232.70
610.92	30059.50
611.07	30403.56
611.23	30249.08
611.38	30101.63
611.54	30429.30
611.69	30108.65
611.84	30314.62
612.00	30263.13
612.15	29757.57
612.31	29942.47
612.46	30118.01
612.62	29982.26
612.77	30342.70
612.92	30794.43
613.08	30223.34
613.23	29958.86
613.39	30213.98
613.54	29865.24
613.69	29731.83
613.85	29811.40
614.00	30061.84
614.15	29993.97
614.31	30167.16
614.46	29986.94
614.62	29701.40
614.77	29710.76
614.92	29853.53
615.08	29919.07
615.23	29947.15
615.38	30122.69
615.54	29689.70
615.69	29940.13
615.84	29617.14
616.00	29806.72
616.15	29818.42
616.30	30174.19
616.46	29420.53
616.61	29387.77
616.76	29820.77
616.92	29881.62
617.07	29699.06
617.22	29256.70
617.37	29418.19
617.53	29729.48
617.68	29518.84
617.83	29298.83
617.99	29469.69
618.14	29621.82
618.29	29614.80
618.45	29422.87
618.60	29500.11
618.75	29703.74
618.90	29205.20
619.06	29666.29
619.21	29296.49
619.36	29406.49
619.51	29039.03
619.67	29287.12
619.82	29355.00
619.97	28940.72
620.12	29474.37
620.28	29685.01
620.43	29383.09
620.58	29551.60
620.73	29383.09
620.89	29633.52
621.04	29233.29
621.19	29406.49
621.34	29319.89
621.49	29457.98
621.65	28943.06
621.80	29511.81
621.95	28929.02
622.10	29008.60
622.25	29013.28
622.41	29064.77
622.56	29064.77
622.71	29558.63
622.86	28966.47
623.01	29043.71
623.16	28893.91
623.32	28709.01
623.47	28938.38
623.62	28582.62
623.77	28950.09
623.92	28999.24
624.07	28837.74
624.23	28870.51
624.38	29277.76
624.53	29125.63
624.68	28900.94
624.83	28746.46
624.98	29326.91
625.13	29029.66
625.29	29109.24
625.44	28767.52
625.59	28872.85
625.74	28978.17
625.89	28758.16
626.04	28755.82
626.19	28666.88
626.34	28428.15
626.49	28603.69
626.65	28898.59
626.80	29092.86
626.95	28685.61
627.10	28767.52
627.25	28126.22
627.40	28051.32
627.55	28067.70
627.70	28470.28
627.85	28470.28
628.00	28355.59
628.15	28580.28
628.30	28395.38
628.45	28456.23
628.60	28170.69
628.76	28423.47
628.91	28470.28
629.06	28432.83
629.21	28383.68
629.36	28652.84
629.51	28472.62
629.66	28222.18
629.81	28020.89
629.96	28276.01
630.11	28109.83
630.26	28048.98
630.41	28154.30
630.56	28219.84
630.71	28044.30
630.86	28147.28
631.01	28582.62
631.16	28304.10
631.31	28215.16
631.46	28074.73
631.61	27992.81
631.76	28280.69
631.91	28306.44
632.06	27859.40
632.21	27679.18
632.36	28051.32
632.51	27744.71
632.66	27847.69
632.81	27880.46
632.96	27740.03
633.10	27826.63
633.25	28060.68
633.40	27901.53
633.55	27449.80
633.70	27669.81
633.85	27782.16
634.00	27681.52
634.15	27672.15
634.30	27517.68
634.45	27751.73
634.60	27466.19
634.75	28032.60
634.90	27910.89
635.05	27513.00
635.19	27693.22
635.34	27714.28
635.49	27550.45
635.64	27899.19
635.79	27742.37
635.94	27566.83
636.09	27768.12
636.24	27335.12
636.39	27480.23
636.53	27211.07
636.68	27152.55
636.83	27236.81
636.98	27742.37
637.13	27262.56
637.28	27857.06
637.43	27206.39
637.57	27725.99
637.72	27175.96
637.87	27421.72
638.02	27440.44
638.17	27908.55
638.32	27328.10
638.46	26824.88
638.61	27204.05
638.76	27323.41
638.91	27276.60
639.06	27019.14
639.20	27597.26
639.35	27337.46
639.50	27016.80
639.65	27180.64
639.80	27384.27
639.94	27356.18
640.09	26932.54
640.24	26869.35
640.39	27164.26
640.54	26625.93
640.68	26878.71
640.83	26934.88
640.98	26895.10
641.13	26719.56
641.27	27332.78
641.42	26965.31
641.57	26869.35
641.72	27316.39
641.86	26141.44
642.01	26738.28
642.16	26843.60
642.31	26803.82
642.45	26742.96
642.60	26565.08
642.75	26218.68
642.90	26375.50
643.04	26501.89
643.19	26312.30
643.34	26607.21
643.48	26939.57
643.63	26813.18
643.78	26747.64
643.93	26569.76
644.07	26403.58
644.22	26567.42
644.37	26775.73
644.51	26665.72
644.66	26565.08
644.81	26405.92
644.95	26733.60
645.10	26272.51
645.25	26391.88
645.39	26534.65
645.54	26499.55
645.69	26171.87
645.83	26178.89
645.98	26548.70
646.13	26162.51
646.27	26471.46
646.42	26377.84
646.57	26099.31
646.71	26658.70
646.86	26403.58
647.00	26307.62
647.15	26192.94
647.30	25970.58
647.44	26342.73
647.59	25841.85
647.74	26242.09
647.88	26242.09
648.03	26188.25
648.17	25914.41
648.32	26106.34
648.47	26478.48
648.61	26012.71
648.76	26639.98
648.90	26319.32
649.05	26712.53
649.20	26139.10
649.34	25802.07
649.49	25645.25
649.63	25713.13
649.78	25986.97
649.92	25748.23
650.07	25851.22
650.21	26111.02
650.36	26209.32
650.51	25888.67
650.65	26085.27
650.80	26129.74
650.94	25837.17
651.09	26050.16
651.23	26033.78
651.38	25586.74
651.52	25366.73
651.67	25729.51
651.81	25888.67
651.96	25619.50
652.10	25724.83
652.25	25654.61
652.39	25933.14
652.54	26082.93
652.68	25972.92
652.83	25832.49
652.97	25963.56
653.12	25671.00
653.26	25504.82
653.41	25738.87
653.55	25586.74
653.70	25729.51
653.84	25769.30
653.99	25455.67
654.13	25340.98
654.27	25514.18
654.42	25649.93
654.56	25673.34
654.71	25563.33
654.85	25549.29
655.00	25528.22
655.14	25076.50
655.29	25553.97
655.43	25200.55
655.57	25322.26
655.72	25425.24
655.86	25282.47
656.01	25357.36
656.15	25179.48
656.30	25135.01
656.44	25404.17
656.58	25025.01
656.73	25050.75
656.87	24987.56
657.01	25319.92
657.16	25273.10
657.30	25111.61
657.45	25048.41
657.59	25214.59
657.73	24570.94
657.88	25156.08
658.02	25209.91
658.16	25017.99
658.31	24718.40
658.45	24837.76
658.60	24748.82
658.74	24556.90
658.88	24552.22
659.03	24907.98
659.17	24812.02
659.31	24964.15
659.46	24837.76
659.60	24987.56
659.74	24903.30
659.89	24837.76
660.03	24725.42
660.17	24575.62
660.32	24666.91
660.46	24418.81
660.60	24364.98
660.74	24678.61
660.89	24444.56
661.03	24226.89
661.17	24315.83
661.32	24610.73
661.46	24456.26
661.60	24449.24
661.74	24643.50
661.89	24261.99
662.03	24147.31
662.17	24154.33
662.31	24072.41
662.46	24339.23
662.60	24184.76
662.74	23814.95
662.88	23747.08
663.03	24212.84
663.17	23941.34
663.31	23997.51
663.45	23931.98
663.60	23779.84
663.74	23915.59
663.88	23775.16
664.02	23601.96
664.17	24210.50
664.31	23655.79
664.45	23527.06
664.59	23391.31
664.73	23639.41
664.88	23529.41
665.02	23484.94
665.16	23559.83
665.30	23470.89
665.44	23534.09
665.59	23367.91
665.73	23529.41
665.87	22960.66
666.01	23293.01
666.15	23365.57
666.29	23225.14
666.44	23168.96
666.58	23073.00
666.72	22988.74
666.86	23094.07
667.00	23669.84
667.14	22867.03
667.28	23213.43
667.43	22923.21
667.57	23016.83
667.71	23096.41
667.85	22841.29
667.99	22946.61
668.13	22721.92
668.27	23117.47
668.41	23126.83
668.56	22508.93
668.70	23080.02
668.84	22836.61
668.98	22892.78
669.12	22640.00
669.26	22644.68
669.40	22487.87
669.54	22396.59
669.68	22801.50
669.82	22499.57
669.96	22499.57
670.10	22101.68
670.25	22178.92
670.39	22359.14
670.53	22260.84
670.67	22181.26
670.81	22244.45
670.95	21916.78
671.09	22462.12
671.23	22265.52
671.37	22324.03
671.51	22139.13
671.65	22094.66
671.79	22082.95
671.93	22237.43
672.07	21881.67
672.21	22012.74
672.35	21898.05
672.49	21600.80
672.63	21640.59
672.77	21645.27
672.91	21542.29
673.05	21458.03
673.19	21549.31
673.33	21586.76
673.47	21504.84
673.61	21448.67
673.75	21289.51
673.89	21818.47
674.03	21404.20
674.17	21338.66
674.31	21039.08
674.45	21174.83
674.59	21238.02
674.73	21256.75
674.87	21151.42
675.01	21001.63
675.15	21242.70
675.29	20545.22
675.43	20716.08
675.56	20912.69
675.70	21135.04
675.84	20919.71
675.98	20119.24
676.12	20950.14
676.26	20652.89
676.40	20837.79
676.54	20662.25
676.68	20372.02
676.82	20276.06
676.96	20580.33
677.10	20259.68
677.23	19880.51
677.37	20116.90
677.51	20217.55
677.65	20222.23
677.79	20144.99
677.93	19950.73
678.07	19637.09
678.21	19903.92
678.34	19730.72
678.48	19463.90
678.62	19873.49
678.76	19639.44
678.90	19583.26
679.04	19517.73
679.18	19529.43
679.31	19293.04
679.45	19559.86
679.59	19211.12
679.73	18981.74
679.87	19246.23
680.00	19449.85
680.14	19063.66
680.28	19058.98
680.42	18881.10
680.56	19119.84
680.70	18810.89
680.83	19110.47
680.97	18808.54
681.11	18970.04
681.25	18696.20
681.39	18595.56
681.52	18672.79
681.66	18574.49
681.80	18368.52
681.94	18349.80
682.07	18513.64
682.21	18281.92
682.35	17930.84
682.49	18066.60
682.62	18033.83
682.76	18012.76
682.90	18080.64
683.04	17928.50
683.17	17919.14
683.31	18087.66
683.45	18085.32
683.59	17797.43
683.72	17710.83
683.86	17593.81
684.00	17750.62
684.13	17722.54
684.27	17453.37
684.41	17467.42
684.55	17572.74
684.68	17549.34
684.82	17291.88
684.96	17083.57
685.09	16978.25
685.23	16938.46
685.37	17216.98
685.50	17102.29
685.64	17013.35
685.78	17062.51
685.91	16893.99
686.05	16893.99
686.19	16968.88
686.32	17081.23
686.46	16678.66
686.60	16444.60
686.73	16528.86
686.87	16791.00
687.01	16116.93
687.14	16149.70
687.28	16027.99
687.42	16175.44
687.55	16390.77
687.69	15864.15
687.82	16278.43
687.96	15943.73
688.10	16086.50
688.23	15939.05
688.37	16027.99
688.50	15777.55
688.64	15742.44
688.78	15864.15
688.91	15580.95
689.05	15754.15
689.18	15660.52
689.32	15194.76
689.46	15365.62
689.59	15318.81
689.73	15286.04
689.86	15372.64
690.00	15101.14
690.13	15307.10
690.27	15138.58
690.41	15274.34
690.54	15241.57
690.68	15487.32
690.81	15009.86
690.95	15187.74
691.08	14846.02
691.22	14909.21
691.35	14712.61
691.49	14881.13
691.62	14827.29
691.76	14621.33
691.89	14518.34
692.03	14125.13
692.16	14321.74
692.30	14469.19
692.43	14200.03
692.57	14354.51
692.70	14277.27
692.84	14129.81
692.97	13839.59
693.11	14394.29
693.24	14005.77
693.38	14246.84
693.51	14111.09
693.65	14012.79
693.78	14003.43
693.92	13853.63
694.05	13813.84
694.19	13818.52
694.32	13862.99
694.45	13472.12
694.59	13355.10
694.72	13308.29
694.86	13329.35
694.99	13259.13
695.13	13273.18
695.26	13270.84
695.39	13158.49
695.53	13432.33
695.66	13090.62
695.80	13071.89
695.93	13088.28
696.07	13006.36
696.20	13301.26
696.33	12945.50
696.47	12762.94
696.60	12669.32
696.73	12744.22
696.87	12762.94
697.00	12819.11
697.14	12458.67
697.27	12271.43
697.40	12367.39
697.54	12500.80
697.67	12123.98
697.80	12210.57
697.94	11927.37
698.07	12086.53
698.21	11929.71
698.34	11964.82
698.47	12156.74
698.61	12037.38
698.74	12023.33
698.87	11967.16
699.01	11831.41
699.14	11730.76
699.27	11712.04
699.40	11782.26
699.54	11613.74
699.67	11463.94
699.80	11456.92
699.94	11580.97
700.07	11419.47
700.20	11405.43
700.34	11215.85
700.47	11108.18
700.60	11377.34
700.73	11246.27
700.87	11260.32
701.00	10883.49
701.13	11009.88
701.26	10995.84
701.40	10970.09
701.53	11084.78
701.66	11122.23
701.79	10930.30
701.93	10703.27
702.06	10895.19
702.19	10803.91
702.32	10611.99
702.46	10473.90
702.59	10724.33
702.72	10527.73
702.85	10445.81
702.99	10593.26
703.12	10237.50
703.25	10366.23
703.38	10452.83
703.51	10176.65
703.65	10303.04
703.78	10094.73
703.91	10176.65
704.04	10436.45
704.17	10068.98
704.31	10237.50
704.44	10190.69
704.57	10183.67
704.70	9729.61
704.83	9729.61
704.96	9856.00
705.10	9743.65
705.23	9537.68
>>>>>End Processed Spectral Data<<<<<
