SpectraSuite Data File
++++++++++++++++++++++++++++++++++++
Date: Fri Oct 18 13:58:30 GMT-05:00 2013
User: bianchi
Dark Spectrum Present: No
Reference Spectrum Present: No
Number of Sampled Component Spectra: 1
Spectrometers: USB2+H05261
Integration Time (usec): 50000 (USB2+H05261)
Spectra Averaged: 1 (USB2+H05261)
Boxcar Smoothing: 0 (USB2+H05261)
Correct for Electrical Dark: No (USB2+H05261)
Strobe/Lamp Enabled: No (USB2+H05261)
Correct for Detector Non-linearity: No (USB2+H05261)
Correct for Stray Light: No (USB2+H05261)
Number of Pixels in Processed Spectrum: 2048
>>>>>Begin Processed Spectral Data<<<<<
365.73	0.00
365.92	0.00
366.12	0.00
366.32	0.00
366.52	0.00
366.72	0.00
366.91	0.00
367.11	0.00
367.31	0.00
367.51	0.00
367.70	0.00
367.90	0.00
368.10	0.00
368.30	0.00
368.49	0.00
368.69	0.00
368.89	0.00
369.09	0.00
369.28	0.00
369.48	0.00
369.68	0.00
369.87	0.00
370.07	0.00
370.27	0.00
370.47	9.36
370.66	28.09
370.86	163.84
371.06	152.13
371.25	79.58
371.45	140.43
371.65	156.82
371.84	152.13
372.04	175.54
372.24	145.11
372.44	152.13
372.63	149.79
372.83	177.88
373.03	201.29
373.22	152.13
373.42	227.03
373.62	269.16
373.81	280.86
374.01	255.12
374.21	252.78
374.40	243.42
374.60	266.82
374.79	266.82
374.99	201.29
375.19	198.95
375.38	344.06
375.58	238.73
375.78	280.86
375.97	205.97
376.17	332.36
376.37	266.82
376.56	322.99
376.76	238.73
376.95	224.69
377.15	304.27
377.35	220.01
377.54	325.33
377.74	227.03
377.93	236.39
378.13	304.27
378.33	311.29
378.52	318.31
378.72	217.67
378.91	311.29
379.11	325.33
379.31	379.17
379.50	283.20
379.70	332.36
379.89	313.63
380.09	360.44
380.28	208.31
380.48	290.23
380.68	334.70
380.87	351.08
381.07	388.53
381.26	358.10
381.46	301.93
381.65	301.93
381.85	297.25
382.04	365.12
382.24	313.63
382.43	334.70
382.63	374.49
382.83	299.59
383.02	341.72
383.22	423.64
383.41	337.04
383.61	348.74
383.80	362.78
384.00	299.59
384.19	355.76
384.39	358.10
384.58	355.76
384.78	365.12
384.97	381.51
385.17	283.20
385.36	437.68
385.56	351.08
385.75	400.23
385.95	283.20
386.14	369.80
386.34	344.06
386.53	386.19
386.72	414.27
386.92	468.11
387.11	374.49
387.31	411.93
387.50	369.80
387.70	393.21
387.89	388.53
388.09	353.42
388.28	402.57
388.48	433.00
388.67	454.06
388.86	414.27
389.06	416.62
389.25	496.19
389.45	461.09
389.64	451.72
389.84	407.25
390.03	482.15
390.22	528.96
390.42	456.40
390.61	470.45
390.81	458.74
391.00	444.70
391.19	447.04
391.39	505.56
391.58	521.94
391.78	491.51
391.97	510.24
392.16	543.00
392.36	493.85
392.55	500.87
392.75	533.64
392.94	479.81
393.13	468.11
393.33	482.15
393.52	531.30
393.71	557.05
393.91	564.07
394.10	554.71
394.29	550.03
394.49	561.73
394.68	592.16
394.88	603.86
395.07	594.50
395.26	589.82
395.46	564.07
395.65	653.01
395.84	594.50
396.04	580.45
396.23	587.47
396.42	629.60
396.62	596.84
396.81	606.20
397.00	589.82
397.19	641.31
397.39	655.35
397.58	620.24
397.77	662.37
397.97	702.16
398.16	655.35
398.35	692.80
398.55	601.52
398.74	645.99
398.93	800.46
399.12	678.76
399.32	664.71
399.51	650.67
399.70	727.91
399.90	744.29
400.09	784.08
400.28	772.38
400.47	739.61
400.67	732.59
400.86	830.89
401.05	763.01
401.24	805.14
401.44	753.65
401.63	856.64
401.82	842.59
402.01	706.84
402.21	835.57
402.40	903.45
402.59	858.98
402.78	828.55
402.97	844.93
403.17	856.64
403.36	938.55
403.55	887.06
403.74	863.66
403.93	821.53
404.13	896.43
404.32	856.64
404.51	908.13
404.70	908.13
404.89	938.55
405.09	889.40
405.28	854.30
405.47	875.36
405.66	922.17
405.85	1036.86
406.05	919.83
406.24	990.05
406.43	966.64
406.62	1043.88
406.81	938.55
407.00	994.73
407.20	976.00
407.39	1086.01
407.58	1050.90
407.77	1041.54
407.96	1081.33
408.15	1048.56
408.34	1050.90
408.54	1064.94
408.73	966.64
408.92	1013.45
409.11	1107.07
409.30	1153.88
409.49	1151.54
409.68	1163.25
409.87	1111.75
410.07	1104.73
410.26	1146.86
410.45	1184.31
410.64	1118.78
410.83	1247.51
411.02	1198.35
411.21	1252.19
411.40	1256.87
411.59	1308.36
411.78	1348.15
411.98	1191.33
412.17	1315.38
412.36	1291.98
412.55	1273.25
412.74	1287.29
412.93	1296.66
413.12	1289.64
413.31	1392.62
413.50	1345.81
413.69	1434.75
413.88	1416.02
414.07	1490.92
414.26	1418.36
414.45	1434.75
414.64	1423.05
414.83	1483.90
415.02	1469.86
415.22	1511.99
415.41	1497.94
415.60	1444.11
415.79	1514.33
415.98	1572.84
416.17	1643.06
416.36	1530.71
416.55	1533.05
416.74	1610.29
416.93	1668.80
417.12	1673.48
417.31	1605.61
417.50	1664.12
417.69	1547.09
417.88	1727.32
418.07	1629.01
418.26	1717.95
418.45	1607.95
418.64	1736.68
418.83	1818.60
419.02	1886.47
419.21	1790.51
419.39	1797.53
419.58	1802.21
419.77	1699.23
419.96	1832.64
420.15	1851.36
420.34	1874.77
420.53	1877.11
420.72	1963.71
420.91	1860.73
421.10	1942.64
421.29	1888.81
421.48	1905.20
421.67	1877.11
421.86	1912.22
422.05	1994.14
422.24	1881.79
422.43	2012.86
422.61	1973.07
422.80	2008.18
422.99	2019.88
423.18	2092.44
423.37	1914.56
423.56	1975.41
423.75	1980.09
423.94	1898.17
424.13	1853.70
424.32	1891.15
424.50	2052.65
424.69	2054.99
424.88	2062.01
425.07	2022.22
425.26	2038.61
425.45	1902.86
425.64	1989.46
425.83	2019.88
426.01	2008.18
426.20	1996.48
426.39	2071.37
426.58	1973.07
426.77	2045.63
426.96	2010.52
427.15	2005.84
427.33	2076.06
427.52	2012.86
427.71	2204.78
427.90	2160.31
428.09	2200.10
428.28	2019.88
428.46	2239.89
428.65	2160.31
428.84	2267.98
429.03	2244.57
429.22	2183.72
429.40	2207.13
429.59	2237.55
429.78	2134.57
429.97	2169.68
430.16	2038.61
430.34	2200.10
430.53	2256.28
430.72	2209.47
430.91	2267.98
431.10	2413.09
431.28	2392.03
431.47	2340.54
431.66	2410.75
431.85	2317.13
432.03	2349.90
432.22	2368.62
432.41	2286.70
432.60	2251.60
432.79	2335.85
432.97	2473.95
433.16	2373.30
433.35	2321.81
433.54	2396.71
433.72	2424.80
433.91	2520.76
434.10	2553.52
434.28	2459.90
434.47	2434.16
434.66	2532.46
434.85	2483.31
435.03	2605.02
435.22	2569.91
435.41	2693.96
435.59	2509.05
435.78	2562.89
435.97	2640.12
436.16	2651.83
436.34	2696.30
436.53	2644.81
436.72	2700.98
436.90	2539.48
437.09	2796.94
437.28	2731.41
437.46	2609.70
437.65	2766.51
437.84	2644.81
438.02	2703.32
438.21	2738.43
438.40	2649.49
438.58	2895.24
438.77	2871.84
438.96	2780.56
439.14	2939.71
439.33	2768.85
439.52	2904.60
439.70	2801.62
439.89	3096.53
440.08	3002.91
440.26	2920.99
440.45	3019.29
440.63	2909.29
440.82	3138.66
441.01	2949.08
441.19	3040.36
441.38	3197.17
441.57	3194.83
441.75	3239.30
441.94	3222.92
442.12	3194.83
442.31	3281.43
442.50	3178.45
442.68	3407.82
442.87	3314.20
443.05	3248.66
443.24	3243.98
443.43	3344.63
443.61	3267.39
443.80	3475.70
443.98	3281.43
444.17	3110.57
444.35	3431.23
444.54	3459.31
444.73	3447.61
444.91	3349.31
445.10	3403.14
445.28	3403.14
445.47	3433.57
445.65	3389.10
445.84	3501.44
446.02	3538.89
446.21	3417.18
446.39	3377.39
446.58	3508.46
446.77	3515.48
446.95	3482.72
447.14	3480.38
447.32	3571.66
447.51	3480.38
447.69	3527.19
447.88	3520.17
448.06	3475.70
448.25	3403.14
448.43	3559.95
448.62	3478.04
448.80	3482.72
448.99	3543.57
449.17	3377.39
449.36	3527.19
449.54	3562.30
449.73	3646.55
449.91	3742.52
450.10	3754.22
450.28	3716.77
450.46	3613.79
450.65	3833.80
450.83	3709.75
451.02	3768.26
451.20	3744.86
451.39	3763.58
451.57	3779.97
451.76	3714.43
451.94	3801.03
452.13	3843.16
452.31	3852.52
452.49	3742.52
452.68	3803.37
452.86	3899.33
453.05	3892.31
453.23	3943.80
453.42	3824.44
453.60	3875.93
453.78	3854.86
453.97	3770.60
454.15	3939.12
454.34	3801.03
454.52	3889.97
454.70	3850.18
454.89	3887.63
455.07	4004.66
455.26	4084.23
455.44	4018.70
455.62	4044.45
455.81	4131.05
455.99	3922.74
456.17	4037.42
456.36	4063.17
456.54	4046.79
456.73	4081.89
456.91	4271.48
457.09	4252.75
457.28	4201.26
457.46	4152.11
457.64	4306.59
457.83	4264.46
458.01	4229.35
458.19	4339.35
458.38	4341.69
458.56	4372.12
458.74	4301.90
458.93	4224.67
459.11	4294.88
459.29	4491.49
459.48	4381.48
459.66	4538.30
459.84	4418.93
460.03	4507.87
460.21	4491.49
460.39	4334.67
460.57	4458.72
460.76	4521.92
460.94	4566.39
461.12	4594.47
461.31	4517.23
461.49	4587.45
461.67	4449.36
461.85	4704.48
462.04	4706.82
462.22	4713.84
462.40	4631.92
462.59	4641.28
462.77	4631.92
462.95	4779.37
463.13	4828.53
463.32	4741.93
463.50	4802.78
463.68	4753.63
463.86	4683.41
464.05	4765.33
464.23	4760.65
464.41	4856.61
464.59	4741.93
464.78	4898.74
464.96	4894.06
465.14	4812.14
465.32	4943.21
465.50	4985.34
465.69	4884.70
465.87	4926.83
466.05	4746.61
466.23	4903.42
466.41	5053.22
466.60	5114.07
466.78	5006.41
466.96	5069.60
467.14	4992.36
467.32	5006.41
467.51	4943.21
467.69	4863.63
467.87	5034.49
468.05	5097.69
468.23	5181.95
468.41	5184.29
468.60	5067.26
468.78	5212.37
468.96	5118.75
469.14	5266.21
469.32	5191.31
469.50	5247.48
469.69	5352.81
469.87	5357.49
470.05	5408.98
470.23	5413.66
470.41	5240.46
470.59	5397.28
470.77	5343.44
470.95	5420.68
471.14	5518.98
471.32	5322.38
471.50	5661.76
471.68	5434.72
471.86	5493.24
472.04	5549.41
472.22	5640.69
472.40	5547.07
472.58	5746.02
472.77	5680.48
472.95	5809.21
473.13	5816.23
473.31	5853.68
473.49	5809.21
473.67	5680.48
473.85	5748.36
474.03	5923.90
474.21	5755.38
474.39	5930.92
474.57	5959.00
474.75	6015.18
474.93	6085.39
475.12	6164.97
475.30	6136.88
475.48	6085.39
475.66	6099.44
475.84	6160.29
476.02	6293.70
476.20	6179.01
476.38	6441.15
476.56	6401.37
476.74	6480.94
476.92	6417.75
477.10	6368.60
477.28	6700.95
477.46	6427.11
477.64	6672.87
477.82	6511.37
478.00	6981.82
478.18	6754.79
478.36	6888.20
478.54	6925.65
478.72	7000.54
478.90	7056.72
479.08	7126.93
479.26	6984.16
479.44	7045.01
479.62	7419.50
479.80	7258.00
479.98	7262.68
480.16	7314.17
480.34	7452.27
480.52	7456.95
480.70	7611.42
480.88	7470.99
481.06	7630.15
481.24	7648.87
481.41	7653.55
481.59	7737.81
481.77	7747.17
481.95	8018.68
482.13	8166.13
482.31	7995.27
482.49	8168.47
482.67	8173.15
482.85	8409.54
483.03	8367.42
483.21	8325.29
483.39	8374.44
483.57	8348.69
483.74	8606.15
483.92	8725.52
484.10	8657.64
484.28	8636.58
484.46	9011.06
484.64	8919.78
484.82	8882.33
485.00	8833.18
485.18	9118.73
485.35	9118.73
485.53	9165.54
485.71	9294.27
485.89	9514.28
486.07	9371.50
486.25	9413.63
486.43	9411.29
486.61	9731.95
486.78	9834.93
486.96	9795.14
487.14	9905.15
487.32	9858.34
487.50	9923.87
487.68	10078.35
487.85	10263.25
488.03	10298.36
488.21	10258.57
488.39	10370.91
488.57	10698.59
488.75	10562.84
488.92	10724.33
489.10	10855.40
489.28	10810.93
489.46	11068.39
489.64	10939.66
489.81	11253.30
489.99	11344.58
490.17	10972.43
490.35	11213.51
490.53	11176.06
490.70	11562.25
490.88	11248.61
491.06	11770.55
491.24	11438.20
491.41	11707.36
491.59	11763.53
491.77	11950.78
491.95	11885.24
492.13	11997.59
492.30	11983.54
492.48	12044.40
492.66	12271.43
492.84	12159.08
493.01	12285.47
493.19	12355.69
493.37	12627.19
493.54	12638.89
493.72	12718.47
493.90	12362.71
494.08	12809.75
494.25	12905.71
494.43	12992.31
494.61	13158.49
494.79	13193.60
494.96	12917.42
495.14	13048.49
495.32	13476.80
495.49	13556.38
495.67	13394.89
495.85	13453.40
496.02	13596.17
496.20	13884.06
496.38	13598.51
496.55	13722.56
496.73	14050.24
496.91	14003.43
497.09	14394.29
497.26	14185.99
497.44	14005.77
497.62	14164.92
497.79	14293.65
497.97	14548.77
498.14	14441.11
498.32	14771.12
498.50	14597.92
498.67	14649.41
498.85	14574.52
499.03	14497.28
499.20	14815.59
499.38	14649.41
499.56	14750.06
499.73	14939.64
499.91	15115.18
500.08	15063.69
500.26	14934.96
500.44	15274.34
500.61	14984.11
500.79	14967.73
500.97	15255.61
501.14	15672.23
501.32	15704.99
501.49	15679.25
501.67	15758.83
501.84	15838.41
502.02	15578.61
502.20	15995.22
502.37	16072.46
502.55	16056.08
502.72	16358.00
502.90	15857.13
503.07	16058.42
503.25	15894.58
503.43	15985.86
503.60	16229.27
503.78	16255.02
503.95	16334.60
504.13	16465.67
504.30	16411.84
504.48	16566.31
504.65	16423.54
504.83	16575.67
505.01	16711.42
505.18	16491.41
505.36	16704.40
505.53	16547.59
505.71	16596.74
505.88	16791.00
506.06	16809.73
506.23	17153.79
506.41	17245.07
506.58	17137.40
506.76	16999.31
506.93	17324.65
507.11	17219.32
507.28	17081.23
507.46	17383.16
507.63	17465.08
507.81	17771.69
507.98	17476.78
508.16	17549.34
508.33	17530.61
508.50	17841.90
508.68	17776.37
508.85	17867.65
509.03	17678.07
509.20	17972.97
509.38	18139.15
509.55	18207.03
509.73	17841.90
509.90	18483.21
510.08	18106.38
510.25	18120.43
510.42	18195.32
510.60	18382.57
510.77	18408.31
510.95	18382.57
511.12	18436.40
511.30	18588.53
511.47	18279.58
511.64	18609.60
511.82	18581.51
511.99	18593.22
512.17	18815.57
512.34	18782.80
512.51	18640.03
512.69	19098.77
512.86	18974.72
513.04	19227.50
513.21	19063.66
513.38	19215.80
513.56	19286.01
513.73	19281.33
513.90	19522.41
514.08	19049.62
514.25	19506.02
514.43	19601.99
514.60	19522.41
514.77	19632.41
514.95	19735.40
515.12	19604.33
515.29	19646.46
515.47	19695.61
515.64	20252.66
515.81	19843.06
515.99	19800.93
516.16	20074.77
516.33	20140.31
516.51	19927.32
516.68	19836.04
516.85	19910.94
517.03	19903.92
517.20	20002.22
517.37	20140.31
517.54	20355.64
517.72	20322.87
517.89	20313.51
518.06	20290.10
518.24	20212.87
518.41	20292.44
518.58	20718.42
518.75	20437.56
518.93	20652.89
519.10	20395.43
519.27	20540.54
519.45	20769.91
519.62	20781.62
519.79	20655.23
519.96	20730.12
520.14	20936.09
520.31	20659.91
520.48	21259.09
520.65	20737.15
520.83	21235.68
521.00	20961.84
521.17	20912.69
521.34	21092.91
521.52	21083.55
521.69	21558.67
521.86	21465.05
522.03	21488.46
522.20	21172.49
522.38	21277.81
522.55	21338.66
522.72	21146.74
522.89	21420.58
523.07	21631.23
523.24	21727.19
523.41	21902.73
523.58	21855.92
523.75	21694.43
523.92	21453.35
524.10	21743.58
524.27	22162.53
524.44	21942.52
524.61	22333.39
524.78	22237.43
524.96	22277.22
525.13	22309.99
525.30	22333.39
525.47	22298.28
525.64	22270.20
525.81	22249.13
525.98	22319.35
526.16	22436.38
526.33	22410.63
526.50	22661.07
526.67	22335.73
526.84	22342.75
527.01	22508.93
527.18	22532.34
527.36	22562.76
527.53	22803.84
527.70	22955.97
527.87	23412.38
528.04	22930.23
528.21	22600.21
528.38	22663.41
528.55	22913.84
528.72	23124.49
528.89	23225.14
529.07	22834.27
529.24	22899.80
529.41	23124.49
529.58	22967.68
529.75	22829.59
529.92	23351.52
530.09	23253.22
530.26	23356.21
530.43	23094.07
530.60	23056.62
530.77	23175.98
530.94	23260.24
531.11	23159.60
531.28	23639.41
531.46	23456.85
531.63	23583.24
531.80	23836.02
531.97	23946.02
532.14	23655.79
532.31	23349.18
532.48	23896.87
532.65	23840.70
532.82	23634.73
532.99	23873.46
533.16	23770.48
533.33	24013.90
533.50	23964.75
533.67	24002.19
533.84	23901.55
534.01	23550.47
534.18	23669.84
534.35	24002.19
534.52	24084.11
534.69	24102.84
534.86	24680.95
535.03	24140.29
535.20	24428.17
535.37	24261.99
535.54	24395.40
535.71	24065.39
535.88	24428.17
536.05	24343.91
536.22	24467.96
536.38	24449.24
536.55	24507.75
536.72	24706.70
536.89	24437.53
537.06	24776.91
537.23	24837.76
537.40	24608.39
537.57	24779.25
537.74	24720.74
537.91	25184.16
538.08	25092.88
538.25	24524.13
538.42	24994.58
538.59	25067.14
538.75	24594.35
538.92	24968.84
539.09	24933.73
539.26	24992.24
539.43	25020.33
539.60	25287.15
539.77	25303.53
539.94	25308.21
540.11	25053.09
540.28	24985.22
540.44	25233.32
540.61	25263.74
540.78	24875.21
540.95	25490.77
541.12	25198.21
541.29	25338.64
541.46	25542.27
541.62	25268.42
541.79	25675.68
541.96	25120.97
542.13	25483.75
542.30	25582.06
542.47	25631.21
542.63	25568.01
542.80	25778.66
542.97	26244.43
543.14	26202.30
543.31	26033.78
543.48	25778.66
543.64	25853.56
543.81	25954.20
543.98	26237.41
544.15	26199.96
544.32	26052.50
544.48	26265.49
544.65	25876.96
544.82	26082.93
544.99	25764.62
545.16	25975.27
545.32	26080.59
545.49	26424.65
545.66	26522.95
545.83	26136.76
546.00	26738.28
546.16	26305.28
546.33	26558.06
546.50	25654.61
546.67	26576.78
546.83	25951.86
547.00	26499.55
547.17	26567.42
547.34	26604.87
547.50	26448.05
547.67	26946.59
547.84	26834.24
548.00	26827.22
548.17	27047.23
548.34	26817.86
548.51	26974.67
548.67	26721.90
548.84	26562.74
549.01	26670.40
549.18	26628.27
549.34	27129.15
549.51	26845.94
549.68	26675.09
549.84	26600.19
550.01	26967.65
550.18	26642.32
550.34	26953.61
550.51	27257.88
550.68	27178.30
550.84	26789.77
551.01	27049.57
551.18	26946.59
551.34	26700.83
551.51	27035.53
551.68	27030.85
551.84	27222.77
552.01	26993.40
552.18	27239.15
552.34	27426.40
552.51	27426.40
552.68	27463.85
552.84	27356.18
553.01	27016.80
553.18	27386.61
553.34	27405.33
553.51	27337.46
553.67	27798.54
553.84	27391.29
554.01	27828.97
554.17	27527.04
554.34	27484.91
554.51	27859.40
554.67	27728.33
554.84	27878.12
555.00	27335.12
555.17	27257.88
555.33	27367.88
555.50	27721.30
555.67	27225.11
555.83	28060.68
556.00	27761.09
556.16	27730.67
556.33	27271.92
556.50	27569.17
556.66	27999.83
556.83	27714.28
556.99	28273.67
557.16	28599.01
557.32	28011.53
557.49	27725.99
557.65	27896.85
557.82	27800.88
557.98	28079.41
558.15	27807.90
558.32	27854.72
558.48	27833.65
558.65	28367.29
558.81	28226.86
558.98	27950.68
559.14	28264.31
559.31	27913.23
559.47	27838.33
559.64	28144.94
559.80	28156.64
559.97	28299.42
560.13	27625.34
560.30	28418.78
560.46	28355.59
560.63	28591.98
560.79	28311.12
560.96	28320.48
561.12	28629.43
561.29	28203.46
561.45	28463.25
561.61	28353.25
561.78	28332.18
561.94	28390.70
562.11	28510.07
562.27	28566.24
562.44	28421.13
562.60	28573.26
562.77	28545.17
562.93	28168.35
563.10	28533.47
563.26	28416.44
563.42	28540.49
563.59	28503.04
563.75	28896.25
563.92	28587.30
564.08	28432.83
564.24	28563.90
564.41	28105.15
564.57	28540.49
564.74	28776.89
564.90	28669.22
565.07	28753.48
565.23	28842.42
565.39	28687.95
565.56	28910.30
565.72	28336.87
565.88	28776.89
566.05	28608.37
566.21	28503.04
566.38	28362.61
566.54	28477.30
566.70	28760.50
566.87	28687.95
567.03	29048.39
567.19	28968.81
567.36	28903.28
567.52	29226.27
567.68	28924.34
567.85	28741.78
568.01	28926.68
568.17	28652.84
568.34	29020.30
568.50	28730.08
568.66	28893.91
568.83	29317.55
568.99	28835.40
569.15	29111.58
569.32	28290.06
569.48	28912.64
569.64	28807.31
569.81	28790.93
569.97	29315.21
570.13	28896.25
570.30	28510.07
570.46	29067.11
570.62	28964.13
570.78	28800.29
570.95	28603.69
571.11	28914.98
571.27	28608.37
571.43	28769.86
571.60	28957.11
571.76	28884.55
571.92	29043.71
572.09	29163.08
572.25	29244.99
572.41	29631.18
572.57	28903.28
572.74	29195.84
572.90	29174.78
573.06	29006.26
573.22	29003.92
573.38	29130.31
573.55	28914.98
573.71	29493.09
573.87	28872.85
574.03	29020.30
574.20	28985.19
574.36	28912.64
574.52	29319.89
574.68	28599.01
574.84	29024.98
575.01	29511.81
575.17	29104.56
575.33	28924.34
575.49	29200.52
575.65	29212.23
575.82	29233.29
575.98	29357.34
576.14	29376.06
576.30	29249.67
576.46	29420.53
576.62	29003.92
576.79	29116.26
576.95	29132.65
577.11	29408.83
577.27	29511.81
577.43	29179.46
577.59	28910.30
577.75	29502.45
577.92	29441.60
578.08	29027.32
578.24	29165.42
578.40	29092.86
578.56	29181.80
578.72	29347.98
578.88	29338.62
579.04	29450.96
579.21	29132.65
579.37	29268.40
579.53	29390.11
579.69	28739.44
579.85	29418.19
580.01	29244.99
580.17	28861.15
580.33	29329.25
580.49	29184.14
580.65	29820.77
580.82	29584.37
580.98	29249.67
581.14	29048.39
581.30	29064.77
581.46	29069.45
581.62	29652.25
581.78	28975.83
581.94	29322.23
582.10	29184.14
582.26	29699.06
582.42	29275.42
582.58	29575.01
582.74	29638.20
582.90	29425.22
583.06	29441.60
583.22	28999.24
583.38	29490.75
583.54	29284.78
583.70	29118.60
583.86	29399.47
584.02	28982.85
584.18	29539.90
584.34	29326.91
584.50	29376.06
584.66	29312.87
584.82	29149.03
584.98	29029.66
585.14	29560.97
585.30	29364.36
585.46	29020.30
585.62	29362.02
585.78	29462.66
585.94	29273.08
586.10	29439.26
586.26	29862.90
586.42	29813.74
586.58	29404.15
586.74	29457.98
586.90	29605.44
587.06	29570.33
587.22	29069.45
587.38	29336.27
587.54	29715.44
587.70	29535.22
587.86	29191.16
588.02	29844.17
588.18	29661.61
588.34	29582.03
588.49	29472.03
588.65	29214.57
588.81	29132.65
588.97	29170.10
589.13	29359.68
589.29	29359.68
589.45	29706.08
589.61	29883.96
589.77	29778.64
589.93	29500.11
590.08	29809.06
590.24	30036.09
590.40	29776.30
590.56	30118.01
590.72	29647.57
590.88	29507.13
591.04	29666.29
591.20	29497.77
591.35	29479.05
591.51	29977.58
591.67	29883.96
591.83	29965.88
591.99	29909.71
592.15	29895.66
592.31	29701.40
592.46	29362.02
592.62	29235.63
592.78	29502.45
592.94	29755.23
593.10	29645.23
593.26	29673.31
593.41	30216.32
593.57	29947.15
593.73	29776.30
593.89	29930.77
594.05	29865.24
594.20	29823.11
594.36	29603.10
594.52	29795.02
594.68	29886.30
594.84	29460.32
594.99	29764.59
595.15	29909.71
595.31	29923.75
595.47	30192.91
595.62	29759.91
595.78	29823.11
595.94	30087.59
596.10	29706.08
596.25	29516.50
596.41	29640.54
596.57	29172.44
596.73	29764.59
596.88	29771.61
597.04	29963.54
597.20	29975.24
597.36	30054.82
597.51	30307.60
597.67	29832.47
597.83	29993.97
597.99	30054.82
598.14	29968.22
598.30	30118.01
598.46	29441.60
598.61	30176.53
598.77	29734.17
598.93	29951.84
599.09	30052.48
599.24	30508.88
599.40	29806.72
599.56	29940.13
599.71	29926.09
599.87	30101.63
600.03	30068.86
600.18	29766.93
600.34	29371.38
600.50	29607.78
600.65	29743.53
600.81	30015.03
600.97	29834.81
601.12	30469.09
601.28	30380.15
601.44	30061.84
601.59	30010.35
601.75	29649.91
601.91	30167.16
602.06	30120.35
602.22	29986.94
602.37	29668.63
602.53	29699.06
602.69	30150.78
602.84	30132.06
603.00	29991.62
603.16	30066.52
603.31	30394.20
603.47	30026.73
603.62	29839.49
603.78	29797.36
603.94	29762.25
604.09	30127.38
604.25	30017.37
604.40	29834.81
604.56	29692.04
604.71	30110.99
604.87	29993.97
605.03	29986.94
605.18	29741.19
605.34	29961.20
605.49	29720.12
605.65	30087.59
605.80	29869.92
605.96	29720.12
606.12	29640.54
606.27	29989.28
606.43	29865.24
606.58	30031.41
606.74	29846.51
606.89	30024.39
607.05	29993.97
607.20	29893.32
607.36	29600.76
607.51	30061.84
607.67	29542.24
607.82	29373.72
607.98	29970.56
608.13	29748.21
608.29	30174.19
608.44	29680.33
608.60	29888.64
608.75	29898.00
608.91	29942.47
609.06	29811.40
609.22	30031.41
609.37	29888.64
609.53	29401.81
609.68	29883.96
609.84	29666.29
609.99	29539.90
610.15	29694.38
610.30	29638.20
610.46	29373.72
610.61	29645.23
610.76	29673.31
610.92	29921.41
611.07	29371.38
611.23	29198.18
611.38	29329.25
611.54	29467.34
611.69	29347.98
611.84	29317.55
612.00	29525.86
612.15	29216.91
612.31	29535.22
612.46	29544.58
612.62	29876.94
612.77	29951.84
612.92	29598.41
613.08	29436.92
613.23	29619.48
613.39	29315.21
613.54	29219.25
613.69	29266.06
613.85	29305.85
614.00	29338.62
614.15	29397.13
614.31	29364.36
614.46	29366.70
614.62	29109.24
614.77	29125.63
614.92	29467.34
615.08	29151.37
615.23	29296.49
615.38	29296.49
615.54	29177.12
615.69	29163.08
615.84	28973.49
616.00	29202.86
616.15	29060.09
616.30	29347.98
616.46	29139.67
616.61	29230.95
616.76	29708.42
616.92	28879.87
617.07	29469.69
617.22	28886.89
617.37	29228.61
617.53	28992.22
617.68	29053.07
617.83	28844.76
617.99	28957.11
618.14	28828.38
618.29	29048.39
618.45	29029.66
618.60	28795.61
618.75	28917.32
618.90	28945.41
619.06	28924.34
619.21	28833.06
619.36	29024.98
619.51	28360.27
619.67	28723.05
619.82	28849.44
619.97	28706.67
620.12	28652.84
620.28	28428.15
620.43	28664.54
620.58	28830.72
620.73	28842.42
620.89	29032.00
621.04	28774.55
621.19	28849.44
621.34	28772.21
621.49	28271.33
621.65	28409.42
621.80	28762.84
621.95	28240.90
622.10	28580.28
622.25	28371.97
622.41	28503.04
622.56	28596.67
622.71	28673.90
622.86	28645.82
623.01	28552.20
623.16	28435.17
623.32	28500.70
623.47	28409.42
623.62	28706.67
623.77	28154.30
623.92	28320.48
624.07	28210.48
624.23	28182.39
624.38	28388.36
624.53	28381.34
624.68	28610.71
624.83	28505.38
624.98	28493.68
625.13	28428.15
625.29	28767.52
625.44	28154.30
625.59	28070.04
625.74	28196.43
625.89	28098.13
626.04	27903.87
626.19	28006.85
626.34	27871.10
626.49	28198.77
626.65	28250.27
626.80	28245.58
626.95	27885.14
627.10	27983.44
627.25	28058.34
627.40	27613.64
627.55	27763.43
627.70	27850.03
627.85	27931.95
628.00	27714.28
628.15	27941.32
628.30	27899.19
628.45	27871.10
628.60	27625.34
628.76	28140.26
628.91	28140.26
629.06	27924.93
629.21	27903.87
629.36	27857.06
629.51	27765.78
629.66	27676.83
629.81	27821.95
629.96	27566.83
630.11	27599.60
630.26	27861.74
630.41	27716.62
630.56	27728.33
630.71	27438.10
630.86	28009.19
631.01	27765.78
631.16	27775.14
631.31	27386.61
631.46	27026.17
631.61	27388.95
631.76	27541.08
631.91	27307.03
632.06	27447.46
632.21	27393.63
632.36	27227.45
632.51	27283.62
632.66	27517.68
632.81	27213.41
632.96	27119.79
633.10	27239.15
633.25	27442.78
633.40	27552.79
633.55	27164.26
633.70	27234.47
633.85	27248.52
634.00	26892.76
634.15	27044.89
634.30	27063.61
634.45	27154.90
634.60	26899.78
634.75	27370.22
634.90	27398.31
635.05	27065.96
635.19	27243.84
635.34	27505.98
635.49	27232.13
635.64	27463.85
635.79	27051.91
635.94	26721.90
636.09	27342.14
636.24	26881.05
636.39	26859.99
636.53	27068.30
636.68	27136.17
636.83	26993.40
636.98	26848.29
637.13	27012.12
637.28	26953.61
637.43	27199.37
637.57	26841.26
637.72	26892.76
637.87	26714.87
638.02	26991.06
638.17	26773.39
638.32	26930.20
638.46	26703.17
638.61	26670.40
638.76	26235.06
638.91	26473.80
639.06	26462.10
639.20	26911.48
639.35	26658.70
639.50	26836.58
639.65	26850.63
639.80	26892.76
639.94	26405.92
640.09	26771.05
640.24	26515.93
640.39	26501.89
640.54	26265.49
640.68	26682.11
640.83	26426.99
640.98	26508.91
641.13	25872.28
641.27	26401.24
641.42	26274.85
641.57	26239.75
641.72	26199.96
641.86	26150.81
642.01	26068.89
642.16	26375.50
642.31	26101.65
642.45	26204.64
642.60	25858.24
642.75	26150.81
642.90	26579.12
643.04	26146.12
643.19	25949.52
643.34	26111.02
643.48	26146.12
643.63	25961.22
643.78	26061.87
643.93	26452.73
644.07	26293.58
644.22	26073.57
644.37	26052.50
644.51	26314.64
644.66	26150.81
644.81	25919.09
644.95	25575.03
645.10	25783.34
645.25	26295.92
645.39	25865.26
645.54	25993.99
645.69	26106.34
645.83	25813.77
645.98	25813.77
646.13	26113.36
646.27	25986.97
646.42	25865.26
646.57	25883.98
646.71	25848.88
646.86	26260.81
647.00	25783.34
647.15	25743.55
647.30	25659.29
647.44	25490.77
647.59	25596.10
647.74	25769.30
647.88	25715.47
648.03	25628.87
648.17	25837.17
648.32	25818.45
648.47	25837.17
648.61	25525.88
648.76	25921.43
648.90	25806.75
649.05	25621.84
649.20	25413.54
649.34	25568.01
649.49	25406.52
649.63	25401.83
649.78	25165.44
649.92	25247.36
650.07	25322.26
650.21	25413.54
650.36	25284.81
650.51	25476.73
650.65	25612.48
650.80	25607.80
650.94	25088.20
651.09	25326.94
651.23	25139.69
651.38	25106.93
651.52	25071.82
651.67	25317.57
651.81	25345.66
651.96	24875.21
652.10	25350.34
652.25	25469.71
652.39	25415.88
652.54	25380.77
652.68	25303.53
652.83	25230.98
652.97	25188.85
653.12	25228.63
653.26	25289.49
653.41	25195.87
653.55	25294.17
653.70	25118.63
653.84	25348.00
653.99	25317.57
654.13	24915.00
654.27	25029.69
654.42	25041.39
654.56	24973.52
654.71	24961.81
654.85	24966.49
655.00	25135.01
655.14	24767.55
655.29	24868.19
655.43	24549.88
655.57	25092.88
655.72	24620.10
655.86	24819.04
656.01	24751.17
656.15	24414.13
656.30	24767.55
656.44	24893.94
656.58	24599.03
656.73	24603.71
656.87	24659.88
657.01	24830.74
657.16	24856.49
657.30	24552.22
657.45	24554.56
657.59	24673.93
657.73	24407.11
657.88	24311.14
658.02	24620.10
658.16	24510.09
658.31	24301.78
658.45	24343.91
658.60	24189.44
658.74	24285.40
658.88	23950.70
659.03	24606.05
659.17	24589.67
659.31	24432.85
659.46	24123.90
659.60	24360.30
659.74	24603.71
659.89	24336.89
660.03	24013.90
660.17	24098.16
660.32	23985.81
660.46	24327.53
660.60	23866.44
660.74	23810.27
660.89	23681.54
661.03	23702.61
661.17	23953.04
661.32	24348.59
661.46	23955.38
661.60	23742.39
661.74	23810.27
661.89	23775.16
662.03	24077.09
662.17	23812.61
662.31	23726.01
662.46	23653.45
662.60	23702.61
662.74	23894.53
662.88	23304.71
663.03	23466.21
663.17	23229.82
663.31	23283.65
663.45	23524.72
663.60	23641.75
663.74	23143.22
663.88	23183.01
664.02	23126.83
664.17	23180.67
664.31	23019.17
664.45	23129.17
664.59	23108.11
664.73	23250.88
664.88	23208.75
665.02	22700.86
665.16	22946.61
665.30	22691.49
665.44	22881.08
665.59	22831.93
665.73	23131.51
665.87	22656.39
666.01	22869.37
666.15	22944.27
666.29	22707.88
666.44	22618.94
666.58	22607.23
666.72	22644.68
666.86	22944.27
667.00	22888.10
667.14	22972.36
667.28	22480.85
667.43	22539.36
667.57	22745.33
667.71	22391.91
667.85	22714.90
667.99	22419.99
668.13	22436.38
668.27	22537.02
668.41	22565.10
668.56	22534.68
668.70	22572.13
668.84	22279.56
668.98	22448.08
669.12	22312.33
669.26	21968.27
669.40	22258.49
669.54	22216.36
669.68	22019.76
669.82	22125.08
669.96	21678.04
670.10	21593.78
670.25	22003.38
670.39	21926.14
670.53	21853.58
670.67	21921.46
670.81	21783.37
670.95	21956.57
671.09	22061.89
671.23	21998.70
671.37	22024.44
671.51	21823.16
671.65	21848.90
671.79	21532.93
671.93	21558.67
672.07	21764.64
672.21	21287.17
672.35	21142.06
672.49	21195.89
672.63	21448.67
672.77	21209.93
672.91	21270.79
673.05	20999.29
673.19	21186.53
673.33	21188.87
673.47	21188.87
673.61	21205.25
673.75	21355.05
673.89	21151.42
674.03	21146.74
674.17	21216.96
674.31	21060.14
674.45	20861.19
674.59	20795.66
674.73	20856.51
674.87	20795.66
675.01	20615.44
675.15	20245.63
675.29	20482.03
675.43	20582.67
675.56	20341.60
675.70	20414.15
675.84	20320.53
675.98	19786.89
676.12	20467.98
676.26	20709.06
676.40	20372.02
676.54	19833.70
676.68	20166.06
676.82	19421.77
676.96	19824.34
677.10	19726.04
677.23	19583.26
677.37	19491.98
677.51	19854.76
677.65	19798.59
677.79	19527.09
677.93	19489.64
678.07	19737.74
678.21	19115.16
678.34	19613.69
678.48	19428.79
678.62	19171.33
678.76	19049.62
678.90	18995.79
679.04	18909.19
679.18	19068.34
679.31	19061.32
679.45	19014.51
679.59	18780.46
679.73	18604.92
679.87	18604.92
680.00	18647.05
680.14	18593.22
680.28	18560.45
680.42	18614.28
680.56	18642.37
680.70	18752.37
680.83	18396.61
680.97	18616.62
681.11	18555.77
681.25	18246.82
681.39	18225.75
681.52	18324.05
681.66	17982.34
681.80	18164.90
681.94	18150.85
682.07	17909.78
682.21	17898.08
682.35	17729.56
682.49	17455.72
682.62	17762.33
682.76	17493.16
682.90	17631.26
683.04	17575.08
683.17	17586.79
683.31	17584.44
683.45	17628.92
683.59	17507.21
683.72	17486.14
683.86	17532.95
684.00	17228.68
684.13	17268.47
684.27	17144.42
684.41	16786.32
684.55	16989.95
684.68	16830.79
684.82	16961.86
684.96	16723.13
685.09	16950.16
685.23	16622.48
685.37	16463.33
685.50	16798.02
685.64	16917.39
685.78	16477.37
685.91	16823.77
686.05	16453.97
686.19	16596.74
686.32	16599.08
686.46	16400.13
686.60	16313.53
686.73	16236.30
686.87	16173.10
687.01	16177.78
687.14	15999.90
687.28	15981.18
687.42	16020.97
687.55	15681.59
687.69	15831.38
687.82	16039.69
687.96	15901.60
688.10	15639.46
688.23	15653.50
688.37	15536.48
688.50	15637.12
688.64	15569.24
688.78	15548.18
688.91	15475.62
689.05	15433.49
689.18	15393.70
689.32	14916.23
689.46	15136.24
689.59	15063.69
689.73	14934.96
689.86	14925.60
690.00	15026.24
690.13	14785.16
690.27	14750.06
690.41	14675.16
690.54	14621.33
690.68	14747.72
690.81	14675.16
690.95	14757.08
691.08	14487.92
691.22	14406.00
691.35	14415.36
691.49	14707.93
691.62	14448.13
691.76	14366.21
691.89	14235.14
692.03	14169.60
692.16	13940.23
692.30	14066.62
692.43	14024.49
692.57	14012.79
692.70	13752.99
692.84	13867.67
692.97	13877.04
693.11	13767.03
693.24	13748.31
693.38	13654.69
693.51	13776.39
693.65	13525.96
693.78	13317.65
693.92	13298.92
694.05	13542.34
694.19	13308.29
694.32	13495.53
694.45	13259.13
694.59	13034.44
694.72	12985.29
694.86	13039.12
694.99	12835.50
695.13	12924.44
695.26	12882.31
695.39	12908.05
695.53	13081.25
695.66	12877.63
695.80	12863.58
695.93	12671.66
696.07	12968.91
696.20	12629.53
696.33	12489.10
696.47	12561.66
696.60	12376.75
696.73	12259.73
696.87	12662.30
697.00	12252.70
697.14	12224.62
697.27	12126.32
697.40	12119.29
697.54	12070.14
697.67	12093.55
697.80	11964.82
697.94	11836.09
698.07	11681.61
698.21	11981.20
698.34	11857.15
698.47	11676.93
698.61	11669.91
698.74	11723.74
698.87	11815.02
699.01	11564.59
699.14	11562.25
699.27	11412.45
699.40	11562.25
699.54	11480.33
699.67	11154.99
699.80	11393.73
699.94	11229.89
700.07	11295.43
700.20	11183.08
700.34	10920.94
700.47	10960.73
700.60	10995.84
700.73	10984.13
700.87	10916.26
701.00	10972.43
701.13	11049.67
701.26	10714.97
701.40	10738.38
701.53	10803.91
701.66	10658.80
701.79	10691.57
701.93	10815.62
702.06	10246.87
702.19	10429.43
702.32	10319.42
702.46	10366.23
702.59	10321.76
702.72	10321.76
702.85	10303.04
702.99	10059.62
703.12	10111.11
703.25	10141.54
703.38	10284.31
703.51	10237.50
703.65	10162.61
703.78	9933.23
703.91	9806.84
704.04	9851.31
704.17	9902.81
704.31	9762.37
704.44	9823.23
704.57	9673.43
704.70	9645.35
704.83	9540.02
704.96	9324.69
705.10	9336.40
705.23	9394.91
>>>>>End Processed Spectral Data<<<<<
