SpectraSuite Data File
++++++++++++++++++++++++++++++++++++
Date: Fri Oct 18 13:58:31 GMT-05:00 2013
User: bianchi
Dark Spectrum Present: No
Reference Spectrum Present: No
Number of Sampled Component Spectra: 1
Spectrometers: USB2+H05261
Integration Time (usec): 50000 (USB2+H05261)
Spectra Averaged: 1 (USB2+H05261)
Boxcar Smoothing: 0 (USB2+H05261)
Correct for Electrical Dark: No (USB2+H05261)
Strobe/Lamp Enabled: No (USB2+H05261)
Correct for Detector Non-linearity: No (USB2+H05261)
Correct for Stray Light: No (USB2+H05261)
Number of Pixels in Processed Spectrum: 2048
>>>>>Begin Processed Spectral Data<<<<<
365.73	0.00
365.92	0.00
366.12	0.00
366.32	0.00
366.52	0.00
366.72	0.00
366.91	0.00
367.11	0.00
367.31	0.00
367.51	0.00
367.70	0.00
367.90	0.00
368.10	0.00
368.30	0.00
368.49	0.00
368.69	0.00
368.89	0.00
369.09	0.00
369.28	0.00
369.48	0.00
369.68	0.00
369.87	0.00
370.07	0.00
370.27	0.00
370.47	0.00
370.66	88.94
370.86	180.22
371.06	198.95
371.25	149.79
371.45	126.39
371.65	163.84
371.84	140.43
372.04	201.29
372.24	210.65
372.44	212.99
372.63	198.95
372.83	173.20
373.03	182.56
373.22	205.97
373.42	184.90
373.62	182.56
373.81	234.05
374.01	220.01
374.21	229.37
374.40	234.05
374.60	187.24
374.79	241.08
374.99	234.05
375.19	194.26
375.38	322.99
375.58	187.24
375.78	210.65
375.97	320.65
376.17	299.59
376.37	266.82
376.56	299.59
376.76	191.92
376.95	297.25
377.15	262.14
377.35	346.40
377.54	259.80
377.74	269.16
377.93	194.26
378.13	238.73
378.33	308.95
378.52	262.14
378.72	280.86
378.91	248.10
379.11	269.16
379.31	280.86
379.50	330.02
379.70	283.20
379.89	292.57
380.09	278.52
380.28	262.14
380.48	322.99
380.68	198.95
380.87	292.57
381.07	301.93
381.26	299.59
381.46	337.04
381.65	362.78
381.85	330.02
382.04	245.76
382.24	376.83
382.43	351.08
382.63	311.29
382.83	367.46
383.02	362.78
383.22	421.30
383.41	259.80
383.61	435.34
383.80	416.62
384.00	348.74
384.19	376.83
384.39	320.65
384.58	397.89
384.78	327.68
384.97	358.10
385.17	425.98
385.36	414.27
385.56	325.33
385.75	297.25
385.95	395.55
386.14	451.72
386.34	346.40
386.53	393.21
386.72	337.04
386.92	369.80
387.11	367.46
387.31	397.89
387.50	400.23
387.70	507.90
387.89	430.66
388.09	430.66
388.28	402.57
388.48	421.30
388.67	425.98
388.86	414.27
389.06	510.24
389.25	451.72
389.45	437.68
389.64	418.96
389.84	447.04
390.03	472.79
390.22	447.04
390.42	470.45
390.61	461.09
390.81	433.00
391.00	538.32
391.19	528.96
391.39	500.87
391.58	484.49
391.78	540.66
391.97	500.87
392.16	500.87
392.36	561.73
392.55	524.28
392.75	606.20
392.94	472.79
393.13	606.20
393.33	585.13
393.52	528.96
393.71	620.24
393.91	543.00
394.10	552.37
394.29	550.03
394.49	599.18
394.68	660.03
394.88	559.39
395.07	594.50
395.26	547.69
395.46	571.09
395.65	575.77
395.84	657.69
396.04	674.07
396.23	716.20
396.42	653.01
396.62	603.86
396.81	704.50
397.00	660.03
397.19	678.76
397.39	744.29
397.58	662.37
397.77	709.18
397.97	690.46
398.16	664.71
398.35	753.65
398.55	699.82
398.74	674.07
398.93	676.41
399.12	725.57
399.32	638.97
399.51	669.39
399.70	777.06
399.90	671.73
400.09	706.84
400.28	716.20
400.47	793.44
400.67	758.33
400.86	720.88
401.05	770.04
401.24	706.84
401.44	760.67
401.63	760.67
401.82	800.46
402.01	725.57
402.21	795.78
402.40	854.30
402.59	784.08
402.78	730.25
402.97	844.93
403.17	887.06
403.36	807.48
403.55	821.53
403.74	894.08
403.93	952.60
404.13	950.26
404.32	854.30
404.51	903.45
404.70	870.68
404.89	844.93
405.09	851.96
405.28	922.17
405.47	980.68
405.66	997.07
405.85	887.06
406.05	870.68
406.24	889.40
406.43	985.37
406.62	940.90
406.81	954.94
407.00	968.98
407.20	1046.22
407.39	976.00
407.58	997.07
407.77	1029.84
407.96	1020.47
408.15	1125.80
408.34	1025.15
408.54	1067.28
408.73	1055.58
408.92	1064.94
409.11	1069.62
409.30	1069.62
409.49	1224.10
409.68	1093.03
409.87	1125.80
410.07	1149.20
410.26	1135.16
410.45	1130.48
410.64	1226.44
410.83	1191.33
411.02	1165.59
411.21	1177.29
411.40	1217.08
411.59	1224.10
411.78	1231.12
411.98	1249.85
412.17	1228.78
412.36	1266.23
412.55	1301.34
412.74	1231.12
412.93	1210.06
413.12	1385.60
413.31	1411.34
413.50	1430.07
413.69	1383.26
413.88	1373.89
414.07	1329.42
414.26	1369.21
414.45	1465.18
414.64	1521.35
414.83	1427.73
415.02	1460.49
415.22	1441.77
415.41	1432.41
415.60	1551.78
415.79	1605.61
415.98	1507.30
416.17	1582.20
416.36	1558.80
416.55	1544.75
416.74	1652.42
416.93	1568.16
417.12	1703.91
417.31	1708.59
417.50	1645.40
417.69	1701.57
417.88	1785.83
418.07	1750.72
418.26	1708.59
418.45	1710.93
418.64	1804.55
418.83	1785.83
419.02	1809.23
419.21	1797.53
419.39	1806.89
419.58	1781.15
419.77	1806.89
419.96	1874.77
420.15	1830.30
420.34	1830.30
420.53	1874.77
420.72	1879.45
420.91	1872.43
421.10	1907.54
421.29	1963.71
421.48	1823.28
421.67	1977.75
421.86	1933.28
422.05	1980.09
422.24	1888.81
422.43	1933.28
422.61	1977.75
422.80	2024.56
422.99	2015.20
423.18	1947.33
423.37	2054.99
423.56	1984.77
423.75	1933.28
423.94	1914.56
424.13	1872.43
424.32	1905.20
424.50	1994.14
424.69	2104.14
424.88	1996.48
425.07	1961.37
425.26	1975.41
425.45	1963.71
425.64	2017.54
425.83	2005.84
426.01	2031.58
426.20	2113.50
426.39	2031.58
426.58	2062.01
426.77	2057.33
426.96	2071.37
427.15	2005.84
427.33	2087.76
427.52	2022.22
427.71	2160.31
427.90	2104.14
428.09	2181.38
428.28	2143.93
428.46	2071.37
428.65	2214.15
428.84	2195.42
429.03	2232.87
429.22	2169.68
429.40	2160.31
429.59	2258.62
429.78	2106.48
429.97	2134.57
430.16	2207.13
430.34	2155.63
430.53	2305.43
430.72	2232.87
430.91	2366.28
431.10	2165.00
431.28	2335.85
431.47	2373.30
431.66	2291.38
431.85	2275.00
432.03	2354.58
432.22	2359.26
432.41	2495.01
432.60	2321.81
432.79	2509.05
432.97	2581.61
433.16	2438.84
433.35	2408.41
433.54	2492.67
433.72	2469.27
433.91	2530.12
434.10	2462.24
434.28	2431.82
434.47	2574.59
434.66	2490.33
434.85	2516.08
435.03	2546.50
435.22	2670.55
435.41	2612.04
435.59	2633.10
435.78	2527.78
435.97	2574.59
436.16	2544.16
436.34	2612.04
436.53	2548.84
436.72	2555.86
436.90	2612.04
437.09	2619.06
437.28	2600.34
437.46	2635.44
437.65	2796.94
437.84	2731.41
438.02	2703.32
438.21	2712.68
438.40	2684.59
438.58	2892.90
438.77	2743.11
438.96	2855.45
439.14	2918.65
439.33	2897.58
439.52	3026.31
439.70	2958.44
439.89	3007.59
440.08	2918.65
440.26	2860.13
440.45	3117.59
440.63	3049.72
440.82	3096.53
441.01	3052.06
441.19	3052.06
441.38	3201.85
441.57	3098.87
441.75	3073.12
441.94	3215.90
442.12	3274.41
442.31	3332.92
442.50	3335.26
442.68	3192.49
442.87	3281.43
443.05	3349.31
443.24	3304.84
443.43	3300.16
443.61	3225.26
443.80	3272.07
443.98	3258.03
444.17	3035.67
444.35	3288.45
444.54	3468.67
444.73	3272.07
444.91	3325.90
445.10	3260.37
445.28	3368.03
445.47	3337.60
445.65	3400.80
445.84	3475.70
446.02	3405.48
446.21	3290.79
446.39	3499.10
446.58	3389.10
446.77	3552.93
446.95	3351.65
447.14	3396.12
447.32	3510.80
447.51	3375.05
447.69	3421.86
447.88	3375.05
448.06	3487.40
448.25	3356.33
448.43	3552.93
448.62	3466.33
448.80	3555.27
448.99	3655.92
449.17	3599.74
449.36	3529.53
449.54	3637.19
449.73	3510.80
449.91	3569.32
450.10	3569.32
450.28	3763.58
450.46	3604.42
450.65	3803.37
450.83	3735.50
451.02	3625.49
451.20	3702.73
451.39	3714.43
451.57	3768.26
451.76	3623.15
451.94	3693.37
452.13	3721.45
452.31	3733.15
452.49	3630.17
452.68	3794.01
452.86	3756.56
453.05	3845.50
453.23	3861.88
453.42	3723.79
453.60	3786.99
453.78	3786.99
453.97	3892.31
454.15	3843.16
454.34	3852.52
454.52	3960.19
454.70	3929.76
454.89	3906.35
455.07	4030.40
455.26	3911.04
455.44	4098.28
455.62	3840.82
455.81	4049.13
455.99	4081.89
456.17	4039.76
456.36	4023.38
456.54	4086.58
456.73	4079.55
456.91	4210.62
457.09	4243.39
457.28	4311.27
457.46	4194.24
457.64	4311.27
457.83	4285.52
458.01	4180.20
458.19	4262.12
458.38	4407.23
458.56	4294.88
458.74	4250.41
458.93	4304.25
459.11	4292.54
459.29	4266.80
459.48	4283.18
459.66	4376.80
459.84	4498.51
460.03	4521.92
460.21	4519.57
460.39	4638.94
460.57	4362.76
460.76	4610.86
460.94	4589.79
461.12	4496.17
461.31	4542.98
461.49	4428.29
461.67	4596.81
461.85	4634.26
462.04	4538.30
462.22	4812.14
462.40	4685.75
462.59	4716.18
462.77	4725.54
462.95	4608.51
463.13	4683.41
463.32	4723.20
463.50	4741.93
463.68	4746.61
463.86	4812.14
464.05	4795.76
464.23	4685.75
464.41	4662.35
464.59	4718.52
464.78	4894.06
464.96	4854.27
465.14	4770.01
465.32	4922.15
465.50	4875.34
465.69	4943.21
465.87	5036.83
466.05	4858.95
466.23	5001.72
466.41	4842.57
466.60	5121.09
466.78	4919.81
466.96	4915.12
467.14	4952.57
467.32	5011.09
467.51	4915.12
467.69	4840.23
467.87	5095.35
468.05	5135.14
468.23	5039.17
468.41	4901.08
468.60	5006.41
468.78	5170.24
468.96	5198.33
469.14	5160.88
469.32	5240.46
469.50	5081.30
469.69	5181.95
469.87	5273.23
470.05	5366.85
470.23	5195.99
470.41	5315.36
470.59	5385.57
470.77	5214.71
470.95	5401.96
471.14	5418.34
471.32	5441.75
471.50	5451.11
471.68	5441.75
471.86	5624.31
472.04	5614.95
472.22	5514.30
472.40	5603.24
472.58	5530.69
472.77	5423.02
472.95	5710.91
473.13	5959.00
473.31	5776.44
473.49	5654.73
473.67	5834.96
473.85	5909.85
474.03	5954.32
474.21	6073.69
474.39	5961.34
474.57	5907.51
474.75	6054.97
474.93	6071.35
475.12	6141.57
475.30	6090.07
475.48	6061.99
475.66	6122.84
475.84	6026.88
476.02	6347.53
476.20	6232.85
476.38	6494.99
476.56	6523.07
476.74	6333.49
476.92	6455.20
477.10	6403.71
477.28	6530.09
477.46	6464.56
477.64	6612.01
477.82	6558.18
478.00	6949.05
478.18	6736.06
478.36	6808.62
478.54	7068.42
478.72	6813.30
478.90	6892.88
479.08	7077.78
479.26	7138.63
479.44	7066.08
479.62	7009.90
479.80	7190.13
479.98	7157.36
480.16	7494.40
480.34	7482.69
480.52	7606.74
480.70	7463.97
480.88	7424.18
481.06	7609.08
481.24	7606.74
481.41	7756.54
481.59	7707.38
481.77	7763.56
481.95	7803.35
482.13	7925.05
482.31	7908.67
482.49	8109.96
482.67	8058.46
482.85	8081.87
483.03	8273.79
483.21	8376.78
483.39	8528.91
483.57	8393.16
483.74	8358.05
483.92	8402.52
484.10	8557.00
484.28	8854.25
484.46	8851.91
484.64	9083.62
484.82	8908.08
485.00	8924.46
485.18	9095.32
485.35	9280.22
485.53	9289.59
485.71	9256.82
485.89	9338.74
486.07	9415.98
486.25	9385.55
486.43	9525.98
486.61	9549.39
486.78	9568.11
486.96	9811.53
487.14	9970.68
487.32	9989.41
487.50	10047.92
487.68	10160.27
487.85	10108.77
488.03	10141.54
488.21	10434.11
488.39	10487.94
488.57	10373.25
488.75	10579.22
488.92	10670.50
489.10	10792.21
489.28	10675.18
489.46	10965.41
489.64	10920.94
489.81	11089.46
489.99	11068.39
490.17	11133.93
490.35	11316.49
490.53	10963.07
490.70	11391.39
490.88	11410.11
491.06	11527.14
491.24	11529.48
491.41	11487.35
491.59	11419.47
491.77	11770.55
491.95	11688.64
492.13	11941.41
492.30	12091.21
492.48	11960.14
492.66	12343.99
492.84	12046.74
493.01	12425.90
493.19	12409.52
493.37	12531.23
493.54	12498.46
493.72	12711.45
493.90	12542.93
494.08	12992.31
494.25	12889.33
494.43	12961.89
494.61	13018.06
494.79	13081.25
494.96	13179.56
495.14	13095.30
495.32	13057.85
495.49	13254.45
495.67	13488.51
495.85	13535.32
496.02	13474.46
496.20	13715.54
496.38	13671.07
496.55	13633.62
496.73	13984.70
496.91	13884.06
497.09	13809.16
497.26	14136.84
497.44	13961.30
497.62	14373.23
497.79	14270.25
497.97	14185.99
498.14	14611.96
498.32	14490.26
498.50	14312.38
498.67	14710.27
498.85	14471.53
499.03	14710.27
499.20	14532.39
499.38	14602.60
499.56	15054.33
499.73	14923.26
499.91	15124.54
500.08	15229.87
500.26	15070.71
500.44	15269.66
500.61	15023.90
500.79	15197.10
500.97	15461.58
501.14	15419.45
501.32	15627.76
501.49	15627.76
501.67	15517.75
501.84	15796.28
502.02	15784.57
502.20	15885.22
502.37	15838.41
502.55	15810.32
502.72	15850.11
502.90	15995.22
503.07	15997.56
503.25	16030.33
503.43	15985.86
503.60	16135.65
503.78	16011.60
503.95	16278.43
504.13	16259.70
504.30	16493.76
504.48	16477.37
504.65	16243.32
504.83	16699.72
505.01	16566.31
505.18	16573.33
505.36	16905.69
505.53	16753.55
505.71	16711.42
505.88	17076.55
506.06	16709.08
506.23	16830.79
506.41	17128.04
506.58	17046.12
506.76	17411.25
506.93	17022.72
507.11	16943.14
507.28	17301.24
507.46	17074.21
507.63	17221.66
507.81	17720.20
507.98	17376.14
508.16	17254.43
508.33	17502.53
508.50	17565.72
508.68	17736.58
508.85	17804.46
509.03	17727.22
509.20	17685.09
509.38	17785.73
509.55	17858.29
509.73	18160.22
509.90	17846.58
510.08	17809.14
510.25	17940.21
510.42	18139.15
510.60	18317.03
510.77	18523.00
510.95	18745.35
511.12	18122.77
511.30	18384.91
511.47	18497.25
511.64	18457.46
511.82	18820.25
511.99	18904.51
512.17	18815.57
512.34	18747.69
512.51	18754.71
512.69	18782.80
512.86	19070.68
513.04	18941.96
513.21	19056.64
513.38	19339.85
513.56	19094.09
513.73	19206.44
513.90	19124.52
514.08	19468.58
514.25	19070.68
514.43	19342.19
514.60	19683.91
514.77	19550.49
514.95	19374.95
515.12	19541.13
515.29	19494.32
515.47	19569.22
515.64	19501.34
515.81	19889.87
515.99	20020.94
516.16	20056.05
516.33	19906.26
516.51	19875.83
516.68	19988.18
516.85	19817.32
517.03	19971.79
517.20	19974.13
517.37	20070.09
517.54	20002.22
517.72	20166.06
517.89	20142.65
518.06	20257.34
518.24	20737.15
518.41	20271.38
518.58	20182.44
518.75	20475.01
518.93	20292.44
519.10	20341.60
519.27	20507.77
519.45	20524.16
519.62	20671.61
519.79	20695.02
519.96	20451.60
520.14	20842.47
520.31	20828.43
520.48	20985.24
520.65	20758.21
520.83	20884.60
521.00	20893.96
521.17	21158.44
521.34	20856.51
521.52	21516.54
521.69	21125.68
521.86	21296.53
522.03	21312.92
522.20	21305.90
522.38	21523.57
522.55	21411.22
522.72	21589.10
522.89	21415.90
523.07	21598.46
523.24	21598.46
523.41	22113.38
523.58	21495.48
523.75	21572.72
523.92	21518.89
524.10	21912.10
524.27	21818.47
524.44	22162.53
524.61	22050.19
524.78	21979.97
524.96	22129.77
525.13	21965.93
525.30	22094.66
525.47	21872.31
525.64	21865.28
525.81	22389.56
525.98	22396.59
526.16	22312.33
526.33	22075.93
526.50	22541.70
526.67	22490.21
526.84	22480.85
527.01	22174.24
527.18	22581.49
527.36	22555.74
527.53	22768.73
527.70	22607.23
527.87	22904.48
528.04	22963.00
528.21	22974.70
528.38	22714.90
528.55	22803.84
528.72	23058.96
528.89	22892.78
529.07	23159.60
529.24	23171.30
529.41	22773.41
529.58	23145.56
529.75	23377.27
529.92	23110.45
530.09	23260.24
530.26	23264.92
530.43	23051.94
530.60	22782.77
530.77	23026.19
530.94	23136.20
531.11	23318.76
531.28	23300.03
531.46	23239.18
531.63	23548.13
531.80	23559.83
531.97	24002.19
532.14	23651.11
532.31	23513.02
532.48	23915.59
532.65	23630.05
532.82	23534.09
532.99	23793.89
533.16	23508.34
533.33	23737.71
533.50	24023.26
533.67	23714.31
533.84	23552.81
534.01	23770.48
534.18	23672.18
534.35	24105.18
534.52	23901.55
534.69	24147.31
534.86	24084.11
535.03	24107.52
535.20	24123.90
535.37	24147.31
535.54	23946.02
535.71	24271.36
535.88	24119.22
536.05	24491.37
536.22	24355.61
536.38	24556.90
536.55	24662.22
536.72	24821.38
536.89	24561.58
537.06	24467.96
537.23	24678.61
537.40	24290.08
537.57	24694.99
537.74	24673.93
537.91	24961.81
538.08	24854.15
538.25	24947.77
538.42	24865.85
538.59	24889.26
538.75	24599.03
538.92	25092.88
539.09	25144.38
539.26	25104.59
539.43	25123.31
539.60	24889.26
539.77	25235.66
539.94	24996.92
540.11	24919.68
540.28	24907.98
540.44	24875.21
540.61	25235.66
540.78	24943.09
540.95	25127.99
541.12	25326.94
541.29	25455.67
541.46	25132.67
541.62	25312.89
541.79	25273.10
541.96	25132.67
542.13	25230.98
542.30	25649.93
542.47	25579.71
542.63	25415.88
542.80	25656.95
542.97	25460.35
543.14	25944.84
543.31	25710.78
543.48	25568.01
543.64	25996.33
543.81	25919.09
543.98	26059.52
544.15	25907.39
544.32	26120.38
544.48	26132.08
544.65	26066.55
544.82	26223.36
544.99	25715.47
545.16	26249.11
545.32	26155.49
545.49	26710.19
545.66	26436.35
545.83	26459.76
546.00	26705.51
546.16	26127.40
546.33	26242.09
546.50	25785.68
546.67	26160.17
546.83	25895.69
547.00	26429.33
547.17	26387.20
547.34	26490.18
547.50	26647.00
547.67	26574.44
547.84	26752.32
548.00	26487.84
548.17	26583.80
548.34	26548.70
548.51	26534.65
548.67	26951.27
548.84	26651.68
549.01	26529.97
549.18	26813.18
549.34	26661.04
549.51	26766.37
549.68	26745.30
549.84	26845.94
550.01	26754.66
550.18	26764.03
550.34	26881.05
550.51	26874.03
550.68	27136.17
550.84	26733.60
551.01	26984.04
551.18	27225.11
551.34	26616.57
551.51	27023.83
551.68	26649.34
551.84	27269.58
552.01	26583.80
552.18	27129.15
552.34	26930.20
552.51	26941.91
552.68	26778.07
552.84	26951.27
553.01	27552.79
553.18	26911.48
553.34	27253.20
553.51	27454.48
553.67	27381.93
553.84	27452.14
554.01	27281.28
554.17	27686.20
554.34	27559.81
554.51	27449.80
554.67	27840.67
554.84	27648.75
555.00	27503.64
555.17	27395.97
555.33	27641.73
555.50	27440.44
555.67	27597.26
555.83	27545.76
556.00	27337.46
556.16	27592.58
556.33	27735.35
556.50	27798.54
556.66	28095.79
556.83	27491.93
556.99	28079.41
557.16	28058.34
557.32	28254.95
557.49	27983.44
557.65	27625.34
557.82	27847.69
557.98	27791.52
558.15	27779.82
558.32	28070.04
558.48	27679.18
558.65	28004.51
558.81	28093.45
558.98	28414.10
559.14	27924.93
559.31	27758.75
559.47	27955.36
559.64	27840.67
559.80	28107.49
559.97	28299.42
560.13	28318.14
560.30	28168.35
560.46	28519.43
560.63	28261.97
560.79	28243.24
560.96	28044.30
561.12	28175.37
561.29	27974.08
561.45	28044.30
561.61	28051.32
561.78	28348.57
561.94	28402.40
562.11	28292.40
562.27	28297.08
562.44	27810.25
562.60	27910.89
562.77	28046.64
562.93	27927.27
563.10	28645.82
563.26	28371.97
563.42	28563.90
563.59	28514.75
563.75	28540.49
563.92	28027.92
564.08	28402.40
564.24	28177.71
564.41	28418.78
564.57	28236.22
564.74	28711.35
564.90	28793.27
565.07	28287.71
565.23	28472.62
565.39	28629.43
565.56	28643.48
565.72	28938.38
565.88	28360.27
566.05	28208.14
566.21	28308.78
566.38	28121.54
566.54	28683.27
566.70	28811.99
566.87	28804.97
567.03	28854.12
567.19	28847.10
567.36	28776.89
567.52	28795.61
567.68	28783.91
567.85	28395.38
568.01	28699.65
568.17	28629.43
568.34	29158.39
568.50	28627.09
568.66	28594.32
568.83	28723.05
568.99	28650.50
569.15	28816.68
569.32	29041.37
569.48	28514.75
569.64	29003.92
569.81	28617.73
569.97	28957.11
570.13	29113.92
570.30	28847.10
570.46	28683.27
570.62	28720.71
570.78	28999.24
570.95	28933.70
571.11	28889.23
571.27	28781.57
571.43	28720.71
571.60	28943.06
571.76	28734.76
571.92	28606.03
572.09	28917.32
572.25	29029.66
572.41	28851.78
572.57	29081.16
572.74	29081.16
572.90	28776.89
573.06	28807.31
573.22	28858.81
573.38	29263.72
573.55	28837.74
573.71	29347.98
573.87	29041.37
574.03	29097.54
574.20	28723.05
574.36	29221.59
574.52	28924.34
574.68	29043.71
574.84	28879.87
575.01	28765.18
575.17	29022.64
575.33	29053.07
575.49	28893.91
575.65	29284.78
575.82	29465.00
575.98	29198.18
576.14	28938.38
576.30	29010.94
576.46	28933.70
576.62	28671.56
576.79	29032.00
576.95	29144.35
577.11	28872.85
577.27	28933.70
577.43	29139.67
577.59	29097.54
577.75	29186.48
577.92	28851.78
578.08	28767.52
578.24	29244.99
578.40	29235.63
578.56	29120.95
578.72	29324.57
578.88	29539.90
579.04	29151.37
579.21	28662.20
579.37	29153.71
579.53	29057.75
579.69	29296.49
579.85	29144.35
580.01	29039.03
580.17	28634.11
580.33	29275.42
580.49	29076.48
580.65	29123.29
580.82	29184.14
580.98	29345.64
581.14	29483.73
581.30	29621.82
581.46	29027.32
581.62	29514.16
581.78	29137.33
581.94	29443.94
582.10	29017.96
582.26	29144.35
582.42	28964.13
582.58	29027.32
582.74	29355.00
582.90	29076.48
583.06	29549.26
583.22	29048.39
583.38	29277.76
583.54	29085.84
583.70	29139.67
583.86	29270.74
584.02	29167.76
584.18	29230.95
584.34	28989.88
584.50	29771.61
584.66	29308.19
584.82	29448.62
584.98	29516.50
585.14	29516.50
585.30	29083.50
585.46	29191.16
585.62	29076.48
585.78	29127.97
585.94	29057.75
586.10	29380.74
586.26	29338.62
586.42	29692.04
586.58	29483.73
586.74	29158.39
586.90	29472.03
587.06	29134.99
587.22	29542.24
587.38	29036.69
587.54	29551.60
587.70	29694.38
587.86	29343.30
588.02	29486.07
588.18	29575.01
588.34	29603.10
588.49	29294.14
588.65	29291.80
588.81	29401.81
588.97	29366.70
589.13	29380.74
589.29	29350.32
589.45	29752.89
589.61	29525.86
589.77	29706.08
589.93	29579.69
590.08	29294.14
590.24	29640.54
590.40	29799.70
590.56	29766.93
590.72	29617.14
590.88	29406.49
591.04	29551.60
591.20	29689.70
591.35	29813.74
591.51	30216.32
591.67	29715.44
591.83	29699.06
591.99	29369.04
592.15	29649.91
592.31	29462.66
592.46	29383.09
592.62	29404.15
592.78	29551.60
592.94	29607.78
593.10	29560.97
593.26	29919.07
593.41	30012.69
593.57	29685.01
593.73	29628.84
593.89	29846.51
594.05	29937.79
594.20	29673.31
594.36	29340.96
594.52	29390.11
594.68	29502.45
594.84	29528.20
594.99	29710.76
595.15	29551.60
595.31	30073.54
595.47	30015.03
595.62	29797.36
595.78	29682.67
595.94	29947.15
596.10	29874.60
596.25	29666.29
596.41	29645.23
596.57	29886.30
596.73	29766.93
596.88	29694.38
597.04	29631.18
597.20	29778.64
597.36	29811.40
597.51	29848.85
597.67	29706.08
597.83	29820.77
597.99	29682.67
598.14	29596.07
598.30	29706.08
598.46	29549.26
598.61	29996.31
598.77	29862.90
598.93	29909.71
599.09	29811.40
599.24	30188.23
599.40	30017.37
599.56	30099.29
599.71	29893.32
599.87	29827.79
600.03	29862.90
600.18	29930.77
600.34	29460.32
600.50	29745.87
600.65	29848.85
600.81	29656.93
600.97	30054.82
601.12	29921.41
601.28	30129.72
601.44	30321.64
601.59	30270.15
601.75	29912.05
601.91	30082.91
602.06	29795.02
602.22	29823.11
602.37	29738.85
602.53	29916.73
602.69	30235.04
602.84	29865.24
603.00	29986.94
603.16	29617.14
603.31	30195.25
603.47	29986.94
603.62	30188.23
603.78	29748.21
603.94	29647.57
604.09	29542.24
604.25	29942.47
604.40	29556.28
604.56	30000.99
604.71	29972.90
604.87	29736.51
605.03	30113.33
605.18	29649.91
605.34	29956.52
605.49	29699.06
605.65	29645.23
605.80	29570.33
605.96	29626.50
606.12	29521.18
606.27	30024.39
606.43	29380.74
606.58	30015.03
606.74	29982.26
606.89	29638.20
607.05	29888.64
607.20	29764.59
607.36	29872.26
607.51	29663.95
607.67	29439.26
607.82	29876.94
607.98	29748.21
608.13	29582.03
608.29	29497.77
608.44	29572.67
608.60	29553.94
608.75	29596.07
608.91	29888.64
609.06	29415.85
609.22	29656.93
609.37	29663.95
609.53	29727.14
609.68	29343.30
609.84	29406.49
609.99	29488.41
610.15	29355.00
610.30	29427.56
610.46	29069.45
610.61	29280.10
610.76	29731.83
610.92	29465.00
611.07	29614.80
611.23	29074.13
611.38	29446.28
611.54	29329.25
611.69	29528.20
611.84	29460.32
612.00	29149.03
612.15	29139.67
612.31	29340.96
612.46	29624.16
612.62	29649.91
612.77	29446.28
612.92	29771.61
613.08	29102.22
613.23	29413.51
613.39	29401.81
613.54	28985.19
613.69	29544.58
613.85	29411.17
614.00	29537.56
614.15	29621.82
614.31	29142.01
614.46	29443.94
614.62	29303.51
614.77	29500.11
614.92	29228.61
615.08	28912.64
615.23	29041.37
615.38	29118.60
615.54	28802.63
615.69	28922.00
615.84	28971.15
616.00	29027.32
616.15	29219.25
616.30	29036.69
616.46	29191.16
616.61	28877.53
616.76	29113.92
616.92	29024.98
617.07	29212.23
617.22	29228.61
617.37	28685.61
617.53	28751.14
617.68	28685.61
617.83	28772.21
617.99	28826.04
618.14	28952.43
618.29	28989.88
618.45	28924.34
618.60	28826.04
618.75	29055.41
618.90	28924.34
619.06	29109.24
619.21	28917.32
619.36	28666.88
619.51	29034.35
619.67	28613.05
619.82	28786.25
619.97	28463.25
620.12	28723.05
620.28	28664.54
620.43	28779.23
620.58	29118.60
620.73	28725.39
620.89	29212.23
621.04	28573.26
621.19	28648.16
621.34	28498.36
621.49	28357.93
621.65	28189.41
621.80	28290.06
621.95	28320.48
622.10	28919.66
622.25	28538.15
622.41	28680.92
622.56	28470.28
622.71	28746.46
622.86	28538.15
623.01	28350.91
623.16	28414.10
623.32	28191.75
623.47	28493.68
623.62	28247.93
623.77	28580.28
623.92	28629.43
624.07	28123.88
624.23	27997.49
624.38	28196.43
624.53	28100.47
624.68	28294.74
624.83	28386.02
624.98	28046.64
625.13	28332.18
625.29	28060.68
625.44	28189.41
625.59	27943.66
625.74	28065.36
625.89	27826.63
626.04	28016.21
626.19	27821.95
626.34	27964.72
626.49	28011.53
626.65	28048.98
626.80	28166.01
626.95	28142.60
627.10	28004.51
627.25	27901.53
627.40	27981.10
627.55	27990.47
627.70	27587.89
627.85	27896.85
628.00	27901.53
628.15	27978.76
628.30	27248.52
628.45	27810.25
628.60	27578.53
628.76	27681.52
628.91	27740.03
629.06	27445.12
629.21	27718.96
629.36	27955.36
629.51	27290.65
629.66	27541.08
629.81	27718.96
629.96	27693.22
630.11	27463.85
630.26	27222.77
630.41	27835.99
630.56	27913.23
630.71	27569.17
630.86	27513.00
631.01	27405.33
631.16	27737.69
631.31	27377.25
631.46	27105.74
631.61	27428.74
631.76	27473.21
631.91	27318.73
632.06	27250.86
632.21	27569.17
632.36	27515.34
632.51	26923.18
632.66	27372.57
632.81	27288.31
632.96	27323.41
633.10	27124.47
633.25	27351.50
633.40	27356.18
633.55	27098.72
633.70	27115.11
633.85	26920.84
634.00	27087.02
634.15	27311.71
634.30	26888.07
634.45	26775.73
634.60	26838.92
634.75	26820.20
634.90	27065.96
635.05	26946.59
635.19	27171.28
635.34	27367.88
635.49	27119.79
635.64	26888.07
635.79	27070.64
635.94	27187.66
636.09	26965.31
636.24	26817.86
636.39	26726.58
636.53	26326.35
636.68	26412.95
636.83	26876.37
636.98	27096.38
637.13	26764.03
637.28	26967.65
637.43	27232.13
637.57	26834.24
637.72	26473.80
637.87	26780.41
638.02	26745.30
638.17	26733.60
638.32	26618.91
638.46	26249.11
638.61	26628.27
638.76	26473.80
638.91	26176.55
639.06	26206.98
639.20	26754.66
639.35	26541.68
639.50	26689.13
639.65	26859.99
639.80	26745.30
639.94	26611.89
640.09	26684.45
640.24	26473.80
640.39	26429.33
640.54	26642.32
640.68	25998.67
640.83	26492.52
640.98	26087.61
641.13	25874.62
641.27	26321.66
641.42	26328.69
641.57	26272.51
641.72	26113.36
641.86	26302.94
642.01	26300.60
642.16	26050.16
642.31	26169.53
642.45	26279.54
642.60	25986.97
642.75	25942.50
642.90	25785.68
643.04	26036.12
643.19	26085.27
643.34	25874.62
643.48	25759.94
643.63	26157.83
643.78	26061.87
643.93	26122.72
644.07	26214.00
644.22	26183.57
644.37	25846.54
644.51	25919.09
644.66	26225.70
644.81	25773.98
644.95	25748.23
645.10	25659.29
645.25	25750.57
645.39	25792.70
645.54	26141.44
645.69	25766.96
645.83	25633.55
645.98	25708.44
646.13	26113.36
646.27	25811.43
646.42	25888.67
646.57	26199.96
646.71	25481.41
646.86	25727.17
647.00	25727.17
647.15	25577.37
647.30	25563.33
647.44	25465.03
647.59	25462.69
647.74	25830.15
647.88	25841.85
648.03	25488.43
648.17	25820.79
648.32	25549.29
648.47	25734.19
648.61	25476.73
648.76	26080.59
648.90	25586.74
649.05	25556.31
649.20	25362.04
649.34	25284.81
649.49	25411.20
649.63	25245.02
649.78	25544.61
649.92	25373.75
650.07	25563.33
650.21	25399.49
650.36	25422.90
650.51	25184.16
650.65	25289.49
650.80	25282.47
650.94	25773.98
651.09	25043.73
651.23	25198.21
651.38	25336.30
651.52	25298.85
651.67	25032.03
651.81	24812.02
651.96	25329.28
652.10	25235.66
652.25	25071.82
652.39	25373.75
652.54	25233.32
652.68	25144.38
652.83	25165.44
652.97	25135.01
653.12	25177.14
653.26	24760.53
653.41	25020.33
653.55	24814.36
653.70	24538.18
653.84	24769.89
653.99	25083.52
654.13	24702.01
654.27	24690.31
654.42	25083.52
654.56	24748.82
654.71	25158.42
654.85	25127.99
655.00	24903.30
655.14	24893.94
655.29	24793.29
655.43	24879.89
655.57	24868.19
655.72	24601.37
655.86	24800.32
656.01	24687.97
656.15	24467.96
656.30	24781.59
656.44	24601.37
656.58	24563.92
656.73	24734.78
656.87	24636.48
657.01	24788.61
657.16	24301.78
657.30	24783.93
657.45	24503.07
657.59	24685.63
657.73	24320.51
657.88	24615.41
658.02	24269.01
658.16	24418.81
658.31	24301.78
658.45	24130.92
658.60	24114.54
658.74	24313.48
658.88	24009.22
659.03	24144.97
659.17	24287.74
659.31	24081.77
659.46	24325.19
659.60	24297.10
659.74	24432.85
659.89	24175.39
660.03	24107.52
660.17	24554.56
660.32	23756.44
660.46	23676.86
660.60	23662.82
660.74	23660.48
660.89	23665.16
661.03	23775.16
661.17	23737.71
661.32	24135.60
661.46	23894.53
661.60	23948.36
661.74	23758.78
661.89	23850.06
662.03	23494.30
662.17	23885.17
662.31	23536.43
662.46	23793.89
662.60	24081.77
662.74	23365.57
662.88	23255.56
663.03	23442.81
663.17	23520.04
663.31	23330.46
663.45	23440.47
663.60	23503.66
663.74	23295.35
663.88	23246.20
664.02	23428.76
664.17	23466.21
664.31	23278.97
664.45	22981.72
664.59	23285.99
664.73	23089.38
664.88	22686.81
665.02	22974.70
665.16	22792.14
665.30	22937.25
665.44	23061.30
665.59	22726.60
665.73	22789.80
665.87	22356.80
666.01	23051.94
666.15	22820.22
666.29	22836.61
666.44	22913.84
666.58	22562.76
666.72	22651.70
666.86	22829.59
667.00	22625.96
667.14	22609.58
667.28	22511.27
667.43	22377.86
667.57	22436.38
667.71	22354.46
667.85	22127.42
667.99	22167.21
668.13	22677.45
668.27	22693.83
668.41	22214.02
668.56	22120.40
668.70	22356.80
668.84	22094.66
668.98	22045.51
669.12	22373.18
669.26	22052.53
669.40	22125.08
669.54	21888.69
669.68	22005.72
669.82	21703.79
669.96	21731.87
670.10	21565.70
670.25	21694.43
670.39	21851.24
670.53	21963.59
670.67	22066.57
670.81	21453.35
670.95	21792.73
671.09	21998.70
671.23	21561.02
671.37	21914.44
671.51	21696.77
671.65	21926.14
671.79	21277.81
671.93	21462.71
672.07	21294.19
672.21	21296.53
672.35	21170.15
672.49	21188.87
672.63	21128.02
672.77	21055.46
672.91	21092.91
673.05	20828.43
673.19	20826.09
673.33	21027.37
673.47	21216.96
673.61	20889.28
673.75	20833.11
673.89	20559.27
674.03	20727.78
674.17	20863.54
674.31	20870.56
674.45	20936.09
674.59	20365.00
674.73	20826.09
674.87	20479.69
675.01	20545.22
675.15	20531.18
675.29	20367.34
675.43	20102.86
675.56	20435.22
675.70	20264.36
675.84	20266.70
675.98	19955.41
676.12	20512.46
676.26	20489.05
676.40	20229.25
676.54	19950.73
676.68	19939.02
676.82	19887.53
676.96	19812.63
677.10	20020.94
677.23	19688.59
677.37	19363.25
677.51	19641.78
677.65	19599.65
677.79	19328.14
677.93	19527.09
678.07	19281.33
678.21	19154.94
678.34	19578.58
678.48	19166.65
678.62	19166.65
678.76	19077.71
678.90	19112.81
679.04	19154.94
679.18	19168.99
679.31	18806.20
679.45	18855.36
679.59	18941.96
679.73	18539.38
679.87	19009.83
680.00	18881.10
680.14	18555.77
680.28	18160.22
680.42	18384.91
680.56	18700.88
680.70	18345.12
680.83	18317.03
680.97	18314.69
681.11	18190.64
681.25	18312.35
681.39	18211.71
681.52	17860.63
681.66	17972.97
681.80	17696.79
681.94	17799.77
682.07	18139.15
682.21	17771.69
682.35	17624.23
682.49	17565.72
682.62	17724.88
682.76	17558.70
682.90	17516.57
683.04	17902.76
683.17	17458.06
683.31	17507.21
683.45	17584.44
683.59	17591.47
683.72	17488.48
683.86	17212.30
684.00	16940.80
684.13	17013.35
684.27	17057.82
684.41	16793.34
684.55	16884.62
684.68	16641.21
684.82	16816.75
684.96	16645.89
685.09	16772.28
685.23	16617.80
685.37	16535.88
685.50	16723.13
685.64	16559.29
685.78	16666.95
685.91	16685.68
686.05	16463.33
686.19	16388.43
686.32	16191.83
686.46	16187.14
686.60	16152.04
686.73	16358.00
686.87	16020.97
687.01	15934.37
687.14	15934.37
687.28	15807.98
687.42	15800.96
687.55	15857.13
687.69	15723.72
687.82	15800.96
687.96	15719.04
688.10	15346.89
688.23	15854.79
688.37	15421.79
688.50	15609.03
688.64	15477.96
688.78	15302.42
688.91	15232.21
689.05	15314.13
689.18	15080.07
689.32	15250.93
689.46	15171.35
689.59	15040.28
689.73	15005.17
689.86	14946.66
690.00	14890.49
690.13	14857.72
690.27	14895.17
690.41	14860.06
690.54	14649.41
690.68	14511.32
690.81	14731.33
690.95	14588.56
691.08	14651.75
691.22	14305.35
691.35	14457.49
691.49	14663.46
691.62	14436.42
691.76	14394.29
691.89	13963.64
692.03	13961.30
692.16	13785.76
692.30	13895.76
692.43	14050.24
692.57	13919.17
692.70	13598.51
692.84	13652.34
692.97	13586.81
693.11	13652.34
693.24	13778.73
693.38	13502.55
693.51	13926.19
693.65	13458.08
693.78	13371.48
693.92	13495.53
694.05	13446.38
694.19	13305.95
694.32	13224.03
694.45	13078.91
694.59	12833.16
694.72	13158.49
694.86	13036.78
694.99	12835.50
695.13	13107.00
695.26	12671.66
695.39	12753.58
695.53	12971.25
695.66	12802.73
695.80	12744.22
695.93	12592.08
696.07	12688.04
696.20	12812.09
696.33	12751.24
696.47	12610.81
696.60	12306.54
696.73	12421.22
696.87	12315.90
697.00	12521.87
697.14	12154.40
697.27	12116.95
697.40	12233.98
697.54	11878.22
697.67	11726.08
697.80	11936.73
697.94	11639.48
698.07	11632.46
698.21	11885.24
698.34	11981.20
698.47	11885.24
698.61	11822.05
698.74	11803.32
698.87	11695.66
699.01	11735.45
699.14	11456.92
699.27	11541.18
699.40	11447.56
699.54	11447.56
699.67	11398.41
699.80	11173.72
699.94	11307.13
700.07	11061.37
700.20	11077.76
700.34	10834.34
700.47	10860.09
700.60	10927.96
700.73	10883.49
700.87	10892.85
701.00	10768.80
701.13	10913.92
701.26	10951.37
701.40	10874.13
701.53	10614.33
701.66	10635.39
701.79	10644.76
701.93	10368.57
702.06	10546.45
702.19	10375.59
702.32	10176.65
702.46	10209.42
702.59	10293.68
702.72	10127.50
702.85	9912.17
702.99	10118.14
703.12	10129.84
703.25	9947.28
703.38	10017.49
703.51	9937.91
703.65	9909.83
703.78	9935.57
703.91	10148.56
704.04	9874.72
704.17	9944.94
704.31	9603.22
704.44	9661.73
704.57	9724.93
704.70	9551.73
704.83	9778.76
704.96	9465.13
705.10	9432.36
705.23	9408.95
>>>>>End Processed Spectral Data<<<<<
