SpectraSuite Data File
++++++++++++++++++++++++++++++++++++
Date: Fri Oct 18 13:55:23 GMT-05:00 2013
User: bianchi
Dark Spectrum Present: No
Reference Spectrum Present: No
Number of Sampled Component Spectra: 1
Spectrometers: USB2+H05261
Integration Time (usec): 100000 (USB2+H05261)
Spectra Averaged: 1 (USB2+H05261)
Boxcar Smoothing: 0 (USB2+H05261)
Correct for Electrical Dark: No (USB2+H05261)
Strobe/Lamp Enabled: No (USB2+H05261)
Correct for Detector Non-linearity: No (USB2+H05261)
Correct for Stray Light: No (USB2+H05261)
Number of Pixels in Processed Spectrum: 2048
>>>>>Begin Processed Spectral Data<<<<<
365.73	0.00
365.92	0.00
366.12	0.00
366.32	0.00
366.52	0.00
366.72	0.00
366.91	0.00
367.11	0.00
367.31	0.00
367.51	0.00
367.70	0.00
367.90	0.00
368.10	0.00
368.30	0.00
368.49	0.00
368.69	0.00
368.89	0.00
369.09	0.00
369.28	0.00
369.48	0.00
369.68	0.00
369.87	0.00
370.07	0.00
370.27	0.00
370.47	0.00
370.66	227.03
370.86	271.50
371.06	334.70
371.25	393.21
371.45	264.48
371.65	348.74
371.84	351.08
372.04	322.99
372.24	351.08
372.44	358.10
372.63	367.46
372.83	421.30
373.03	381.51
373.22	351.08
373.42	409.59
373.62	435.34
373.81	489.17
374.01	468.11
374.21	468.11
374.40	475.13
374.60	533.64
374.79	482.15
374.99	479.81
375.19	538.32
375.38	566.41
375.58	477.47
375.78	564.07
375.97	533.64
376.17	606.20
376.37	514.92
376.56	557.05
376.76	528.96
376.95	519.60
377.15	603.86
377.35	587.47
377.54	514.92
377.74	641.31
377.93	580.45
378.13	596.84
378.33	603.86
378.52	521.94
378.72	641.31
378.91	641.31
379.11	634.29
379.31	561.73
379.50	545.34
379.70	638.97
379.89	645.99
380.09	601.52
380.28	631.94
380.48	608.54
380.68	674.07
380.87	603.86
381.07	683.44
381.26	643.65
381.46	641.31
381.65	631.94
381.85	667.05
382.04	699.82
382.24	718.54
382.43	718.54
382.63	746.63
382.83	770.04
383.02	781.74
383.22	891.74
383.41	744.29
383.61	699.82
383.80	805.14
384.00	800.46
384.19	793.44
384.39	830.89
384.58	849.61
384.78	660.03
384.97	784.08
385.17	786.42
385.36	732.59
385.56	800.46
385.75	814.51
385.95	823.87
386.14	788.76
386.34	770.04
386.53	870.68
386.72	837.91
386.92	863.66
387.11	840.25
387.31	812.17
387.50	823.87
387.70	898.77
387.89	926.85
388.09	819.19
388.28	875.36
388.48	854.30
388.67	940.90
388.86	922.17
389.06	987.71
389.25	917.49
389.45	999.41
389.64	926.85
389.84	1015.79
390.03	1078.99
390.22	978.34
390.42	999.41
390.61	1008.77
390.81	919.83
391.00	1020.47
391.19	1015.79
391.39	1053.24
391.58	1048.56
391.78	1053.24
391.97	1118.78
392.16	959.62
392.36	1163.25
392.55	1186.65
392.75	1205.38
392.94	1151.54
393.13	1146.86
393.33	1179.63
393.52	1165.59
393.71	1151.54
393.91	1130.48
394.10	1102.39
394.29	1142.18
394.49	1151.54
394.68	1174.95
394.88	1167.93
395.07	1268.57
395.26	1296.66
395.46	1228.78
395.65	1226.44
395.84	1242.82
396.04	1472.20
396.23	1338.79
396.42	1324.74
396.62	1378.58
396.81	1348.15
397.00	1427.73
397.19	1366.87
397.39	1376.24
397.58	1507.30
397.77	1359.85
397.97	1359.85
398.16	1446.45
398.35	1455.81
398.55	1504.96
398.74	1516.67
398.93	1603.27
399.12	1500.28
399.32	1514.33
399.51	1479.22
399.70	1598.59
399.90	1526.03
400.09	1561.14
400.28	1596.25
400.47	1589.22
400.67	1638.38
400.86	1650.08
401.05	1652.42
401.24	1722.63
401.44	1664.12
401.63	1732.00
401.82	1652.42
402.01	1706.25
402.21	1708.59
402.40	1727.32
402.59	1736.68
402.78	1816.26
402.97	1811.57
403.17	1856.04
403.36	1813.92
403.55	1849.02
403.74	1980.09
403.93	1959.03
404.13	1940.30
404.32	1860.73
404.51	1968.39
404.70	2005.84
404.89	2012.86
405.09	1998.82
405.28	1919.24
405.47	2052.65
405.66	2022.22
405.85	2139.25
406.05	2155.63
406.24	2150.95
406.43	2188.40
406.62	2143.93
406.81	2270.32
407.00	2279.68
407.20	2012.86
407.39	2272.66
407.58	2181.38
407.77	2282.02
407.96	2253.94
408.15	2246.91
408.34	2359.26
408.54	2260.96
408.73	2389.69
408.92	2307.77
409.11	2368.62
409.30	2499.69
409.49	2445.86
409.68	2541.82
409.87	2597.99
410.07	2497.35
410.26	2605.02
410.45	2689.28
410.64	2480.97
410.83	2642.46
411.02	2569.91
411.21	2729.06
411.40	2729.06
411.59	2810.98
411.78	2729.06
411.98	2789.92
412.17	2850.77
412.36	2794.60
412.55	2970.14
412.74	3136.32
412.93	2986.52
413.12	2925.67
413.31	3091.85
413.50	2942.05
413.69	3080.14
413.88	3180.79
414.07	3206.53
414.26	3155.04
414.45	3218.24
414.64	3180.79
414.83	3194.83
415.02	3403.14
415.22	3353.99
415.41	3440.59
415.60	3309.52
415.79	3449.95
415.98	3433.57
416.17	3548.25
416.36	3574.00
416.55	3648.90
416.74	3684.00
416.93	3730.81
417.12	3730.81
417.31	3765.92
417.50	3971.89
417.69	3873.59
417.88	3838.48
418.07	3822.09
418.26	3871.25
418.45	3913.38
418.64	4191.90
418.83	3887.63
419.02	4028.06
419.21	3953.16
419.39	4023.38
419.58	3983.59
419.77	4039.76
419.96	4147.43
420.15	4084.23
420.34	4189.56
420.53	4234.03
420.72	4236.37
420.91	4285.52
421.10	4344.03
421.29	4383.82
421.48	4170.83
421.67	4360.42
421.86	4353.40
422.05	4393.19
422.24	4381.48
422.43	4360.42
422.61	4454.04
422.80	4423.61
422.99	4348.72
423.18	4594.47
423.37	4580.43
423.56	4435.32
423.75	4561.70
423.94	4383.82
424.13	4182.54
424.32	4365.10
424.50	4468.08
424.69	4683.41
424.88	4652.98
425.07	4643.62
425.26	4444.68
425.45	4477.44
425.64	4496.17
425.83	4573.41
426.01	4547.66
426.20	4559.36
426.39	4650.64
426.58	4685.75
426.77	4606.17
426.96	4667.03
427.15	4599.15
427.33	4690.43
427.52	4814.48
427.71	4889.38
427.90	4613.20
428.09	4854.27
428.28	4861.29
428.46	4774.69
428.65	4954.91
428.84	4915.12
429.03	5135.14
429.22	4784.06
429.40	5013.43
429.59	5069.60
429.78	4873.00
429.97	4830.87
430.16	4924.49
430.34	5179.61
430.53	5359.83
430.72	5198.33
430.91	5069.60
431.10	5121.09
431.28	5266.21
431.47	5385.57
431.66	5289.61
431.85	5184.29
432.03	5301.31
432.22	5554.09
432.41	5481.53
432.60	5401.96
432.79	5343.44
432.97	5465.15
433.16	5493.24
433.35	5357.49
433.54	5584.52
433.72	5568.13
433.91	5533.03
434.10	5746.02
434.28	5493.24
434.47	5724.95
434.66	5792.83
434.85	6029.22
435.03	5734.31
435.22	5736.65
435.41	6073.69
435.59	5881.77
435.78	5895.81
435.97	5818.57
436.16	5827.93
436.34	5928.58
436.53	6012.84
436.72	6167.31
436.90	6008.16
437.09	5951.98
437.28	5933.26
437.46	6080.71
437.65	6073.69
437.84	6207.10
438.02	6211.78
438.21	6375.62
438.40	6115.82
438.58	6328.81
438.77	6600.31
438.96	6300.72
439.14	6565.20
439.33	6497.33
439.52	6546.48
439.70	6637.76
439.89	6792.23
440.08	6853.09
440.26	6743.08
440.45	6726.70
440.63	6972.46
440.82	7131.61
441.01	6892.88
441.19	6942.03
441.38	7084.80
441.57	7330.56
441.75	7208.85
441.94	7253.32
442.12	7407.80
442.31	7304.81
442.50	7382.05
442.68	7332.90
442.87	7424.18
443.05	7466.31
443.24	7630.15
443.43	7438.22
443.61	7604.40
443.80	7829.09
443.98	7705.04
444.17	7339.92
444.35	7513.12
444.54	7691.00
444.73	7616.10
444.91	7637.17
445.10	7683.98
445.28	7583.34
445.47	7599.72
445.65	7702.70
445.84	7761.22
446.02	7824.41
446.21	7784.62
446.39	7836.11
446.58	7927.39
446.77	7857.18
446.95	7604.40
447.14	7737.81
447.32	7798.66
447.51	7934.42
447.69	8002.29
447.88	7875.90
448.06	7709.72
448.25	7882.92
448.43	8060.80
448.62	7983.57
448.80	8016.33
448.99	8023.36
449.17	8079.53
449.36	8124.00
449.54	8236.35
449.73	8177.83
449.91	8301.88
450.10	8346.35
450.28	8552.32
450.46	8379.12
450.65	8322.94
450.83	8461.04
451.02	8463.38
451.20	8329.97
451.39	8510.19
451.57	8393.16
451.76	8344.01
451.94	8643.60
452.13	8561.68
452.31	8428.27
452.49	8479.76
452.68	8545.30
452.86	8521.89
453.05	8655.30
453.23	8727.86
453.42	8697.43
453.60	8463.38
453.78	8830.84
453.97	8643.60
454.15	8786.37
454.34	8751.26
454.52	8793.39
454.70	8652.96
454.89	9039.15
455.07	8950.21
455.26	9338.74
455.44	9050.85
455.62	9090.64
455.81	8990.00
455.99	9273.20
456.17	9315.33
456.36	9327.03
456.54	9460.45
456.73	9329.38
456.91	9549.39
457.09	9790.46
457.28	9727.27
457.46	9617.26
457.64	9748.33
457.83	9586.83
458.01	9427.68
458.19	9940.26
458.38	9701.52
458.56	9720.24
458.74	9806.84
458.93	9881.74
459.11	9827.91
459.29	9928.55
459.48	9813.87
459.66	9916.85
459.84	10057.28
460.03	10356.87
460.21	10040.90
460.39	10101.75
460.57	10017.49
460.76	10249.21
460.94	10291.34
461.12	10019.83
461.31	10239.84
461.49	10092.39
461.67	10363.89
461.85	10640.08
462.04	10616.67
462.22	10658.80
462.40	10483.26
462.59	10558.16
462.77	10633.05
462.95	10607.31
463.13	10736.04
463.32	10764.12
463.50	10759.44
463.68	10743.06
463.86	10932.64
464.05	10560.50
464.23	10876.47
464.41	10986.47
464.59	10703.27
464.78	11208.83
464.96	11009.88
465.14	10930.30
465.32	11162.01
465.50	11164.36
465.69	11059.03
465.87	10923.28
466.05	11089.46
466.23	11096.48
466.41	11082.44
466.60	11623.10
466.78	11150.31
466.96	11325.85
467.14	11398.41
467.32	11391.39
467.51	11447.56
467.69	11321.17
467.87	11330.53
468.05	11517.78
468.23	11499.05
468.41	11286.06
468.60	11543.52
468.78	11583.31
468.96	11683.95
469.14	11637.14
469.32	11723.74
469.50	11424.15
469.69	11873.54
469.87	11822.05
470.05	12032.69
470.23	12018.65
470.41	12112.27
470.59	12056.10
470.77	11936.73
470.95	12128.66
471.14	12109.93
471.32	12233.98
471.50	12702.09
471.68	12187.17
471.86	12332.28
472.04	12395.48
472.22	12800.39
472.40	12629.53
472.58	12739.54
472.77	12727.83
472.95	12774.64
473.13	13327.01
473.31	13172.54
473.49	12837.84
473.67	12929.12
473.85	13022.74
474.03	13256.79
474.21	13179.56
474.39	13474.46
474.57	13530.64
474.75	13528.30
474.93	13914.48
475.12	13626.60
475.30	13713.20
475.48	13617.24
475.66	13748.31
475.84	13750.65
476.02	14169.60
476.20	14097.05
476.38	14363.87
476.56	14518.34
476.74	14438.76
476.92	14466.85
477.10	14761.76
477.28	14892.83
477.46	14878.79
477.64	14956.02
477.82	15126.88
478.00	15634.78
478.18	15393.70
478.36	15410.09
478.54	15616.05
478.72	15707.34
478.90	15456.90
479.08	15857.13
479.26	15941.39
479.44	16365.03
479.62	16285.45
479.80	16505.46
479.98	16538.23
480.16	16872.92
480.34	16702.06
480.52	17106.98
480.70	17249.75
480.88	17163.15
481.06	17284.86
481.24	16901.01
481.41	17724.88
481.59	17816.16
481.77	17855.95
481.95	17898.08
482.13	17949.57
482.31	17982.34
482.49	18284.26
482.67	18424.70
482.85	18579.17
483.03	19019.19
483.21	19089.41
483.39	19183.03
483.57	19206.44
483.74	19400.70
483.92	19480.28
484.10	19571.56
484.28	20152.01
484.46	20250.32
484.64	20507.77
484.82	20259.68
485.00	20320.53
485.18	20592.03
485.35	20891.62
485.53	21245.04
485.71	20957.16
485.89	21591.44
486.07	20964.18
486.25	21521.23
486.43	21944.86
486.61	21626.55
486.78	22017.42
486.96	22176.58
487.14	22604.89
487.32	22441.06
487.50	22586.17
487.68	22857.67
487.85	23349.18
488.03	23307.05
488.21	23529.41
488.39	23367.91
488.57	24044.32
488.75	23805.59
488.92	24212.84
489.10	24379.02
489.28	24484.34
489.46	24678.61
489.64	25139.69
489.81	25413.54
489.99	25280.13
490.17	25259.06
490.35	25638.23
490.53	25724.83
490.70	26412.95
490.88	25930.80
491.06	26445.71
491.24	26635.30
491.41	26497.20
491.59	26724.24
491.77	26869.35
491.95	26972.33
492.13	27391.29
492.30	27365.54
492.48	27070.64
492.66	27325.75
492.84	27733.01
493.01	28018.55
493.19	28231.54
493.37	28409.42
493.54	28580.28
493.72	28519.43
493.90	28341.55
494.08	29118.60
494.25	29331.59
494.43	29069.45
494.61	29179.46
494.79	29785.66
494.96	29579.69
495.14	29928.43
495.32	30183.55
495.49	29914.39
495.67	30103.97
495.85	30792.09
496.02	30986.35
496.20	31028.48
496.38	31033.16
496.55	31166.57
496.73	31917.89
496.91	31370.20
497.09	31716.60
497.26	32088.74
497.44	32107.47
497.62	32290.03
497.79	32299.39
497.97	32252.58
498.14	33392.42
498.32	33170.07
498.50	32804.95
498.67	32959.42
498.85	33064.75
499.03	33783.29
499.20	33549.24
499.38	33537.54
499.56	33780.95
499.73	33589.03
499.91	34071.18
500.08	34085.22
500.26	33886.28
500.44	34558.01
500.61	34235.02
500.79	34403.53
500.97	34700.78
501.14	35260.17
501.32	35075.27
501.49	35564.44
501.67	35112.72
501.84	35557.42
502.02	35328.05
502.20	35644.02
502.37	36077.02
502.55	35983.40
502.72	36079.36
502.90	36055.95
503.07	36231.49
503.25	35831.26
503.43	36154.26
503.60	36531.08
503.78	36907.91
503.95	37090.47
504.13	36905.57
504.30	36910.25
504.48	36678.54
504.65	37031.96
504.83	37116.22
505.01	37565.60
505.18	37167.71
505.36	37340.91
505.53	37525.81
505.71	37832.42
505.88	38033.71
506.06	37448.57
506.23	38256.06
506.41	38270.10
506.58	38202.22
506.76	38555.64
506.93	38623.52
507.11	38232.65
507.28	38555.64
507.46	38429.26
507.63	38955.88
507.81	39725.91
507.98	39035.45
508.16	39510.58
508.33	39257.81
508.50	39358.45
508.68	39592.50
508.85	40109.76
509.03	39604.20
509.20	39901.45
509.38	40479.57
509.55	40545.10
509.73	40147.21
509.90	40327.43
510.08	40355.52
510.25	40280.62
510.42	40739.36
510.60	40774.47
510.77	41043.63
510.95	41148.96
511.12	40950.01
511.30	41298.75
511.47	41310.46
511.64	41663.88
511.82	41813.67
511.99	41488.34
512.17	41869.84
512.34	41322.16
512.51	42164.75
512.69	42204.54
512.86	42017.30
513.04	42380.08
513.21	42426.89
513.38	42621.16
513.56	42717.12
513.73	42995.64
513.90	42944.15
514.08	42656.26
514.25	43037.77
514.43	43037.77
514.60	43316.29
514.77	43484.81
514.95	43763.34
515.12	43449.70
515.29	43386.51
515.47	43749.29
515.64	43812.49
515.81	43325.66
515.99	44210.38
516.16	44669.12
516.33	44432.73
516.51	44648.06
516.68	44591.89
516.85	44219.74
517.03	44493.58
517.20	44360.17
517.37	44683.17
517.54	45095.10
517.72	44659.76
517.89	44898.50
518.06	45031.91
518.24	45221.49
518.41	44774.45
518.58	45095.10
518.75	45052.97
518.93	45525.76
519.10	45542.14
519.27	45490.65
519.45	45434.48
519.62	45724.71
519.79	45642.79
519.96	45701.30
520.14	46024.29
520.31	45799.60
520.48	46174.09
520.65	45888.54
520.83	46440.91
521.00	46181.11
521.17	46026.63
521.34	46618.79
521.52	46522.83
521.69	46857.52
521.86	46894.97
522.03	46794.33
522.20	46972.21
522.38	47105.62
522.55	47131.37
522.72	47173.50
522.89	47021.36
523.07	47494.15
523.24	47634.58
523.41	47646.29
523.58	47489.47
523.75	47835.87
523.92	47709.48
524.10	47580.75
524.27	47913.11
524.44	47875.66
524.61	48367.17
524.78	48009.07
524.96	48224.40
525.13	47817.14
525.30	48399.94
525.47	48308.66
525.64	48088.65
525.81	48215.04
525.98	48615.27
526.16	48956.99
526.33	48608.25
526.50	49216.78
526.67	48631.65
526.84	48912.52
527.01	48851.66
527.18	49118.48
527.36	49279.98
527.53	49130.19
527.70	49537.44
527.87	49535.10
528.04	49118.48
528.21	49165.29
528.38	48940.60
528.55	49492.97
528.72	49322.11
528.89	49537.44
529.07	49436.80
529.24	49434.45
529.41	49886.18
529.58	49729.36
529.75	49546.80
529.92	49710.64
530.09	49743.41
530.26	50124.91
530.43	50220.87
530.60	49937.67
530.77	50445.57
530.94	50387.05
531.11	50178.75
531.28	50181.09
531.46	50239.60
531.63	50244.28
531.80	50555.57
531.97	50667.92
532.14	50763.88
532.31	50696.00
532.48	50604.72
532.65	51007.29
532.82	50815.37
532.99	51009.64
533.16	50960.48
533.33	50997.93
533.50	51281.14
533.67	51309.22
533.84	50941.76
534.01	50773.24
534.18	51105.60
534.35	51419.23
534.52	51124.32
534.69	51763.29
534.86	51536.26
535.03	51428.59
535.20	51519.87
535.37	51412.21
535.54	51601.79
535.71	51117.30
535.88	51554.98
536.05	51653.28
536.22	51772.65
536.38	51707.12
536.55	51751.59
536.72	52165.86
536.89	51688.39
537.06	51674.35
537.23	52048.83
537.40	51756.27
537.57	51828.82
537.74	52053.51
537.91	52130.75
538.08	52243.10
538.25	52542.69
538.42	52247.78
538.59	52193.95
538.75	51828.82
538.92	52238.42
539.09	52231.40
539.26	52451.41
539.43	52308.63
539.60	52783.76
539.77	52486.51
539.94	52648.01
540.11	52535.66
540.28	52556.73
540.44	52453.75
540.61	52622.26
540.78	52961.64
540.95	52800.15
541.12	52687.80
541.29	52900.79
541.46	52479.49
541.62	53174.63
541.79	52952.28
541.96	52587.16
542.13	52837.59
542.30	53223.78
542.47	53216.76
542.63	53343.15
542.80	53258.89
542.97	53616.99
543.14	53614.65
543.31	53425.07
543.48	53216.76
543.64	53614.65
543.81	53654.44
543.98	53670.82
544.15	53708.27
544.32	53930.62
544.48	53853.39
544.65	53584.22
544.82	53598.27
544.99	53427.41
545.16	53581.88
545.32	53701.25
545.49	53801.89
545.66	54122.55
545.83	53829.98
546.00	53956.37
546.16	53993.82
546.33	53841.68
546.50	54021.90
546.67	53804.24
546.83	53710.61
547.00	54052.33
547.17	53949.35
547.34	54188.08
547.50	54155.32
547.67	54475.97
547.84	54148.29
548.00	54356.60
548.17	54504.06
548.34	54230.21
548.51	54679.60
548.67	54349.58
548.84	54478.31
549.01	54415.11
549.18	54443.20
549.34	54342.56
549.51	54480.65
549.68	54604.70
549.84	54431.50
550.01	54461.93
550.18	54415.11
550.34	54658.53
550.51	54705.34
550.68	54749.81
550.84	54515.76
551.01	54564.91
551.18	54305.11
551.34	54452.56
551.51	54695.98
551.68	54717.04
551.84	54918.33
552.01	54703.00
552.18	54876.20
552.34	54733.43
552.51	55040.04
552.68	54906.63
552.84	54948.76
553.01	55201.53
553.18	55004.93
553.34	54855.14
553.51	55058.76
553.67	55159.41
553.84	55243.66
554.01	55320.90
554.17	55011.95
554.34	55269.41
554.51	55253.03
554.67	55421.55
554.84	55320.90
555.00	55171.11
555.17	55503.46
555.33	55398.14
555.50	55267.07
555.67	55461.33
555.83	55154.72
556.00	55384.10
556.16	55412.18
556.33	55281.11
556.50	55388.78
556.66	55730.50
556.83	55463.67
556.99	55767.94
557.16	55615.81
557.32	56032.42
557.49	55751.56
557.65	55157.06
557.82	55522.19
557.98	55466.02
558.15	55526.87
558.32	55700.07
558.48	55639.22
558.65	55763.26
558.81	55664.96
558.98	55786.67
559.14	55669.64
559.31	55671.98
559.47	55927.10
559.64	55920.08
559.80	56030.08
559.97	55866.25
560.13	55805.39
560.30	55669.64
560.46	55866.25
560.63	55805.39
560.79	55950.51
560.96	55870.93
561.12	55803.05
561.29	55880.29
561.45	56177.54
561.61	56037.11
561.78	56041.79
561.94	56172.86
562.11	56301.59
562.27	56222.01
562.44	55924.76
562.60	55854.54
562.77	55990.30
562.93	56020.72
563.10	56212.65
563.26	55936.46
563.42	56334.35
563.59	56313.29
563.75	56135.41
563.92	56072.21
564.08	55985.61
564.24	56212.65
564.41	55997.32
564.57	56161.15
564.74	55959.87
564.90	56193.92
565.07	56287.54
565.23	56259.46
565.39	56076.90
565.56	56299.25
565.72	56069.87
565.88	56402.23
566.05	56156.47
566.21	56200.94
566.38	56020.72
566.54	56336.69
566.70	56310.95
566.87	56357.76
567.03	56348.40
567.19	56362.44
567.36	56123.71
567.52	56245.41
567.68	56257.12
567.85	56006.68
568.01	56383.51
568.17	56095.62
568.34	56388.19
568.50	56362.44
568.66	56320.31
568.83	56404.57
568.99	56404.57
569.15	56470.11
569.32	56121.37
569.48	56133.07
569.64	56168.18
569.81	56437.34
569.97	56615.22
570.13	56507.55
570.30	56275.84
570.46	56598.83
570.62	56533.30
570.78	56636.28
570.95	56226.69
571.11	56341.38
571.27	56416.27
571.43	56390.53
571.60	56430.32
571.76	56268.82
571.92	56355.42
572.09	56652.67
572.25	56680.75
572.41	56596.49
572.57	56542.66
572.74	56472.45
572.90	56348.40
573.06	56699.48
573.22	56577.77
573.38	56563.73
573.55	56449.04
573.71	56980.34
573.87	56657.35
574.03	56413.93
574.20	56694.80
574.36	56444.36
574.52	56395.21
574.68	56662.03
574.84	56547.34
575.01	56446.70
575.17	56577.77
575.33	56451.38
575.49	56432.66
575.65	56711.18
575.82	56676.07
575.98	56348.40
576.14	56699.48
576.30	56793.10
576.46	56507.55
576.62	56282.86
576.79	56573.09
576.95	56388.19
577.11	56491.17
577.27	56589.47
577.43	56484.15
577.59	56451.38
577.75	56767.35
577.92	56509.89
578.08	56568.41
578.24	56582.45
578.40	56631.60
578.56	56568.41
578.72	56584.79
578.88	56949.92
579.04	56655.01
579.21	56680.75
579.37	56645.65
579.53	56924.17
579.69	56545.00
579.85	56631.60
580.01	56547.34
580.17	56561.39
580.33	56741.61
580.49	56568.41
580.65	56636.28
580.82	56783.74
580.98	56514.58
581.14	56589.47
581.30	56970.98
581.46	56435.00
581.62	56540.32
581.78	56289.88
581.94	56594.15
582.10	56650.33
582.26	56493.51
582.42	56727.56
582.58	56741.61
582.74	56844.59
582.90	57041.20
583.06	56729.90
583.22	56587.13
583.38	56676.07
583.54	56664.37
583.70	56729.90
583.86	56921.83
584.02	56514.58
584.18	56577.77
584.34	56729.90
584.50	57038.86
584.66	56591.81
584.82	56582.45
584.98	56568.41
585.14	56746.29
585.30	56605.86
585.46	56811.82
585.62	56446.70
585.78	56713.52
585.94	56568.41
586.10	56484.15
586.26	56697.14
586.42	56828.21
586.58	56701.82
586.74	56748.63
586.90	56533.30
587.06	56381.16
587.22	56818.84
587.38	56741.61
587.54	56718.20
587.70	57045.88
587.86	56807.14
588.02	56650.33
588.18	56818.84
588.34	56992.04
588.49	56999.07
588.65	56577.77
588.81	56671.39
588.97	56963.96
589.13	56734.59
589.29	56917.15
589.45	56851.61
589.61	56844.59
589.77	57235.46
589.93	56795.44
590.08	57064.60
590.24	57017.79
590.40	57198.01
590.56	56767.35
590.72	56875.02
590.88	56875.02
591.04	56636.28
591.20	57216.74
591.35	57088.01
591.51	57146.52
591.67	57102.05
591.83	57010.77
591.99	57153.54
592.15	57102.05
592.31	57017.79
592.46	56725.22
592.62	56968.64
592.78	56975.66
592.94	56914.81
593.10	56987.36
593.26	57130.14
593.41	57198.01
593.57	56823.53
593.73	57230.78
593.89	57064.60
594.05	56844.59
594.20	56877.36
594.36	57041.20
594.52	56919.49
594.68	56853.95
594.84	56839.91
594.99	57071.62
595.15	56858.63
595.31	57310.36
595.47	57174.61
595.62	57034.17
595.78	57050.56
595.94	57113.75
596.10	56846.93
596.25	57022.47
596.41	57120.77
596.57	56832.89
596.73	57118.43
596.88	57003.75
597.04	57062.26
597.20	57193.33
597.36	57261.21
597.51	57176.95
597.67	57036.51
597.83	57139.50
597.99	57151.20
598.14	56872.68
598.30	56985.02
598.46	57071.62
598.61	57109.07
598.77	56757.99
598.93	57045.88
599.09	57148.86
599.24	57401.64
599.40	57134.82
599.56	57254.18
599.71	57137.16
599.87	57230.78
600.03	56823.53
600.18	56821.19
600.34	57064.60
600.50	57076.30
600.65	56989.70
600.81	57188.65
600.97	57219.08
601.12	57181.63
601.28	57095.03
601.44	57172.27
601.59	57212.06
601.75	57176.95
601.91	57113.75
602.06	56940.55
602.22	57027.15
602.37	56886.72
602.53	57022.47
602.69	57001.41
602.84	57059.92
603.00	57078.64
603.16	57254.18
603.31	57057.58
603.47	56870.34
603.62	57080.98
603.78	57083.33
603.94	56846.93
604.09	56952.26
604.25	56842.25
604.40	57097.37
604.56	57097.37
604.71	57111.41
604.87	57006.09
605.03	56975.66
605.18	56844.59
605.34	57132.48
605.49	56891.40
605.65	56797.78
605.80	56809.48
605.96	57102.05
606.12	56762.67
606.27	57153.54
606.43	57076.30
606.58	57172.27
606.74	57034.17
606.89	56999.07
607.05	56963.96
607.20	56779.06
607.36	56849.27
607.51	56978.00
607.67	56697.14
607.82	56891.40
607.98	56643.30
608.13	56879.70
608.29	56741.61
608.44	56711.18
608.60	56898.42
608.75	56952.26
608.91	56753.31
609.06	56622.24
609.22	56978.00
609.37	56603.52
609.53	56741.61
609.68	56680.75
609.84	56346.06
609.99	56537.98
610.15	56568.41
610.30	56568.41
610.46	56685.43
610.61	56662.03
610.76	56701.82
610.92	56715.86
611.07	56666.71
611.23	56554.36
611.38	56748.63
611.54	56690.12
611.69	56507.55
611.84	56376.48
612.00	56425.64
612.15	56463.08
612.31	56608.20
612.46	56449.04
612.62	56678.41
612.77	56793.10
612.92	56678.41
613.08	56470.11
613.23	56650.33
613.39	56559.05
613.54	56261.80
613.69	56296.91
613.85	56240.73
614.00	56367.12
614.15	56388.19
614.31	56444.36
614.46	56470.11
614.62	56268.82
614.77	56369.46
614.92	56615.22
615.08	56619.90
615.23	56509.89
615.38	56427.98
615.54	56191.58
615.69	56128.39
615.84	56224.35
616.00	56140.09
616.15	55920.08
616.30	56481.81
616.46	56168.18
616.61	56474.79
616.76	56341.38
616.92	56184.56
617.07	56123.71
617.22	56301.59
617.37	55803.05
617.53	55899.01
617.68	56196.26
617.83	56135.41
617.99	56170.52
618.14	55920.08
618.29	56175.20
618.45	55966.89
618.60	55966.89
618.75	55861.57
618.90	55852.20
619.06	55863.91
619.21	55763.26
619.36	55985.61
619.51	55770.28
619.67	55655.60
619.82	55501.12
619.97	55763.26
620.12	55646.24
620.28	55386.44
620.43	55686.03
620.58	55786.67
620.73	55744.54
620.89	55927.10
621.04	55969.23
621.19	55964.55
621.34	55634.53
621.49	55379.42
621.65	55566.66
621.80	55807.73
621.95	55351.33
622.10	55765.60
622.25	55442.61
622.41	55941.14
622.56	55599.43
622.71	55686.03
622.86	55468.36
623.01	55515.17
623.16	55508.14
623.32	55374.73
623.47	55561.98
623.62	55634.53
623.77	55341.97
623.92	55510.49
624.07	54986.21
624.23	55365.37
624.38	55365.37
624.53	55068.12
624.68	55285.79
624.83	55466.02
624.98	55501.12
625.13	55264.73
625.29	55136.00
625.44	55400.48
625.59	55185.15
625.74	54993.23
625.89	54906.63
626.04	55004.93
626.19	54841.09
626.34	55021.31
626.49	55040.04
626.65	54955.78
626.80	55119.62
626.95	55110.25
627.10	54997.91
627.25	55098.55
627.40	55002.59
627.55	54656.19
627.70	54845.77
627.85	54506.40
628.00	54695.98
628.15	54747.47
628.30	54644.49
628.45	54745.13
628.60	54525.12
628.76	54827.05
628.91	55009.61
629.06	54672.57
629.21	54695.98
629.36	54646.83
629.51	54740.45
629.66	54688.96
629.81	54447.88
629.96	54571.93
630.11	54160.00
630.26	54358.94
630.41	53970.41
630.56	54602.36
630.71	54408.09
630.86	54197.44
631.01	54438.52
631.16	54431.50
631.31	54337.88
631.46	54248.94
631.61	54330.86
631.76	54312.13
631.91	54272.34
632.06	54326.17
632.21	54230.21
632.36	54288.73
632.51	53897.86
632.66	54150.63
632.81	54204.47
632.96	54403.41
633.10	54258.30
633.25	54087.44
633.40	53951.69
633.55	54218.51
633.70	54188.08
633.85	53811.26
634.00	53972.75
634.15	53907.22
634.30	53682.53
634.45	53893.18
634.60	53911.90
634.75	54255.96
634.90	53811.26
635.05	53951.69
635.19	53778.49
635.34	54089.78
635.49	54003.18
635.64	53820.62
635.79	53797.21
635.94	53624.01
636.09	53734.02
636.24	53521.03
636.39	53619.33
636.53	53579.54
636.68	53727.00
636.83	53687.21
636.98	53766.79
637.13	53595.93
637.28	53773.81
637.43	53638.06
637.57	53848.71
637.72	53357.19
637.87	53633.38
638.02	53598.27
638.17	53755.08
638.32	53338.47
638.46	53275.27
638.61	53155.91
638.76	52996.75
638.91	53041.22
639.06	52926.53
639.20	53509.33
639.35	53139.52
639.50	53099.73
639.65	53249.53
639.80	53233.14
639.94	53226.12
640.09	53095.05
640.24	52999.09
640.39	53090.37
640.54	52921.85
640.68	52933.56
640.83	52725.25
640.98	52935.90
641.13	52779.08
641.27	52863.34
641.42	52825.89
641.57	52926.53
641.72	52954.62
641.86	53020.16
642.01	52697.16
642.16	52802.49
642.31	52189.27
642.45	52669.08
642.60	52500.56
642.75	52481.83
642.90	52640.99
643.04	52446.72
643.19	52725.25
643.34	52622.26
643.48	52381.19
643.63	52676.10
643.78	52903.13
643.93	52676.10
644.07	52762.70
644.22	52643.33
644.37	52498.22
644.51	52332.04
644.66	52596.52
644.81	52282.89
644.95	52154.16
645.10	52231.40
645.25	52336.72
645.39	52261.82
645.54	52390.55
645.69	52116.71
645.83	52257.14
645.98	52374.17
646.13	52299.27
646.27	52039.47
646.42	51995.00
646.57	52161.18
646.71	52130.75
646.86	51978.62
647.00	52200.97
647.15	51922.44
647.30	51599.45
647.44	51606.47
647.59	52105.01
647.74	51840.53
647.88	52175.22
648.03	52016.07
648.17	51976.28
648.32	52114.37
648.47	52149.48
648.61	51686.05
648.76	51885.00
648.90	52055.85
649.05	51866.27
649.20	51604.13
649.34	51547.96
649.49	51498.81
649.63	51636.90
649.78	51725.84
649.92	51487.10
650.07	52203.31
650.21	51662.64
650.36	51962.23
650.51	51786.69
650.65	51807.76
650.80	51863.93
650.94	51892.02
651.09	51599.45
651.23	51505.83
651.38	51704.77
651.52	51267.09
651.67	51391.14
651.81	51400.50
651.96	51388.80
652.10	51325.61
652.25	51117.30
652.39	51547.96
652.54	51231.99
652.68	51437.95
652.83	51447.32
652.97	51550.30
653.12	51234.33
653.26	51297.52
653.41	51189.86
653.55	51040.06
653.70	50965.17
653.84	50670.26
653.99	50862.18
654.13	51000.27
654.27	51140.71
654.42	51063.47
654.56	50995.59
654.71	50979.21
654.85	50983.89
655.00	51419.23
655.14	51068.15
655.29	50742.81
655.43	51267.09
655.57	50665.58
655.72	50415.14
655.86	50581.32
656.01	50363.65
656.15	49998.52
656.30	50075.76
656.44	50248.96
656.58	50389.39
656.73	50319.18
656.87	50555.57
657.01	50501.74
657.16	50604.72
657.30	50724.09
657.45	50504.08
657.59	50316.84
657.73	50075.76
657.88	50263.00
658.02	50204.49
658.16	50078.10
658.31	50326.20
658.45	50167.04
658.60	50124.91
658.74	50274.71
658.88	50000.86
659.03	49954.05
659.17	50012.57
659.31	49947.03
659.46	50127.25
659.60	50248.96
659.74	50033.63
659.89	49942.35
660.03	49935.33
660.17	49928.31
660.32	49511.69
660.46	49488.29
660.60	49350.20
660.74	49432.11
660.89	49549.14
661.03	48835.28
661.17	49095.08
661.32	49139.55
661.46	49008.48
661.60	48825.92
661.74	49181.68
661.89	49202.74
662.03	48842.30
662.17	49188.70
662.31	49165.29
662.46	48982.73
662.60	48868.05
662.74	48633.99
662.88	48449.09
663.03	48825.92
663.17	48332.06
663.31	48147.16
663.45	48509.94
663.60	48364.83
663.74	48397.60
663.88	48301.64
664.02	48491.22
664.17	48875.07
664.31	48292.27
664.45	48472.49
664.59	48156.52
664.73	48144.82
664.88	48315.68
665.02	47650.97
665.16	47494.15
665.30	47835.87
665.44	47753.95
665.59	47152.43
665.73	47669.69
665.87	47126.69
666.01	47454.36
666.15	47454.36
666.29	47526.92
666.44	47672.03
666.58	47414.57
666.72	47124.35
666.86	47555.00
667.00	47374.78
667.14	47498.83
667.28	47456.70
667.43	46997.96
667.57	47234.35
667.71	46995.62
667.85	46782.63
667.99	46878.59
668.13	46483.04
668.27	46607.09
668.41	46852.84
668.56	46256.01
668.70	46363.67
668.84	46260.69
668.98	46447.93
669.12	46721.77
669.26	46258.35
669.40	46286.43
669.54	46068.76
669.68	45951.74
669.82	46155.36
669.96	45738.75
670.10	45750.45
670.25	45743.43
670.39	45406.39
670.53	45483.63
670.67	45268.30
670.81	45263.62
670.95	45261.28
671.09	45467.25
671.23	45408.73
671.37	45425.12
671.51	45268.30
671.65	45652.15
671.79	44938.29
671.93	45158.30
672.07	44912.54
672.21	45006.16
672.35	44453.79
672.49	44545.08
672.63	44968.71
672.77	44222.08
672.91	44451.45
673.05	44360.17
673.19	44458.48
673.33	44638.70
673.47	44233.78
673.61	44603.59
673.75	44186.97
673.89	44357.83
674.03	43882.70
674.17	43793.76
674.31	44102.71
674.45	43442.68
674.59	43323.32
674.73	43414.60
674.87	43508.22
675.01	43042.45
675.15	43330.34
675.29	42997.98
675.43	43054.15
675.56	43187.56
675.70	42972.24
675.84	43124.37
675.98	41900.27
676.12	42698.39
676.26	43323.32
676.40	42717.12
676.54	42391.78
676.68	42295.82
676.82	41621.75
676.96	41902.61
677.10	41727.07
677.23	41727.07
677.37	41516.42
677.51	41219.17
677.65	41397.06
677.79	40758.09
677.93	40760.43
678.07	41104.49
678.21	40858.73
678.34	40765.11
678.48	41027.25
678.62	40629.36
678.76	40318.07
678.90	40210.40
679.04	40098.06
679.18	39803.15
679.31	39791.45
679.45	39765.70
679.59	39711.87
679.73	39583.14
679.87	39351.43
680.00	38993.32
680.14	39222.70
680.28	39360.79
680.42	39374.83
680.56	39323.34
680.70	38820.13
680.83	39295.25
680.97	38721.82
681.11	39480.16
681.25	38581.39
681.39	38366.06
681.52	38890.34
681.66	38429.26
681.80	37811.35
681.94	37804.33
682.07	37972.85
682.21	37315.16
682.35	37460.27
682.49	37420.48
682.62	37193.45
682.76	37413.46
682.90	37291.76
683.04	37118.56
683.17	36872.80
683.31	36875.14
683.45	36774.50
683.59	36814.29
683.72	36765.14
683.86	36833.01
684.00	36198.73
684.13	36428.10
684.27	36222.13
684.41	35950.63
684.55	35353.79
684.68	35693.17
684.82	35761.05
684.96	35126.76
685.09	34965.26
685.23	35229.74
685.37	35012.07
685.50	35285.92
685.64	34983.99
685.78	34490.13
685.91	34799.08
686.05	34998.03
686.19	34501.84
686.32	34630.57
686.46	34073.52
686.60	33249.65
686.73	33642.86
686.87	34012.66
687.01	33748.18
687.14	33738.82
687.28	33310.50
687.42	33404.13
687.55	33308.16
687.69	33315.19
687.82	32655.15
687.96	32849.42
688.10	32673.88
688.23	32989.85
688.37	32943.04
688.50	32748.78
688.64	32297.05
688.78	32638.77
688.91	31833.63
689.05	32313.44
689.18	32086.40
689.32	31302.32
689.46	31578.51
689.59	31651.06
689.73	31449.78
689.86	31122.10
690.00	31260.20
690.13	31606.59
690.27	31339.77
690.41	31255.51
690.54	30518.25
690.68	30562.72
690.81	31126.78
690.95	30787.41
691.08	30799.11
691.22	30281.85
691.35	29881.62
691.49	30384.83
691.62	30312.28
691.76	29879.28
691.89	29490.75
692.03	29310.53
692.16	29696.72
692.30	29586.71
692.43	29301.17
692.57	29223.93
692.70	29347.98
692.84	29029.66
692.97	29109.24
693.11	29329.25
693.24	28922.00
693.38	28701.99
693.51	28556.88
693.65	28781.57
693.78	28360.27
693.92	28620.07
694.05	28252.61
694.19	28063.02
694.32	28002.17
694.45	27693.22
694.59	27576.19
694.72	27442.78
694.86	27536.40
694.99	26838.92
695.13	27075.32
695.26	27246.18
695.39	26361.45
695.53	26958.29
695.66	27370.22
695.80	26890.41
695.93	26909.14
696.07	26766.37
696.20	26803.82
696.33	26497.20
696.47	25982.29
696.60	26272.51
696.73	26412.95
696.87	25841.85
697.00	25717.81
697.14	25476.73
697.27	25032.03
697.40	25078.84
697.54	25420.56
697.67	25184.16
697.80	24936.07
697.94	24973.52
698.07	24393.06
698.21	24676.27
698.34	24915.00
698.47	24926.71
698.61	24561.58
698.74	24215.18
698.87	24608.39
699.01	24423.49
699.14	24201.14
699.27	23908.57
699.40	23955.38
699.54	23573.88
699.67	23651.11
699.80	23264.92
699.94	23229.82
700.07	23440.47
700.20	23194.71
700.34	22998.10
700.47	22888.10
700.60	23171.30
700.73	23007.47
700.87	22670.43
701.00	22850.65
701.13	22555.74
701.26	22387.22
701.40	22345.09
701.53	22506.59
701.66	21996.35
701.79	21972.95
701.93	21851.24
702.06	21802.09
702.19	22029.12
702.32	21645.27
702.46	21387.82
702.59	21586.76
702.72	21170.15
702.85	21256.75
702.99	21111.63
703.12	21399.52
703.25	21053.12
703.38	21362.07
703.51	20748.85
703.65	20744.17
703.78	20723.10
703.91	20393.09
704.04	20613.10
704.17	20561.61
704.31	20180.10
704.44	20175.42
704.57	20023.28
704.70	19866.47
704.83	19971.79
704.96	19833.70
705.10	19852.42
705.23	19426.45
>>>>>End Processed Spectral Data<<<<<
