SpectraSuite Data File
++++++++++++++++++++++++++++++++++++
Date: Fri Oct 18 13:55:57 GMT-05:00 2013
User: bianchi
Dark Spectrum Present: No
Reference Spectrum Present: No
Number of Sampled Component Spectra: 1
Spectrometers: USB2+H05261
Integration Time (usec): 100000 (USB2+H05261)
Spectra Averaged: 1 (USB2+H05261)
Boxcar Smoothing: 0 (USB2+H05261)
Correct for Electrical Dark: No (USB2+H05261)
Strobe/Lamp Enabled: No (USB2+H05261)
Correct for Detector Non-linearity: No (USB2+H05261)
Correct for Stray Light: No (USB2+H05261)
Number of Pixels in Processed Spectrum: 2048
>>>>>Begin Processed Spectral Data<<<<<
365.73	0.00
365.92	0.00
366.12	0.00
366.32	0.00
366.52	0.00
366.72	0.00
366.91	0.00
367.11	0.00
367.31	0.00
367.51	0.00
367.70	0.00
367.90	0.00
368.10	0.00
368.30	0.00
368.49	0.00
368.69	0.00
368.89	0.00
369.09	0.00
369.28	0.00
369.48	0.00
369.68	0.00
369.87	0.00
370.07	0.00
370.27	0.00
370.47	11.70
370.66	191.92
370.86	271.50
371.06	283.20
371.25	369.80
371.45	358.10
371.65	264.48
371.84	271.50
372.04	250.44
372.24	290.23
372.44	255.12
372.63	337.04
372.83	416.62
373.03	348.74
373.22	320.65
373.42	325.33
373.62	360.44
373.81	418.96
374.01	416.62
374.21	517.26
374.40	425.98
374.60	440.02
374.79	362.78
374.99	437.68
375.19	458.74
375.38	402.57
375.58	468.11
375.78	573.43
375.97	479.81
376.17	528.96
376.37	374.49
376.56	444.70
376.76	458.74
376.95	404.91
377.15	552.37
377.35	372.15
377.54	440.02
377.74	411.93
377.93	475.13
378.13	493.85
378.33	489.17
378.52	475.13
378.72	484.49
378.91	463.43
379.11	416.62
379.31	498.53
379.50	489.17
379.70	486.83
379.89	517.26
380.09	601.52
380.28	491.51
380.48	550.03
380.68	575.77
380.87	475.13
381.07	571.09
381.26	578.11
381.46	503.22
381.65	557.05
381.85	596.84
382.04	573.43
382.24	594.50
382.43	589.82
382.63	690.46
382.83	578.11
383.02	648.33
383.22	683.44
383.41	645.99
383.61	615.56
383.80	620.24
384.00	645.99
384.19	641.31
384.39	624.92
384.58	695.14
384.78	641.31
384.97	622.58
385.17	702.16
385.36	683.44
385.56	697.48
385.75	667.05
385.95	662.37
386.14	758.33
386.34	709.18
386.53	676.41
386.72	678.76
386.92	732.59
387.11	732.59
387.31	725.57
387.50	791.10
387.70	727.91
387.89	774.72
388.09	807.48
388.28	718.54
388.48	814.51
388.67	716.20
388.86	798.12
389.06	777.06
389.25	880.04
389.45	774.72
389.64	835.57
389.84	919.83
390.03	833.23
390.22	882.38
390.42	816.85
390.61	795.78
390.81	987.71
391.00	854.30
391.19	877.70
391.39	905.79
391.58	973.66
391.78	868.34
391.97	990.05
392.16	905.79
392.36	905.79
392.55	959.62
392.75	1025.15
392.94	1015.79
393.13	959.62
393.33	1022.81
393.52	943.24
393.71	973.66
393.91	987.71
394.10	1001.75
394.29	1041.54
394.49	997.07
394.68	1064.94
394.88	1109.41
395.07	1118.78
395.26	1062.60
395.46	1032.18
395.65	1186.65
395.84	1207.72
396.04	1268.57
396.23	1071.97
396.42	1144.52
396.62	1249.85
396.81	1158.57
397.00	1170.27
397.19	1219.42
397.39	1224.10
397.58	1287.29
397.77	1210.06
397.97	1247.51
398.16	1217.08
398.35	1186.65
398.55	1203.04
398.74	1345.81
398.93	1371.55
399.12	1341.13
399.32	1369.21
399.51	1240.48
399.70	1371.55
399.90	1308.36
400.09	1472.20
400.28	1404.32
400.47	1432.41
400.67	1458.15
400.86	1380.92
401.05	1404.32
401.24	1401.98
401.44	1437.09
401.63	1481.56
401.82	1467.52
402.01	1462.83
402.21	1481.56
402.40	1521.35
402.59	1519.01
402.78	1507.30
402.97	1589.22
403.17	1626.67
403.36	1593.90
403.55	1558.80
403.74	1720.29
403.93	1631.35
404.13	1708.59
404.32	1671.14
404.51	1673.48
404.70	1778.81
404.89	1703.91
405.09	1668.80
405.28	1753.06
405.47	1757.74
405.66	1853.70
405.85	1905.20
406.05	1813.92
406.24	1837.32
406.43	1914.56
406.62	1963.71
406.81	1898.17
407.00	1877.11
407.20	1867.75
407.39	1872.43
407.58	1991.80
407.77	2022.22
407.96	2040.95
408.15	1921.58
408.34	1959.03
408.54	2118.18
408.73	2057.33
408.92	2209.47
409.11	2174.36
409.30	2190.74
409.49	2181.38
409.68	2190.74
409.87	2097.12
410.07	2363.94
410.26	2258.62
410.45	2242.23
410.64	2345.22
410.83	2392.03
411.02	2326.49
411.21	2459.90
411.40	2377.98
411.59	2483.31
411.78	2466.92
411.98	2490.33
412.17	2593.31
412.36	2518.42
412.55	2513.74
412.74	2605.02
412.93	2558.21
413.12	2635.44
413.31	2745.45
413.50	2668.21
413.69	2693.96
413.88	2754.81
414.07	2808.64
414.26	2935.03
414.45	2895.24
414.64	2899.92
414.83	2935.03
415.02	3042.70
415.22	3023.97
415.41	3028.65
415.60	3000.57
415.79	3019.29
415.98	3133.98
416.17	3222.92
416.36	3094.19
416.55	3155.04
416.74	3267.39
416.93	3248.66
417.12	3349.31
417.31	3330.58
417.50	3293.13
417.69	3482.72
417.88	3407.82
418.07	3335.26
418.26	3454.63
418.45	3597.40
418.64	3588.04
418.83	3475.70
419.02	3632.51
419.21	3627.83
419.39	3595.06
419.58	3515.48
419.77	3735.50
419.96	3707.41
420.15	3618.47
420.34	3646.55
420.53	3878.27
420.72	3808.05
420.91	3805.71
421.10	3866.56
421.29	3976.57
421.48	3777.62
421.67	3913.38
421.86	3990.61
422.05	3988.27
422.24	3978.91
422.43	4044.45
422.61	4018.70
422.80	4128.70
422.99	3983.59
423.18	4042.11
423.37	4095.94
423.56	4067.85
423.75	4100.62
423.94	4060.83
424.13	3742.52
424.32	3913.38
424.50	4002.32
424.69	4180.20
424.88	4215.30
425.07	4182.54
425.26	4091.26
425.45	4161.47
425.64	3967.21
425.83	4072.53
426.01	4241.05
426.20	4180.20
426.39	4184.88
426.58	4102.96
426.77	4112.32
426.96	4147.43
427.15	4058.49
427.33	4280.84
427.52	4280.84
427.71	4421.27
427.90	4280.84
428.09	4241.05
428.28	4266.80
428.46	4561.70
428.65	4440.00
428.84	4421.27
429.03	4472.76
429.22	4484.47
429.40	4566.39
429.59	4493.83
429.78	4341.69
429.97	4325.31
430.16	4449.36
430.34	4566.39
430.53	4620.22
430.72	4592.13
430.91	4678.73
431.10	4727.88
431.28	4739.58
431.47	4692.77
431.66	4802.78
431.85	4828.53
432.03	4882.36
432.22	5083.64
432.41	4985.34
432.60	4926.83
432.79	4964.28
432.97	5062.58
433.16	5043.85
433.35	5060.24
433.54	4922.15
433.72	5027.47
433.91	4990.02
434.10	5170.24
434.28	5205.35
434.47	5032.15
434.66	5163.22
434.85	5238.12
435.03	5366.85
435.22	5282.59
435.41	5359.83
435.59	5277.91
435.78	5195.99
435.97	5469.83
436.16	5195.99
436.34	5544.73
436.53	5439.40
436.72	5490.90
436.90	5430.04
437.09	5495.58
437.28	5432.38
437.46	5334.08
437.65	5446.43
437.84	5708.57
438.02	5577.50
438.21	5666.44
438.40	5486.22
438.58	5919.21
438.77	5853.68
438.96	5710.91
439.14	5877.09
439.33	5865.38
439.52	5973.05
439.70	5937.94
439.89	6083.05
440.08	6080.71
440.26	6127.52
440.45	6017.52
440.63	6076.03
440.82	6270.30
441.01	6342.85
441.19	6436.47
441.38	6284.34
441.57	6553.50
441.75	6635.42
441.94	6637.76
442.12	6677.55
442.31	6743.08
442.50	6504.35
442.68	6525.41
442.87	6698.61
443.05	6707.98
443.24	6626.06
443.43	6619.04
443.61	6799.26
443.80	7012.24
443.98	6857.77
444.17	6616.69
444.35	6871.81
444.54	7030.97
444.73	7012.24
444.91	6935.01
445.10	6930.33
445.28	6986.50
445.47	6857.77
445.65	6925.65
445.84	6888.20
446.02	6932.67
446.21	6988.84
446.39	6918.62
446.58	7070.76
446.77	7037.99
446.95	6930.33
447.14	7073.10
447.32	7077.78
447.51	6820.32
447.69	7157.36
447.88	7164.38
448.06	7169.06
448.25	6970.12
448.43	7026.29
448.62	7070.76
448.80	7204.17
448.99	7253.32
449.17	7236.94
449.36	7220.55
449.54	7286.09
449.73	7454.61
449.91	7328.22
450.10	7517.80
450.28	7417.16
450.46	7531.84
450.65	7595.04
450.83	7548.23
451.02	7260.34
451.20	7637.17
451.39	7489.71
451.57	7683.98
451.76	7466.31
451.94	7494.40
452.13	7749.51
452.31	7803.35
452.49	7609.08
452.68	7590.36
452.86	7815.05
453.05	7962.50
453.23	7943.78
453.42	7782.28
453.60	7791.64
453.78	7901.65
453.97	7819.73
454.15	7974.21
454.34	7854.84
454.52	7950.80
454.70	7805.69
454.89	8063.15
455.07	7988.25
455.26	8049.10
455.44	8285.50
455.62	8210.60
455.81	8306.56
455.99	8196.56
456.17	8255.07
456.36	8383.80
456.54	8519.55
456.73	8472.74
456.91	8659.98
457.09	8505.51
457.28	8519.55
457.46	8624.87
457.64	8596.79
457.83	8599.13
458.01	8535.93
458.19	8858.93
458.38	8657.64
458.56	8943.19
458.74	8809.78
458.93	8683.39
459.11	9060.21
459.29	8985.32
459.48	8917.44
459.66	8908.08
459.84	9170.22
460.03	9188.94
460.21	9135.11
460.39	9200.65
460.57	9231.07
460.76	9074.26
460.94	9364.48
461.12	9235.75
461.31	9263.84
461.49	9390.23
461.67	9458.10
461.85	9507.26
462.04	9394.91
462.22	9970.68
462.40	9444.06
462.59	9558.75
462.77	9469.81
462.95	9734.29
463.13	9523.64
463.32	9394.91
463.50	9624.28
463.68	9914.51
463.86	9476.83
464.05	9724.93
464.23	9785.78
464.41	9764.72
464.59	9652.37
464.78	9914.51
464.96	9851.31
465.14	9722.59
465.32	9870.04
465.50	10026.86
465.69	9902.81
465.87	9806.84
466.05	10012.81
466.23	9958.98
466.41	10190.69
466.60	10546.45
466.78	10260.91
466.96	10108.77
467.14	10267.93
467.32	10441.13
467.51	10370.91
467.69	10136.86
467.87	10340.49
468.05	10326.44
468.23	10307.72
468.41	9961.32
468.60	10499.64
468.78	10518.37
468.96	10363.89
469.14	10377.94
469.32	10672.84
469.50	10162.61
469.69	10677.52
469.87	10626.03
470.05	10979.45
470.23	10698.59
470.41	10757.10
470.59	10888.17
470.77	10906.90
470.95	10871.79
471.14	11052.01
471.32	10927.96
471.50	11201.80
471.68	11047.33
471.86	11110.52
472.04	11049.67
472.22	11482.67
472.40	11304.79
472.58	11447.56
472.77	11344.58
472.95	11379.68
473.13	11873.54
473.31	11538.84
473.49	11569.27
473.67	11571.61
473.85	11761.19
474.03	11922.69
474.21	11728.42
474.39	11971.84
474.57	12091.21
474.75	12119.29
474.93	12191.85
475.12	12138.02
475.30	12292.49
475.48	12374.41
475.66	12416.54
475.84	12531.23
476.02	12641.23
476.20	12699.75
476.38	12662.30
476.56	13071.89
476.74	13111.68
476.92	13027.42
477.10	13123.38
477.28	13254.45
477.46	13170.19
477.64	13315.31
477.82	13280.20
478.00	13802.14
478.18	13682.77
478.36	14012.79
478.54	13928.53
478.72	13806.82
478.90	14108.75
479.08	14492.60
479.26	14253.86
479.44	14520.68
479.62	14736.01
479.80	14951.34
479.98	14977.09
480.16	14927.94
480.34	14918.57
480.52	15115.18
480.70	15129.22
480.88	15400.72
481.06	15211.14
481.24	15307.10
481.41	15651.16
481.59	15618.39
481.77	15896.92
481.95	16121.61
482.13	16067.78
482.31	16006.92
482.49	16453.97
482.67	16489.07
482.85	16828.45
483.03	16805.05
483.21	16891.65
483.39	17048.46
483.57	17060.16
483.74	17441.67
483.92	17483.80
484.10	17205.28
484.28	17701.47
484.46	18237.45
484.64	18263.20
484.82	18092.34
485.00	18384.91
485.18	18391.93
485.35	18775.78
485.53	18611.94
485.71	19002.81
485.89	19133.88
486.07	18977.06
486.25	19403.04
486.43	19227.50
486.61	19396.02
486.78	19281.33
486.96	19695.61
487.14	20030.30
487.32	20271.38
487.50	20278.40
487.68	20217.55
487.85	20861.19
488.03	21001.63
488.21	20936.09
488.39	20943.11
488.57	21308.24
488.75	21282.49
488.92	21809.11
489.10	22050.19
489.28	21886.35
489.46	21809.11
489.64	22190.62
489.81	22508.93
489.99	22462.12
490.17	22553.40
490.35	22792.14
490.53	23054.28
490.70	23323.44
490.88	23388.97
491.06	23625.37
491.24	23332.80
491.41	23648.77
491.59	23960.06
491.77	23611.32
491.95	24147.31
492.13	24140.29
492.30	24652.86
492.48	24184.76
492.66	24339.23
492.84	24393.06
493.01	25083.52
493.19	25146.72
493.37	25579.71
493.54	25663.97
493.72	25455.67
493.90	25450.99
494.08	25799.73
494.25	26209.32
494.43	26073.57
494.61	26684.45
494.79	26359.11
494.96	26361.45
495.14	26731.26
495.32	26757.00
495.49	26733.60
495.67	27180.64
495.85	27080.00
496.02	27112.77
496.20	28077.07
496.38	27763.43
496.55	27454.48
496.73	28065.36
496.91	28311.12
497.09	28388.36
497.26	28362.61
497.44	28238.56
497.62	28662.20
497.79	29146.69
497.97	28596.67
498.14	29228.61
498.32	29600.76
498.50	29048.39
498.67	29790.34
498.85	29502.45
499.03	29638.20
499.20	29879.28
499.38	29472.03
499.56	29790.34
499.73	30176.53
499.91	30672.72
500.08	30616.55
500.26	30583.78
500.44	30780.39
500.61	30527.61
500.79	30522.93
500.97	30946.56
501.14	31435.74
501.32	31431.05
501.49	31021.46
501.67	31173.60
501.84	31571.49
502.02	31800.86
502.20	31630.00
502.37	31983.42
502.55	31864.05
502.72	31995.12
502.90	31864.05
503.07	32182.37
503.25	32421.10
503.43	32163.64
503.60	32676.22
503.78	32713.67
503.95	32748.78
504.13	32973.47
504.30	32741.75
504.48	32603.66
504.65	33036.66
504.83	33371.36
505.01	33937.77
505.18	33495.41
505.36	33813.72
505.53	33656.90
505.71	33577.33
505.88	33902.66
506.06	33502.43
506.23	34132.03
506.41	33687.33
506.58	34057.14
506.76	34113.31
506.93	34499.50
507.11	34583.76
507.28	34511.20
507.46	34443.32
507.63	34778.02
507.81	35101.01
507.98	34888.03
508.16	35267.19
508.33	35159.53
508.50	35103.35
508.68	35257.83
508.85	35658.06
509.03	35807.86
509.20	35803.17
509.38	35796.15
509.55	35697.85
509.73	36414.05
509.90	36453.84
510.08	36191.70
510.25	36142.55
510.42	36605.98
510.60	36432.78
510.77	36594.28
510.95	36893.86
511.12	36627.04
511.30	36666.83
511.47	36781.52
511.64	37221.54
511.82	37284.73
511.99	37291.76
512.17	37441.55
512.34	37216.86
512.51	37738.80
512.69	37755.18
512.86	37680.28
513.04	38345.00
513.21	37638.15
513.38	37965.83
513.56	38422.23
513.73	38103.92
513.90	38253.72
514.08	38108.60
514.25	38284.14
514.43	38557.99
514.60	38843.53
514.77	38665.65
514.95	39271.85
515.12	38522.88
515.29	38955.88
515.47	39250.78
515.64	39161.84
515.81	38916.09
515.99	39723.57
516.16	39887.41
516.33	39503.56
516.51	39819.53
516.68	39108.01
516.85	39536.33
517.03	40149.55
517.20	39943.58
517.37	40098.06
517.54	39882.73
517.72	40790.86
517.89	40285.30
518.06	39959.97
518.24	40212.74
518.41	39922.52
518.58	40362.54
518.75	40158.91
518.93	41010.87
519.10	40533.40
519.27	40800.22
519.45	40851.71
519.62	41013.21
519.79	41289.39
519.96	41244.92
520.14	41525.78
520.31	41167.68
520.48	41542.17
520.65	41855.80
520.83	41673.24
521.00	42000.91
521.17	41581.96
521.34	41757.50
521.52	41942.40
521.69	41806.65
521.86	41794.95
522.03	42429.23
522.20	42539.24
522.38	42258.37
522.55	42373.06
522.72	42590.73
522.89	42560.30
523.07	42794.36
523.24	43000.32
523.41	42927.77
523.58	42583.71
523.75	42850.53
523.92	42986.28
524.10	42866.91
524.27	42855.21
524.44	43676.74
524.61	43393.53
524.78	43430.98
524.96	43929.51
525.13	43337.36
525.30	43917.81
525.47	44065.27
525.64	43641.63
525.81	43400.55
525.98	43878.02
526.16	44055.90
526.33	44212.72
526.50	43962.28
526.67	43613.54
526.84	44535.71
527.01	44072.29
527.18	44292.30
527.36	44994.46
527.53	44257.19
527.70	45057.65
527.87	44832.96
528.04	44680.83
528.21	44612.95
528.38	44229.10
528.55	44753.38
528.72	44900.84
528.89	45237.87
529.07	45404.05
529.24	45240.21
529.41	44891.48
529.58	44734.66
529.75	45200.43
529.92	45059.99
530.09	45350.22
530.26	45057.65
530.43	45385.33
530.60	45560.87
530.77	45663.85
530.94	45530.44
531.11	45734.07
531.28	45736.41
531.46	45490.65
531.63	46141.32
531.80	46050.04
531.97	46307.50
532.14	46330.90
532.31	46284.09
532.48	45883.86
532.65	46164.73
532.82	45841.73
532.99	46363.67
533.16	46157.70
533.33	46272.39
533.50	46714.75
533.67	46391.76
533.84	46263.03
534.01	46693.69
534.18	46377.72
534.35	47002.64
534.52	46639.86
534.69	47112.64
534.86	46897.31
535.03	46763.90
535.20	47075.19
535.37	46852.84
535.54	46990.94
535.71	46726.46
535.88	47037.75
536.05	47100.94
536.22	47398.19
536.38	47203.92
536.55	47445.00
536.72	47510.53
536.89	47398.19
537.06	47454.36
537.23	47601.82
537.40	47049.45
537.57	47292.86
537.74	47618.20
537.91	47952.90
538.08	47566.71
538.25	47611.18
538.42	47503.51
538.59	47908.43
538.75	47491.81
538.92	48002.05
539.09	48236.10
539.26	48074.60
539.43	48011.41
539.60	48198.65
539.77	48423.34
539.94	48353.13
540.11	48491.22
540.28	47959.92
540.44	48549.73
540.61	48088.65
540.78	48474.84
540.95	48582.50
541.12	48238.44
541.29	48816.55
541.46	48594.20
541.62	48226.74
541.79	48413.98
541.96	48505.26
542.13	48416.32
542.30	48559.09
542.47	49036.56
542.63	49249.55
542.80	49006.14
542.97	49179.34
543.14	49272.96
543.31	49017.84
543.48	48854.00
543.64	49429.77
543.81	49551.48
543.98	49684.89
544.15	49354.88
544.32	49614.68
544.48	49792.56
544.65	49642.76
544.82	49481.27
544.99	49200.40
545.16	49539.78
545.32	49411.05
545.49	49801.92
545.66	50141.30
545.83	50347.26
546.00	50024.27
546.16	49844.05
546.33	49598.29
546.50	49881.50
546.67	49530.42
546.83	49858.09
547.00	50094.49
547.17	49670.85
547.34	49879.16
547.50	49993.84
547.67	50136.62
547.84	50124.91
548.00	50174.06
548.17	50293.43
548.34	50136.62
548.51	50419.82
548.67	50534.51
548.84	50677.28
549.01	50424.50
549.18	50518.12
549.34	50543.87
549.51	50611.74
549.68	50316.84
549.84	50431.52
550.01	50375.35
550.18	50368.33
550.34	50621.11
550.51	50930.06
550.68	50918.35
550.84	50312.16
551.01	50974.53
551.18	50511.10
551.34	50365.99
551.51	50707.71
551.68	50845.80
551.84	50941.76
552.01	50518.12
552.18	50955.80
552.34	50791.97
552.51	51243.69
552.68	50761.54
552.84	50719.41
553.01	51014.32
553.18	51030.70
553.34	51224.96
553.51	51091.55
553.67	50869.20
553.84	51391.14
554.01	51344.33
554.17	51423.91
554.34	51112.62
554.51	50719.41
554.67	51374.76
554.84	51419.23
555.00	51353.69
555.17	51358.38
555.33	51229.65
555.50	51430.93
555.67	51370.08
555.83	51393.48
556.00	51407.53
556.16	51697.75
556.33	51505.83
556.50	51459.02
556.66	51475.40
556.83	51702.43
556.99	51751.59
557.16	51927.13
557.32	51859.25
557.49	51941.17
557.65	51711.80
557.82	51180.49
557.98	51421.57
558.15	51695.41
558.32	51782.01
558.48	51533.92
558.65	51976.28
558.81	51922.44
558.98	51873.29
559.14	51760.95
559.31	51826.48
559.47	51721.16
559.64	51767.97
559.80	51917.76
559.97	52191.61
560.13	51358.38
560.30	51976.28
560.46	52105.01
560.63	51618.17
560.79	51992.66
560.96	52327.36
561.12	51941.17
561.29	52147.14
561.45	52147.14
561.61	52257.14
561.78	52266.50
561.94	52126.07
562.11	52292.25
562.27	52037.13
562.44	52184.58
562.60	51896.70
562.77	52144.80
562.93	51950.53
563.10	52147.14
563.26	51835.84
563.42	52268.84
563.59	52240.76
563.75	52004.36
563.92	52395.23
564.08	51880.31
564.24	52229.05
564.41	52093.30
564.57	52264.16
564.74	52203.31
564.90	52011.38
565.07	52533.32
565.23	52236.08
565.39	52285.23
565.56	52261.82
565.72	52215.01
565.88	52456.09
566.05	52133.09
566.21	52280.55
566.38	52083.94
566.54	52243.10
566.70	52491.19
566.87	52924.19
567.03	52310.97
567.19	52706.52
567.36	52587.16
567.52	51976.28
567.68	52479.49
567.85	52083.94
568.01	52622.26
568.17	52549.71
568.34	52449.06
568.50	52395.23
568.66	52495.88
568.83	52652.69
568.99	52168.20
569.15	52191.61
569.32	52186.92
569.48	52308.63
569.64	52460.77
569.81	52287.57
569.97	52317.99
570.13	52676.10
570.30	52074.58
570.46	52329.70
570.62	52559.07
570.78	52390.55
570.95	52446.72
571.11	52523.96
571.27	52114.37
571.43	52486.51
571.60	52755.68
571.76	52500.56
571.92	52849.30
572.09	52664.39
572.25	52521.62
572.41	52746.31
572.57	52790.78
572.74	52678.44
572.90	52325.02
573.06	52535.66
573.22	52416.30
573.38	52638.65
573.55	52610.56
573.71	52945.26
573.87	52720.57
574.03	52640.99
574.20	52648.01
574.36	52456.09
574.52	52605.88
574.68	52385.87
574.84	52486.51
575.01	52760.36
575.17	52547.37
575.33	52545.03
575.49	52662.05
575.65	52945.26
575.82	52736.95
575.98	52498.22
576.14	52743.97
576.30	52736.95
576.46	52346.08
576.62	52374.17
576.79	52392.89
576.95	52498.22
577.11	52861.00
577.27	52418.64
577.43	52619.92
577.59	52671.42
577.75	52683.12
577.92	52453.75
578.08	52336.72
578.24	52673.76
578.40	52587.16
578.56	52816.53
578.72	52509.92
578.88	53010.79
579.04	52870.36
579.21	52535.66
579.37	52704.18
579.53	52481.83
579.69	52575.45
579.85	52369.49
580.01	52893.77
580.17	52655.03
580.33	52690.14
580.49	52617.58
580.65	52573.11
580.82	52823.55
580.98	52788.44
581.14	52631.63
581.30	53001.43
581.46	52554.39
581.62	52552.05
581.78	52680.78
581.94	52809.51
582.10	52659.71
582.26	52601.20
582.42	52554.39
582.58	53022.50
582.74	52666.73
582.90	52832.91
583.06	52748.65
583.22	52502.90
583.38	52332.04
583.54	52896.11
583.70	52589.50
583.86	52903.13
584.02	52514.60
584.18	52699.50
584.34	52678.44
584.50	52750.99
584.66	53013.13
584.82	52846.96
584.98	52762.70
585.14	52631.63
585.30	52645.67
585.46	52711.20
585.62	52514.60
585.78	52640.99
585.94	52587.16
586.10	52666.73
586.26	52680.78
586.42	52760.36
586.58	52739.29
586.74	52729.93
586.90	52437.36
587.06	52640.99
587.22	52339.06
587.38	52479.49
587.54	52858.66
587.70	52898.45
587.86	53198.04
588.02	53045.90
588.18	52863.34
588.34	52992.07
588.49	52655.03
588.65	52652.69
588.81	52935.90
588.97	52587.16
589.13	52790.78
589.29	52706.52
589.45	52982.71
589.61	52853.98
589.77	53237.83
589.93	53134.84
590.08	53162.93
590.24	53069.31
590.40	53186.33
590.56	53052.92
590.72	52788.44
590.88	53001.43
591.04	52861.00
591.20	53097.39
591.35	53020.16
591.51	53343.15
591.67	53052.92
591.83	53406.34
591.99	52968.66
592.15	52971.00
592.31	53277.61
592.46	52949.94
592.62	52769.72
592.78	53071.65
592.94	52736.95
593.10	52886.74
593.26	53073.99
593.41	53020.16
593.57	53017.82
593.73	53148.88
593.89	53052.92
594.05	53120.80
594.20	52954.62
594.36	52910.15
594.52	53006.11
594.68	52636.31
594.84	52774.40
594.99	53265.91
595.15	53106.76
595.31	53165.27
595.47	53109.10
595.62	53258.89
595.78	52968.66
595.94	53254.21
596.10	52912.49
596.25	52776.74
596.41	52900.79
596.57	52828.23
596.73	52720.57
596.88	52868.02
597.04	53448.47
597.20	53008.45
597.36	53179.31
597.51	53162.93
597.67	53111.44
597.83	53153.57
597.99	53286.98
598.14	53048.24
598.30	53036.54
598.46	53066.97
598.61	53137.18
598.77	52931.22
598.93	52905.47
599.09	53219.10
599.24	53425.07
599.40	53006.11
599.56	53233.14
599.71	52942.92
599.87	53446.13
600.03	53001.43
600.18	53106.76
600.34	52753.33
600.50	53071.65
600.65	53064.63
600.81	53404.00
600.97	53176.97
601.12	53385.28
601.28	53251.87
601.44	53483.58
601.59	53151.23
601.75	53151.23
601.91	53038.88
602.06	52907.81
602.22	53001.43
602.37	52715.89
602.53	53052.92
602.69	53279.96
602.84	52963.98
603.00	53057.60
603.16	53251.87
603.31	52905.47
603.47	52687.80
603.62	52556.73
603.78	52800.15
603.94	53221.44
604.09	53031.86
604.25	52910.15
604.40	53001.43
604.56	53326.77
604.71	53125.48
604.87	53109.10
605.03	53275.27
605.18	52779.08
605.34	53010.79
605.49	52636.31
605.65	52776.74
605.80	52598.86
605.96	52999.09
606.12	52762.70
606.27	52877.38
606.43	52690.14
606.58	53244.85
606.74	52917.17
606.89	52928.87
607.05	52488.85
607.20	52844.62
607.36	53066.97
607.51	52851.64
607.67	52676.10
607.82	52322.68
607.98	52540.35
608.13	52636.31
608.29	52685.46
608.44	52793.12
608.60	52655.03
608.75	52837.59
608.91	52559.07
609.06	52491.19
609.22	52488.85
609.37	51889.68
609.53	52428.00
609.68	52701.84
609.84	52261.82
609.99	52442.04
610.15	52502.90
610.30	52308.63
610.46	52538.01
610.61	52566.09
610.76	52430.34
610.92	52381.19
611.07	52458.43
611.23	52287.57
611.38	52032.45
611.54	52381.19
611.69	52413.96
611.84	52308.63
612.00	52371.83
612.15	52296.93
612.31	52322.68
612.46	52575.45
612.62	52327.36
612.77	52423.32
612.92	52430.34
613.08	52329.70
613.23	52282.89
613.39	52083.94
613.54	52271.18
613.69	52175.22
613.85	51929.47
614.00	51845.21
614.15	51992.66
614.31	52313.31
614.46	52561.41
614.62	52137.77
614.77	52212.67
614.92	52182.24
615.08	51906.06
615.23	52191.61
615.38	52140.11
615.54	51679.03
615.69	51924.78
615.84	51749.24
616.00	52074.58
616.15	51749.24
616.30	52081.60
616.46	51964.57
616.61	51583.07
616.76	51854.57
616.92	51798.40
617.07	51714.14
617.22	51950.53
617.37	51098.58
617.53	51866.27
617.68	51482.42
617.83	51292.84
617.99	51859.25
618.14	51885.00
618.29	51622.86
618.45	51908.40
618.60	51683.71
618.75	51789.03
618.90	51657.96
619.06	51433.27
619.21	51508.17
619.36	51641.58
619.51	51466.04
619.67	51344.33
619.82	51344.33
619.97	51332.63
620.12	50770.90
620.28	51206.24
620.43	51461.36
620.58	51360.72
620.73	51058.79
620.89	51395.82
621.04	51494.13
621.19	51414.55
621.34	51136.02
621.49	51178.15
621.65	50813.03
621.80	51271.78
621.95	51016.66
622.10	51096.24
622.25	51159.43
622.41	50841.12
622.56	50890.27
622.71	51241.35
622.86	51236.67
623.01	50969.85
623.16	51098.58
623.32	51004.95
623.47	50993.25
623.62	50759.20
623.77	50768.56
623.92	50492.38
624.07	50539.19
624.23	50986.23
624.38	50707.71
624.53	50759.20
624.68	50721.75
624.83	50878.57
624.98	50773.24
625.13	50866.86
625.29	50611.74
625.44	50876.22
625.59	50630.47
625.74	50330.88
625.89	50061.72
626.04	50035.97
626.19	50171.72
626.34	50117.89
626.49	50405.78
626.65	50167.04
626.80	50216.19
626.95	50408.12
627.10	50042.99
627.25	50241.94
627.40	50358.97
627.55	50248.96
627.70	50003.20
627.85	49708.30
628.00	49862.77
628.15	49921.29
628.30	49827.66
628.45	49848.73
628.60	49675.53
628.76	49930.65
628.91	49982.14
629.06	50115.55
629.21	49851.07
629.36	49516.37
629.51	49895.54
629.66	50272.37
629.81	49457.86
629.96	49689.57
630.11	49359.56
630.26	49649.78
630.41	49528.08
630.56	49614.68
630.71	49476.58
630.86	49734.04
631.01	49485.95
631.16	49902.56
631.31	49626.38
631.46	49663.83
631.61	49495.31
631.76	49263.60
631.91	49184.02
632.06	49483.61
632.21	49249.55
632.36	49448.50
632.51	49099.76
632.66	49375.94
632.81	49024.86
632.96	49277.64
633.10	49027.20
633.25	49111.46
633.40	49167.63
633.55	49436.80
633.70	49186.36
633.85	48762.72
634.00	48933.58
634.15	48636.33
634.30	48861.02
634.45	48624.63
634.60	48748.68
634.75	48980.39
634.90	48865.70
635.05	48783.79
635.19	48830.60
635.34	49350.20
635.49	48744.00
635.64	49074.01
635.79	48715.91
635.94	48692.50
636.09	48783.79
636.24	48648.03
636.39	48437.39
636.53	48720.59
636.68	48509.94
636.83	48385.89
636.98	48884.43
637.13	48346.11
637.28	48587.18
637.43	48751.02
637.57	48919.54
637.72	48259.51
637.87	48570.80
638.02	48535.69
638.17	48348.45
638.32	48502.92
638.46	47952.90
638.61	48264.19
638.76	47756.29
638.91	47803.10
639.06	48374.19
639.20	48126.10
639.35	48116.73
639.50	48095.67
639.65	48179.93
639.80	48287.59
639.94	47650.97
640.09	47709.48
640.24	48137.80
640.39	47721.18
640.54	47496.49
640.68	47763.31
640.83	47634.58
640.98	47430.96
641.13	47339.68
641.27	47934.17
641.42	47625.22
641.57	47487.13
641.72	47437.98
641.86	47620.54
642.01	47496.49
642.16	47522.24
642.31	47201.58
642.45	47959.92
642.60	47065.83
642.75	47407.55
642.90	47182.86
643.04	47430.96
643.19	46986.25
643.34	46976.89
643.48	46710.07
643.63	47112.64
643.78	47573.73
643.93	47501.17
644.07	47679.05
644.22	47543.30
644.37	47213.29
644.51	47086.90
644.66	47065.83
644.81	46948.81
644.95	47182.86
645.10	47002.64
645.25	47384.15
645.39	46747.52
645.54	47030.72
645.69	46939.44
645.83	46822.42
645.98	46824.76
646.13	46848.16
646.27	47269.46
646.42	46595.38
646.57	46864.55
646.71	46939.44
646.86	46506.44
647.00	46529.85
647.15	46553.26
647.30	46745.18
647.44	46731.14
647.59	46415.16
647.74	46380.06
647.88	46344.95
648.03	46845.82
648.17	46909.02
648.32	46562.62
648.47	46433.89
648.61	46564.96
648.76	46548.57
648.90	46419.84
649.05	46223.24
649.20	46539.21
649.34	46078.13
649.49	46110.89
649.63	46232.60
649.78	45722.37
649.92	45804.28
650.07	45853.44
650.21	45790.24
650.36	46211.54
650.51	45977.48
650.65	46124.94
650.80	46335.59
650.94	45825.35
651.09	45867.48
651.23	46040.68
651.38	45818.33
651.52	45595.98
651.67	45628.74
651.81	45825.35
651.96	45572.57
652.10	45869.82
652.25	45713.00
652.39	45869.82
652.54	46113.23
652.68	45612.36
652.83	45614.70
652.97	45743.43
653.12	45642.79
653.26	45935.35
653.41	45275.32
653.55	45387.67
653.70	45242.56
653.84	45387.67
653.99	45350.22
654.13	45399.37
654.27	45031.91
654.42	45202.77
654.56	45188.72
654.71	45209.79
654.85	45574.91
655.00	45820.67
655.14	45432.14
655.29	45188.72
655.43	45280.00
655.57	44807.22
655.72	45001.48
655.86	45027.23
656.01	44737.00
656.15	44921.90
656.30	44650.40
656.44	44641.04
656.58	44697.21
656.73	44573.16
656.87	44442.09
657.01	44414.01
657.16	44959.35
657.30	45209.79
657.45	44697.21
657.59	44992.12
657.73	44364.85
657.88	44648.06
658.02	44252.51
658.16	43765.68
658.31	44095.69
658.45	44114.42
658.60	44067.61
658.74	44102.71
658.88	44601.25
659.03	44184.63
659.17	44404.64
659.31	44130.80
659.46	43934.20
659.60	44687.85
659.74	44404.64
659.89	44222.08
660.03	44037.18
660.17	44069.95
660.32	43880.36
660.46	43548.01
660.60	43508.22
660.74	43356.08
660.89	43641.63
661.03	43274.16
661.17	43583.12
661.32	43475.45
661.46	43332.68
661.60	43203.95
661.74	42925.42
661.89	43374.81
662.03	43187.56
662.17	43260.12
662.31	43220.33
662.46	43391.19
662.60	43023.73
662.74	43040.11
662.88	42581.37
663.03	42405.83
663.17	42859.89
663.31	42106.24
663.45	42218.58
663.60	42171.77
663.74	42087.51
663.88	42539.24
664.02	42408.17
664.17	42609.45
664.31	42260.71
664.45	42043.04
664.59	42115.60
664.73	42412.85
664.88	42330.93
665.02	41586.64
665.16	41315.14
665.30	41734.09
665.44	41390.03
665.59	41228.54
665.73	41780.90
665.87	41493.02
666.01	41544.51
666.15	41256.62
666.29	41486.00
666.44	41497.70
666.58	41106.83
666.72	41298.75
666.86	41546.85
667.00	41504.72
667.14	41399.40
667.28	41315.14
667.43	40945.33
667.57	41106.83
667.71	40591.91
667.85	40835.33
667.99	40538.08
668.13	40622.34
668.27	40549.78
668.41	40737.02
668.56	40465.52
668.70	40795.54
668.84	40524.04
668.98	40238.49
669.12	40140.19
669.26	40706.60
669.40	40009.12
669.54	40147.21
669.68	40470.20
669.82	39812.51
669.96	39681.44
670.10	39629.95
670.25	39945.92
670.39	39402.92
670.53	39566.76
670.67	39185.25
670.81	39576.12
670.95	39461.43
671.09	39459.09
671.23	39194.61
671.37	39370.15
671.51	39356.11
671.65	39772.72
671.79	39133.76
671.93	39129.08
672.07	39288.23
672.21	39157.16
672.35	38726.50
672.49	38497.13
672.63	38621.18
672.77	38490.11
672.91	38363.72
673.05	38251.38
673.19	38162.43
673.33	38277.12
673.47	38359.04
673.61	38183.50
673.75	38150.73
673.89	37970.51
674.03	37862.85
674.17	38174.14
674.31	37809.01
674.45	37914.34
674.59	37818.38
674.73	37530.49
674.87	37106.85
675.01	37254.31
675.15	37471.98
675.29	37347.93
675.43	37404.10
675.56	37137.28
675.70	37610.07
675.84	36959.40
675.98	36355.54
676.12	37191.11
676.26	37081.11
676.40	36737.05
676.54	36940.68
676.68	36341.50
676.82	35819.56
676.96	35672.10
677.10	36077.02
677.23	35779.77
677.37	35601.89
677.51	35512.95
677.65	35335.07
677.79	35229.74
677.93	35037.82
678.07	35185.27
678.21	35058.88
678.34	35021.44
678.48	34749.93
678.62	35316.34
678.76	34696.10
678.90	35058.88
679.04	34419.92
679.18	34382.47
679.31	34188.21
679.45	34443.32
679.59	33684.99
679.73	34033.73
679.87	34087.56
680.00	33652.22
680.14	33818.40
680.28	33895.64
680.42	33558.60
680.56	33401.79
680.70	33333.91
680.83	33457.96
680.97	33483.70
681.11	33373.70
681.25	33251.99
681.39	33060.07
681.52	32985.17
681.66	32978.15
681.80	32992.19
681.94	32606.00
682.07	32395.35
682.21	32102.79
682.35	32130.87
682.49	31955.33
682.62	31716.60
682.76	31660.43
682.90	31892.14
683.04	31601.91
683.17	31775.11
683.31	31861.71
683.45	32156.62
683.59	31477.86
683.72	31536.38
683.86	30927.84
684.00	31016.78
684.13	31049.55
684.27	30906.77
684.41	30314.62
684.55	30080.56
684.68	30866.98
684.82	30316.96
684.96	30012.69
685.09	30277.17
685.23	30169.51
685.37	30242.06
685.50	30153.12
685.64	29780.98
685.78	29542.24
685.91	29977.58
686.05	30143.76
686.19	29528.20
686.32	29366.70
686.46	29247.33
686.60	29165.42
686.73	29167.76
686.87	28666.88
687.01	28704.33
687.14	28580.28
687.28	28395.38
687.42	28533.47
687.55	28435.17
687.69	28093.45
687.82	28151.96
687.96	28430.49
688.10	28086.43
688.23	27871.10
688.37	28203.46
688.50	28002.17
688.64	27648.75
688.78	27749.39
688.91	27517.68
689.05	27833.65
689.18	27491.93
689.32	26806.16
689.46	27094.04
689.59	26817.86
689.73	26749.98
689.86	26794.45
690.00	26408.26
690.13	26733.60
690.27	26396.56
690.41	26754.66
690.54	26321.66
690.68	26256.13
690.81	26366.13
690.95	26600.19
691.08	26462.10
691.22	26146.12
691.35	25741.21
691.49	26122.72
691.62	25692.06
691.76	25546.95
691.89	25420.56
692.03	25092.88
692.16	25387.79
692.30	25193.53
692.43	24882.24
692.57	24549.88
692.70	25209.91
692.84	24959.47
692.97	24812.02
693.11	24287.74
693.24	24753.51
693.38	25029.69
693.51	24732.44
693.65	24395.40
693.78	24636.48
693.92	24191.78
694.05	24290.08
694.19	23983.47
694.32	23798.57
694.45	24034.96
694.59	23449.83
694.72	23374.93
694.86	23138.54
694.99	23370.25
695.13	23049.60
695.26	23124.49
695.39	22993.42
695.53	23241.52
695.66	23358.55
695.80	23073.00
695.93	22944.27
696.07	22778.09
696.20	22857.67
696.33	22576.81
696.47	22218.71
696.60	22405.95
696.73	22471.48
696.87	21909.75
697.00	21834.86
697.14	21528.25
697.27	21542.29
697.40	21462.71
697.54	21188.87
697.67	21128.02
697.80	21296.53
697.94	20870.56
698.07	21048.44
698.21	20875.24
698.34	20975.88
698.47	21083.55
698.61	20585.01
698.74	20751.19
698.87	20704.38
699.01	20800.34
699.14	20465.64
699.27	20439.90
699.40	20173.08
699.54	20093.50
699.67	19985.83
699.80	19803.27
699.94	19899.23
700.07	19957.75
700.20	20044.35
700.34	19501.34
700.47	19372.61
700.60	19337.51
700.73	19225.16
700.87	19627.73
701.00	19267.29
701.13	19225.16
701.26	19194.73
701.40	19094.09
701.53	19452.19
701.66	18993.45
701.79	18707.90
701.93	18738.33
702.06	18654.07
702.19	18349.80
702.32	18405.97
702.46	18272.56
702.59	18310.01
702.72	18113.41
702.85	17907.44
702.99	18024.47
703.12	17886.37
703.25	17752.96
703.38	17872.33
703.51	18064.25
703.65	17933.18
703.78	17886.37
703.91	17509.55
704.04	17607.85
704.17	17610.19
704.31	17235.70
704.44	17310.60
704.57	17348.05
704.70	16840.15
704.83	16966.54
704.96	16842.50
705.10	16671.64
705.23	16631.85
>>>>>End Processed Spectral Data<<<<<
