SpectraSuite Data File
++++++++++++++++++++++++++++++++++++
Date: Fri Oct 18 13:55:41 GMT-05:00 2013
User: bianchi
Dark Spectrum Present: No
Reference Spectrum Present: No
Number of Sampled Component Spectra: 1
Spectrometers: USB2+H05261
Integration Time (usec): 100000 (USB2+H05261)
Spectra Averaged: 1 (USB2+H05261)
Boxcar Smoothing: 0 (USB2+H05261)
Correct for Electrical Dark: No (USB2+H05261)
Strobe/Lamp Enabled: No (USB2+H05261)
Correct for Detector Non-linearity: No (USB2+H05261)
Correct for Stray Light: No (USB2+H05261)
Number of Pixels in Processed Spectrum: 2048
>>>>>Begin Processed Spectral Data<<<<<
365.73	0.00
365.92	0.00
366.12	0.00
366.32	0.00
366.52	0.00
366.72	0.00
366.91	0.00
367.11	0.00
367.31	0.00
367.51	0.00
367.70	0.00
367.90	0.00
368.10	0.00
368.30	0.00
368.49	0.00
368.69	0.00
368.89	0.00
369.09	0.00
369.28	0.00
369.48	0.00
369.68	0.00
369.87	0.00
370.07	0.00
370.27	0.00
370.47	37.45
370.66	248.10
370.86	292.57
371.06	360.44
371.25	397.89
371.45	330.02
371.65	231.71
371.84	250.44
372.04	318.31
372.24	365.12
372.44	414.27
372.63	388.53
372.83	437.68
373.03	395.55
373.22	414.27
373.42	428.32
373.62	425.98
373.81	512.58
374.01	463.43
374.21	433.00
374.40	512.58
374.60	491.51
374.79	456.40
374.99	477.47
375.19	491.51
375.38	461.09
375.58	517.26
375.78	496.19
375.97	535.98
376.17	601.52
376.37	482.15
376.56	498.53
376.76	484.49
376.95	554.71
377.15	489.17
377.35	507.90
377.54	589.82
377.74	456.40
377.93	463.43
378.13	585.13
378.33	561.73
378.52	585.13
378.72	603.86
378.91	596.84
379.11	550.03
379.31	526.62
379.50	535.98
379.70	685.78
379.89	613.22
380.09	620.24
380.28	531.30
380.48	547.69
380.68	571.09
380.87	575.77
381.07	578.11
381.26	688.12
381.46	552.37
381.65	512.58
381.85	648.33
382.04	561.73
382.24	704.50
382.43	657.69
382.63	648.33
382.83	709.18
383.02	697.48
383.22	699.82
383.41	674.07
383.61	739.61
383.80	753.65
384.00	681.10
384.19	746.63
384.39	716.20
384.58	753.65
384.78	737.27
384.97	695.14
385.17	697.48
385.36	662.37
385.56	709.18
385.75	706.84
385.95	716.20
386.14	814.51
386.34	777.06
386.53	793.44
386.72	795.78
386.92	786.42
387.11	866.00
387.31	767.70
387.50	877.70
387.70	870.68
387.89	861.32
388.09	835.57
388.28	847.27
388.48	884.72
388.67	894.08
388.86	891.74
389.06	842.59
389.25	901.11
389.45	931.53
389.64	915.15
389.84	961.96
390.03	912.81
390.22	933.87
390.42	1013.45
390.61	957.28
390.81	952.60
391.00	957.28
391.19	1008.77
391.39	968.98
391.58	1041.54
391.78	943.24
391.97	1069.62
392.16	1069.62
392.36	1043.88
392.55	1036.86
392.75	1158.57
392.94	1062.60
393.13	1130.48
393.33	1130.48
393.52	1149.20
393.71	1086.01
393.91	1156.22
394.10	1095.37
394.29	1172.61
394.49	1039.20
394.68	1219.42
394.88	1160.91
395.07	1261.55
395.26	1231.12
395.46	1240.48
395.65	1179.63
395.84	1142.18
396.04	1369.21
396.23	1210.06
396.42	1315.38
396.62	1369.21
396.81	1280.27
397.00	1277.93
397.19	1329.42
397.39	1364.53
397.58	1322.40
397.77	1289.64
397.97	1338.79
398.16	1348.15
398.35	1401.98
398.55	1390.28
398.74	1462.83
398.93	1479.22
399.12	1427.73
399.32	1467.52
399.51	1376.24
399.70	1629.01
399.90	1479.22
400.09	1497.94
400.28	1547.09
400.47	1612.63
400.67	1600.93
400.86	1565.82
401.05	1650.08
401.24	1561.14
401.44	1540.07
401.63	1659.44
401.82	1593.90
402.01	1502.62
402.21	1661.78
402.40	1746.04
402.59	1654.76
402.78	1617.31
402.97	1659.44
403.17	1769.44
403.36	1732.00
403.55	1888.81
403.74	1788.17
403.93	1776.47
404.13	1874.77
404.32	1788.17
404.51	1902.86
404.70	1966.05
404.89	1825.62
405.09	1973.07
405.28	1870.09
405.47	1898.17
405.66	2040.95
405.85	2010.52
406.05	1944.99
406.24	1968.39
406.43	2045.63
406.62	2031.58
406.81	2193.08
407.00	2036.27
407.20	1989.46
407.39	2087.76
407.58	2031.58
407.77	2108.82
407.96	2211.81
408.15	2293.72
408.34	2148.61
408.54	2179.04
408.73	2256.28
408.92	2380.32
409.11	2275.00
409.30	2347.56
409.49	2352.24
409.68	2399.05
409.87	2396.71
410.07	2450.54
410.26	2457.56
410.45	2466.92
410.64	2420.11
410.83	2462.24
411.02	2476.29
411.21	2546.50
411.40	2466.92
411.59	2567.57
411.78	2593.31
411.98	2605.02
412.17	2801.62
412.36	2719.70
412.55	2848.43
412.74	2799.28
412.93	2815.66
413.12	2782.90
413.31	3082.49
413.50	2970.14
413.69	2935.03
413.88	2984.18
414.07	2993.55
414.26	2953.76
414.45	3056.74
414.64	3103.55
414.83	3119.93
415.02	3162.06
415.22	3063.76
415.41	3269.73
415.60	3208.87
415.79	3232.28
415.98	3403.14
416.17	3328.24
416.36	3302.50
416.55	3255.69
416.74	3578.68
416.93	3513.14
417.12	3419.52
417.31	3531.87
417.50	3562.30
417.69	3660.60
417.88	3618.47
418.07	3726.13
418.26	3744.86
418.45	3707.41
418.64	3733.15
418.83	3857.20
419.02	3728.47
419.21	3798.69
419.39	3904.01
419.58	3742.52
419.77	3850.18
419.96	4004.66
420.15	4018.70
420.34	4018.70
420.53	3934.44
420.72	4086.58
420.91	4100.62
421.10	3971.89
421.29	4187.22
421.48	4044.45
421.67	4093.60
421.86	4063.17
422.05	3990.61
422.24	4142.75
422.43	4308.93
422.61	4009.34
422.80	4201.26
422.99	4287.86
423.18	4355.74
423.37	4348.72
423.56	4292.54
423.75	4255.09
423.94	4142.75
424.13	3868.91
424.32	4119.34
424.50	4388.50
424.69	4358.08
424.88	4353.40
425.07	4428.29
425.26	4294.88
425.45	4299.56
425.64	4278.50
425.83	4327.65
426.01	4521.92
426.20	4311.27
426.39	4493.83
426.58	4557.02
426.77	4381.48
426.96	4566.39
427.15	4397.87
427.33	4613.20
427.52	4526.60
427.71	4599.15
427.90	4505.53
428.09	4908.10
428.28	4526.60
428.46	4777.03
428.65	4575.75
428.84	4891.72
429.03	4882.36
429.22	4737.24
429.40	4835.55
429.59	4856.61
429.78	4479.79
429.97	4489.15
430.16	4737.24
430.34	4903.42
430.53	4947.89
430.72	4936.19
430.91	5036.83
431.10	4847.25
431.28	4933.85
431.47	5048.54
431.66	5252.16
431.85	5104.71
432.03	5095.35
432.22	5191.31
432.41	5277.91
432.60	5252.16
432.79	5245.14
432.97	5160.88
433.16	5322.38
433.35	5125.77
433.54	5537.71
433.72	5387.91
433.91	5432.38
434.10	5341.10
434.28	5446.43
434.47	5561.11
434.66	5453.45
434.85	5465.15
435.03	5423.02
435.22	5689.84
435.41	5863.04
435.59	5579.84
435.78	5528.35
435.97	5743.67
436.16	5673.46
436.34	5575.16
436.53	5764.74
436.72	5900.49
436.90	5650.05
437.09	5809.21
437.28	5687.50
437.46	5771.76
437.65	5935.60
437.84	5968.37
438.02	6057.31
438.21	5879.43
438.40	5947.30
438.58	6146.25
438.77	6195.40
438.96	6136.88
439.14	6408.39
439.33	6354.55
439.52	6204.76
439.70	6511.37
439.89	6499.67
440.08	6445.84
440.26	6363.92
440.45	6614.35
440.63	6579.25
440.82	6677.55
441.01	6684.57
441.19	6780.53
441.38	6960.75
441.57	6918.62
441.75	7019.27
441.94	7173.74
442.12	7148.00
442.31	7173.74
442.50	7126.93
442.68	7166.72
442.87	7063.74
443.05	7129.27
443.24	7276.73
443.43	7159.70
443.61	7342.26
443.80	7405.46
443.98	7171.40
444.17	7026.29
444.35	7269.70
444.54	7321.20
444.73	7384.39
444.91	7330.56
445.10	7309.49
445.28	7325.88
445.47	7227.57
445.65	7433.54
445.84	7391.41
446.02	7489.71
446.21	7218.21
446.39	7442.90
446.58	7552.91
446.77	7623.12
446.95	7346.94
447.14	7590.36
447.32	7548.23
447.51	7300.13
447.69	7445.24
447.88	7562.27
448.06	7393.75
448.25	7438.22
448.43	7588.02
448.62	7433.54
448.80	7522.48
448.99	7632.49
449.17	7719.09
449.36	7616.10
449.54	7850.16
449.73	7932.08
449.91	7995.27
450.10	7918.03
450.28	7960.16
450.46	7836.11
450.65	7967.18
450.83	8042.08
451.02	7969.52
451.20	8105.28
451.39	8025.70
451.57	8091.23
451.76	7988.25
451.94	8028.04
452.13	8229.32
452.31	8112.30
452.49	8081.87
452.68	8241.03
452.86	8325.29
453.05	8201.24
453.23	8383.80
453.42	8187.19
453.60	8245.71
453.78	8482.10
453.97	8402.52
454.15	8383.80
454.34	8294.86
454.52	8617.85
454.70	8802.75
454.89	8662.32
455.07	8573.38
455.26	8788.71
455.44	8924.46
455.62	8664.66
455.81	8496.14
455.99	8540.61
456.17	8805.10
456.36	8997.02
456.54	8990.00
456.73	8945.53
456.91	9062.55
457.09	9064.89
457.28	9240.44
457.46	9174.90
457.64	9266.18
457.83	9238.09
458.01	9135.11
458.19	9441.72
458.38	9240.44
458.56	9343.42
458.74	9392.57
458.93	9359.80
459.11	9465.13
459.29	9530.66
459.48	9423.00
459.66	9619.60
459.84	9554.07
460.03	9872.38
460.21	9727.27
460.39	9802.16
460.57	9544.70
460.76	9928.55
460.94	9848.97
461.12	9790.46
461.31	9865.36
461.49	9753.01
461.67	9884.08
461.85	9940.26
462.04	9851.31
462.22	10668.16
462.40	9994.09
462.59	9963.66
462.77	10188.35
462.95	10097.07
463.13	10118.14
463.32	10272.61
463.50	10279.63
463.68	10370.91
463.86	10366.23
464.05	10239.84
464.23	10225.80
464.41	10258.57
464.59	10293.68
464.78	10466.88
464.96	10455.17
465.14	10310.06
465.32	10656.46
465.50	10839.02
465.69	10719.65
465.87	10616.67
466.05	10649.44
466.23	10551.14
466.41	10492.62
466.60	11047.33
466.78	10541.77
466.96	10740.72
467.14	10703.27
467.32	10747.74
467.51	11054.35
467.69	10693.91
467.87	10977.11
468.05	10951.37
468.23	10939.66
468.41	10998.18
468.60	11023.92
468.78	11190.10
468.96	10911.58
469.14	11211.17
469.32	11250.96
469.50	10920.94
469.69	11360.96
469.87	11463.94
470.05	11396.07
470.23	11580.97
470.41	11557.57
470.59	11618.42
470.77	11609.06
470.95	11782.26
471.14	11709.70
471.32	11396.07
471.50	11810.34
471.68	11805.66
471.86	11756.51
472.04	11857.15
472.22	12252.70
472.40	12093.55
472.58	12009.29
472.77	11946.09
472.95	12262.07
473.13	12676.34
473.31	12297.17
473.49	12264.41
473.67	12439.95
473.85	12449.31
474.03	12587.40
474.21	12931.46
474.39	12688.04
474.57	13095.30
474.75	12940.82
474.93	13104.66
475.12	13008.70
475.30	13074.23
475.48	13085.94
475.66	13284.88
475.84	13238.07
476.02	13610.22
476.20	13350.42
476.38	13933.21
476.56	13907.46
476.74	13895.76
476.92	13987.04
477.10	13654.69
477.28	14183.65
477.46	14064.28
477.64	14246.84
477.82	14551.11
478.00	14644.73
478.18	14752.40
478.36	14789.85
478.54	14986.45
478.72	15087.09
478.90	15103.48
479.08	15262.63
479.26	15318.81
479.44	15367.96
479.62	15632.44
479.80	15758.83
479.98	15772.87
480.16	16067.78
480.34	15866.49
480.52	16166.08
480.70	16233.96
480.88	16013.95
481.06	16437.58
481.24	16269.06
481.41	16713.77
481.59	16812.07
481.77	17249.75
481.95	17142.08
482.13	17057.82
482.31	16950.16
482.49	17771.69
482.67	17479.12
482.85	17790.41
483.03	17954.25
483.21	18146.17
483.39	18134.47
483.57	18078.30
483.74	18434.06
483.92	18551.09
484.10	18473.85
484.28	18806.20
484.46	19117.50
484.64	19206.44
484.82	19218.14
485.00	19358.57
485.18	19653.48
485.35	20009.24
485.53	19716.67
485.71	19924.98
485.89	20290.10
486.07	20196.48
486.25	20704.38
486.43	20390.75
486.61	20716.08
486.78	20889.28
486.96	21214.62
487.14	21483.78
487.32	21734.21
487.50	21750.60
487.68	21673.36
487.85	22101.68
488.03	22324.03
488.21	22525.32
488.39	22478.50
488.57	22843.63
488.75	22820.22
488.92	22965.34
489.10	23150.24
489.28	23328.12
489.46	23590.26
489.64	23515.36
489.81	24006.87
489.99	23971.77
490.17	24137.94
490.35	24631.80
490.53	24545.20
490.70	24622.44
490.88	24732.44
491.06	24978.20
491.24	25010.96
491.41	25326.94
491.59	25427.58
491.77	25570.35
491.95	25820.79
492.13	25825.47
492.30	26059.52
492.48	26113.36
492.66	25919.09
492.84	26101.65
493.01	26581.46
493.19	26370.82
493.37	27295.33
493.54	26974.67
493.72	27377.25
493.90	27728.33
494.08	27395.97
494.25	27873.44
494.43	27660.45
494.61	28142.60
494.79	27992.81
494.96	28229.20
495.14	28423.47
495.32	28594.32
495.49	28493.68
495.67	29020.30
495.85	29200.52
496.02	29263.72
496.20	29450.96
496.38	29221.59
496.55	29666.29
496.73	29867.58
496.91	29930.77
497.09	30513.56
497.26	30373.13
497.44	30246.74
497.62	30548.67
497.79	30848.26
497.97	30745.28
498.14	31489.57
498.32	31583.19
498.50	31283.60
498.67	31903.84
498.85	31239.13
499.03	31611.28
499.20	31737.66
499.38	31625.32
499.56	32418.76
499.73	32280.67
499.91	32671.54
500.08	32713.67
500.26	32322.80
500.44	32629.41
500.61	32896.23
500.79	32795.59
500.97	33064.75
501.14	33628.82
501.32	33364.34
501.49	33354.97
501.67	33263.69
501.84	33734.14
502.02	33876.91
502.20	33755.21
502.37	33841.81
502.55	34164.80
502.72	34253.74
502.90	34050.11
503.07	34204.59
503.25	34429.28
503.43	34183.52
503.60	34930.16
503.78	34808.45
503.95	35068.25
504.13	34806.11
504.30	35056.54
504.48	35407.62
504.65	35325.71
504.83	35566.78
505.01	35625.29
505.18	35791.47
505.36	35676.79
505.53	35997.44
505.71	35948.29
505.88	35969.35
506.06	35990.42
506.23	36299.37
506.41	35887.43
506.58	36495.97
506.76	36343.84
506.93	36575.55
507.11	36694.92
507.28	36924.29
507.46	37144.30
507.63	36753.43
507.81	37722.41
507.98	37163.03
508.16	37336.23
508.33	37427.51
508.50	37656.88
508.68	37390.06
508.85	37799.65
509.03	38031.36
509.20	38330.95
509.38	38220.95
509.55	38146.05
509.73	38279.46
509.90	38171.80
510.08	38323.93
510.25	38897.36
510.42	39189.93
510.60	39250.78
510.77	39213.34
510.95	38831.83
511.12	38850.55
511.30	39470.79
511.47	39328.02
511.64	39494.20
511.82	40102.74
511.99	39814.85
512.17	40002.10
512.34	39768.04
512.51	40147.21
512.69	40250.19
512.86	40055.93
513.04	40645.74
513.21	40481.91
513.38	40437.44
513.56	40807.24
513.73	41144.28
513.90	40587.23
514.08	40240.83
514.25	40678.51
514.43	41415.78
514.60	40687.87
514.77	41394.71
514.95	41799.63
515.12	41689.62
515.29	41305.77
515.47	41846.44
515.64	41577.28
515.81	42183.48
515.99	41986.87
516.16	42169.43
516.33	42007.94
516.51	42225.60
516.68	42267.73
516.85	42354.33
517.03	42284.12
517.20	42532.22
517.37	42740.52
517.54	42955.85
517.72	42862.23
517.89	42216.24
518.06	42895.00
518.24	42806.06
518.41	43133.73
518.58	43189.91
518.75	43033.09
518.93	43611.20
519.10	43398.21
519.27	43564.39
519.45	43409.92
519.62	43709.50
519.79	43887.39
519.96	43803.13
520.14	44074.63
520.31	43765.68
520.48	44086.33
520.65	44198.68
520.83	44865.73
521.00	44357.83
521.17	44025.48
521.34	44353.15
521.52	44776.79
521.69	44825.94
521.86	44713.59
522.03	45010.84
522.20	45113.83
522.38	44854.03
522.55	44935.95
522.72	45024.89
522.89	45439.16
523.07	45113.83
523.24	45291.71
523.41	45626.40
523.58	45436.82
523.75	46087.49
523.92	45315.11
524.10	45467.25
524.27	45888.54
524.44	45858.12
524.61	46005.57
524.78	46394.10
524.96	46347.29
525.13	46192.81
525.30	46499.42
525.47	46494.74
525.64	46227.92
525.81	46639.86
525.98	46724.11
526.16	46857.52
526.33	46724.11
526.50	47084.56
526.67	46745.18
526.84	46438.57
527.01	46913.70
527.18	46862.21
527.36	46981.57
527.53	47447.34
527.70	47636.92
527.87	47569.05
528.04	47180.52
528.21	47646.29
528.38	47484.79
528.55	47419.25
528.72	47725.86
528.89	47938.85
529.07	47526.92
529.24	47367.76
529.41	47803.10
529.58	48296.95
529.75	47828.85
529.92	47838.21
530.09	47681.39
530.26	48313.34
530.43	48172.91
530.60	48034.81
530.77	48451.43
530.94	48641.01
531.11	48140.14
531.28	47999.71
531.46	48432.71
531.63	48383.55
531.80	48849.32
531.97	48591.86
532.14	48580.16
532.31	48680.80
532.48	48793.15
532.65	49076.35
532.82	48598.88
532.99	48825.92
533.16	48662.08
533.33	49050.61
533.50	49132.53
533.67	49052.95
533.84	49200.40
534.01	49233.17
534.18	48692.50
534.35	49392.33
534.52	49088.06
534.69	49542.12
534.86	49532.76
535.03	49331.47
535.20	49975.12
535.37	49621.70
535.54	49621.70
535.71	49345.51
535.88	49663.83
536.05	49822.98
536.22	49942.35
536.38	50080.44
536.55	49617.02
536.72	50150.66
536.89	49942.35
537.06	49815.96
537.23	50431.52
537.40	49490.63
537.57	50312.16
537.74	50174.06
537.91	50651.53
538.08	50199.81
538.25	50040.65
538.42	50419.82
538.59	50653.87
538.75	50293.43
538.92	50279.39
539.09	50892.61
539.26	50642.17
539.43	50436.20
539.60	50714.73
539.77	50908.99
539.94	51215.60
540.11	50962.82
540.28	50827.07
540.44	50733.45
540.61	50756.86
540.78	50803.67
540.95	50850.48
541.12	50981.55
541.29	50908.99
541.46	50885.59
541.62	50862.18
541.79	50937.08
541.96	50798.99
542.13	51136.02
542.30	51318.59
542.47	51653.28
542.63	51388.80
542.80	51459.02
542.97	51894.36
543.14	51674.35
543.31	51196.88
543.48	51714.14
543.64	52004.36
543.81	51894.36
543.98	51854.57
544.15	52072.24
544.32	52140.11
544.48	52538.01
544.65	51662.64
544.82	51985.64
544.99	51693.07
545.16	52081.60
545.32	52189.27
545.49	52423.32
545.66	52055.85
545.83	52353.10
546.00	52348.42
546.16	52474.81
546.33	52191.61
546.50	51866.27
546.67	51983.30
546.83	51894.36
547.00	52357.78
547.17	52097.98
547.34	52332.04
547.50	52390.55
547.67	52825.89
547.84	52589.50
548.00	52622.26
548.17	52797.80
548.34	52306.29
548.51	52779.08
548.67	52783.76
548.84	52626.95
549.01	52612.90
549.18	52758.02
549.34	52853.98
549.51	52900.79
549.68	52720.57
549.84	52989.73
550.01	53315.06
550.18	53055.26
550.34	53144.20
550.51	52898.45
550.68	53057.60
550.84	52474.81
551.01	52940.58
551.18	52844.62
551.34	52954.62
551.51	52956.96
551.68	53345.49
551.84	53162.93
552.01	52907.81
552.18	53389.96
552.34	53172.29
552.51	53427.41
552.68	53137.18
552.84	53006.11
553.01	53347.83
553.18	53418.05
553.34	53474.22
553.51	53333.79
553.67	53221.44
553.84	53759.76
554.01	53404.00
554.17	53640.40
554.34	53581.88
554.51	53495.28
554.67	53579.54
554.84	53537.41
555.00	53654.44
555.17	53525.71
555.33	53624.01
555.50	53497.62
555.67	53811.26
555.83	53822.96
556.00	53605.29
556.16	54003.18
556.33	53736.36
556.50	53916.58
556.66	54061.69
556.83	53799.55
556.99	53876.79
557.16	54169.36
557.32	54101.48
557.49	54045.31
557.65	53556.14
557.82	53743.38
557.98	53956.37
558.15	54220.85
558.32	54248.94
558.48	54071.06
558.65	54239.57
558.81	54309.79
558.98	54218.51
559.14	54092.12
559.31	54183.40
559.47	54174.04
559.64	54136.59
559.80	54387.03
559.97	54171.70
560.13	54113.19
560.30	54075.74
560.46	54237.23
560.63	54277.02
560.79	54017.22
560.96	54532.14
561.12	54298.09
561.29	54049.99
561.45	54422.14
561.61	54333.20
561.78	54616.40
561.94	54387.03
562.11	54337.88
562.27	54227.87
562.44	54375.33
562.60	54291.07
562.77	54321.49
562.93	54220.85
563.10	54625.76
563.26	54361.28
563.42	54658.53
563.59	54487.67
563.75	54560.23
563.92	54534.48
564.08	54646.83
564.24	54695.98
564.41	54188.08
564.57	54253.62
564.74	54206.81
564.90	54534.48
565.07	54574.27
565.23	54754.49
565.39	54422.14
565.56	54471.29
565.72	54351.92
565.88	54564.91
566.05	54485.33
566.21	54550.87
566.38	54251.28
566.54	54749.81
566.70	54897.27
566.87	54801.30
567.03	54703.00
567.19	54684.28
567.36	54728.75
567.52	54726.41
567.68	54787.26
567.85	54763.85
568.01	54733.43
568.17	54508.74
568.34	54796.62
568.50	54892.58
568.66	54845.77
568.83	54908.97
568.99	54770.88
569.15	54567.25
569.32	54710.02
569.48	54482.99
569.64	54693.64
569.81	54801.30
569.97	54553.21
570.13	54604.70
570.30	54897.27
570.46	54822.37
570.62	54897.27
570.78	54805.98
570.95	54501.71
571.11	54925.35
571.27	54651.51
571.43	54403.41
571.60	54759.17
571.76	54583.63
571.92	54906.63
572.09	55164.09
572.25	54876.20
572.41	54845.77
572.57	54740.45
572.74	54869.18
572.90	54766.20
573.06	54817.69
573.22	54988.55
573.38	54993.23
573.55	54913.65
573.71	55208.56
573.87	55206.22
574.03	54808.32
574.20	55023.65
574.36	54932.37
574.52	54848.11
574.68	55025.99
574.84	54784.92
575.01	54822.37
575.17	54993.23
575.33	54894.92
575.49	54824.71
575.65	55180.47
575.82	55033.02
575.98	55044.72
576.14	54920.67
576.30	55021.31
576.46	55028.34
576.62	54733.43
576.79	55016.63
576.95	54763.85
577.11	55037.70
577.27	55161.75
577.43	54918.33
577.59	54911.31
577.75	54866.84
577.92	54686.62
578.08	54997.91
578.24	54810.67
578.40	55021.31
578.56	54897.27
578.72	55037.70
578.88	55402.82
579.04	55168.77
579.21	54951.10
579.37	55030.68
579.53	55070.46
579.69	54691.30
579.85	54899.61
580.01	54974.50
580.17	54784.92
580.33	55114.94
580.49	55246.00
580.65	55065.78
580.82	55267.07
580.98	55047.06
581.14	55089.19
581.30	54972.16
581.46	54904.29
581.62	54993.23
581.78	54761.51
581.94	55171.11
582.10	54756.83
582.26	54944.08
582.42	55072.81
582.58	55175.79
582.74	54932.37
582.90	55096.21
583.06	55016.63
583.22	55056.42
583.38	55028.34
583.54	55147.70
583.70	55091.53
583.86	54775.56
584.02	54731.09
584.18	55215.58
584.34	54997.91
584.50	55264.73
584.66	55124.30
584.82	54864.50
584.98	55004.93
585.14	55023.65
585.30	54976.84
585.46	55063.44
585.62	55082.17
585.78	55002.59
585.94	54899.61
586.10	55199.19
586.26	55105.57
586.42	55325.58
586.58	55388.78
586.74	55143.02
586.90	54852.80
587.06	54899.61
587.22	54913.65
587.38	54780.24
587.54	55096.21
587.70	55229.62
587.86	55323.24
588.02	55145.36
588.18	55313.88
588.34	55374.73
588.49	55189.83
588.65	55098.55
588.81	54759.17
588.97	55320.90
589.13	55236.64
589.29	55370.05
589.45	55203.88
589.61	55407.50
589.77	55498.78
589.93	55412.18
590.08	55480.06
590.24	55494.10
590.40	55220.26
590.56	55538.57
590.72	55274.09
590.88	55210.90
591.04	55306.86
591.20	55437.93
591.35	55517.51
591.51	55618.15
591.67	55250.69
591.83	55681.34
591.99	55393.46
592.15	55203.88
592.31	55313.88
592.46	55306.86
592.62	55150.04
592.78	54906.63
592.94	55552.62
593.10	55189.83
593.26	55384.10
593.41	55561.98
593.57	55430.91
593.73	55395.80
593.89	55564.32
594.05	55246.00
594.20	55143.02
594.36	55461.33
594.52	55194.51
594.68	55304.52
594.84	55299.84
594.99	55533.89
595.15	55238.98
595.31	55634.53
595.47	55306.86
595.62	55320.90
595.78	55379.42
595.94	55278.77
596.10	55629.85
596.25	55456.65
596.41	55585.38
596.57	55166.43
596.73	55580.70
596.88	55220.26
597.04	55571.34
597.20	55398.14
597.36	55522.19
597.51	55566.66
597.67	55367.71
597.83	55377.08
597.99	55412.18
598.14	55402.82
598.30	55348.99
598.46	55423.89
598.61	55430.91
598.77	55341.97
598.93	55449.63
599.09	55428.57
599.24	55849.86
599.40	55559.64
599.56	55636.87
599.71	55433.25
599.87	55341.97
600.03	55227.28
600.18	55271.75
600.34	55510.49
600.50	55592.40
600.65	55325.58
600.81	55561.98
600.97	55664.96
601.12	55545.59
601.28	55344.31
601.44	55512.83
601.59	55482.40
601.75	55360.69
601.91	55348.99
602.06	55049.40
602.22	55220.26
602.37	55358.35
602.53	55470.70
602.69	55468.36
602.84	55306.86
603.00	55798.37
603.16	55552.62
603.31	55414.52
603.47	55400.48
603.62	55377.08
603.78	55454.31
603.94	55164.09
604.09	55159.41
604.25	55168.77
604.40	55416.86
604.56	55189.83
604.71	55501.12
604.87	55276.43
605.03	55587.72
605.18	55295.16
605.34	55444.95
605.49	55334.95
605.65	55255.37
605.80	55145.36
605.96	54986.21
606.12	55014.29
606.27	55337.29
606.43	55189.83
606.58	55461.33
606.74	55096.21
606.89	55185.15
607.05	55407.50
607.20	55236.64
607.36	55210.90
607.51	55018.97
607.67	55157.06
607.82	54864.50
607.98	54906.63
608.13	55112.59
608.29	55114.94
608.44	54930.03
608.60	55114.94
608.75	55196.85
608.91	55152.38
609.06	54901.95
609.22	55000.25
609.37	54824.71
609.53	55084.51
609.68	55246.00
609.84	54782.58
609.99	54946.42
610.15	55054.08
610.30	54995.57
610.46	54679.60
610.61	55014.29
610.76	55028.34
610.92	54787.26
611.07	55018.97
611.23	54934.71
611.38	55014.29
611.54	54979.18
611.69	54653.85
611.84	54920.67
612.00	54710.02
612.15	54600.02
612.31	54677.25
612.46	54789.60
612.62	54859.82
612.77	54646.83
612.92	55002.59
613.08	54553.21
613.23	54691.30
613.39	54632.78
613.54	54576.61
613.69	54754.49
613.85	54298.09
614.00	54567.25
614.15	54784.92
614.31	54609.38
614.46	54754.49
614.62	54536.82
614.77	54920.67
614.92	54656.19
615.08	54602.36
615.23	54389.37
615.38	54747.47
615.54	54323.83
615.69	54422.14
615.84	54351.92
616.00	54157.66
616.15	54307.45
616.30	54492.35
616.46	54356.60
616.61	54724.07
616.76	54321.49
616.92	54293.41
617.07	54438.52
617.22	54389.37
617.37	54342.56
617.53	54307.45
617.68	54087.44
617.83	54307.45
617.99	54010.20
618.14	54108.50
618.29	54354.26
618.45	54237.23
618.60	54410.43
618.75	54230.21
618.90	54101.48
619.06	54199.79
619.21	54288.73
619.36	54237.23
619.51	53879.13
619.67	53874.45
619.82	53663.80
619.97	53748.06
620.12	53972.75
620.28	53607.63
620.43	54071.06
620.58	54026.59
620.73	54061.69
620.89	54068.72
621.04	53979.78
621.19	54021.90
621.34	53799.55
621.49	53886.15
621.65	53993.82
621.80	54094.46
621.95	53780.83
622.10	53890.83
622.25	53907.22
622.41	53935.30
622.56	53560.82
622.71	53691.89
622.86	53656.78
623.01	53874.45
623.16	53755.08
623.32	53567.84
623.47	53776.15
623.62	53537.41
623.77	53567.84
623.92	53371.24
624.07	53336.13
624.23	53453.15
624.38	53469.54
624.53	53485.92
624.68	53525.71
624.83	53734.02
624.98	53673.16
625.13	53209.74
625.29	53350.17
625.44	53616.99
625.59	53081.01
625.74	53207.40
625.89	53151.23
626.04	52861.00
626.19	53095.05
626.34	53020.16
626.49	53277.61
626.65	52949.94
626.80	53041.22
626.95	53052.92
627.10	52903.13
627.25	53179.31
627.40	53006.11
627.55	53020.16
627.70	52629.29
627.85	52767.38
628.00	52673.76
628.15	52947.60
628.30	52900.79
628.45	52790.78
628.60	52832.91
628.76	53118.46
628.91	52762.70
629.06	52680.78
629.21	52804.83
629.36	52807.17
629.51	52624.60
629.66	52694.82
629.81	52310.97
629.96	52463.11
630.11	52322.68
630.26	52395.23
630.41	52512.26
630.56	52388.21
630.71	52369.49
630.86	52397.57
631.01	52296.93
631.16	52655.03
631.31	52772.06
631.46	52065.22
631.61	52538.01
631.76	52287.57
631.91	52268.84
632.06	52278.21
632.21	52184.58
632.36	52097.98
632.51	52055.85
632.66	52161.18
632.81	52184.58
632.96	52505.24
633.10	52196.29
633.25	52233.74
633.40	52112.03
633.55	52123.73
633.70	52151.82
633.85	51908.40
634.00	52137.77
634.15	51707.12
634.30	51545.62
634.45	51948.19
634.60	52006.70
634.75	52133.09
634.90	51753.93
635.05	52191.61
635.19	51838.18
635.34	52023.09
635.49	51955.21
635.64	51714.14
635.79	51765.63
635.94	51737.54
636.09	51510.51
636.24	51522.21
636.39	51456.68
636.53	51625.20
636.68	51248.37
636.83	51554.98
636.98	51650.94
637.13	51290.50
637.28	51576.04
637.43	51660.30
637.57	51290.50
637.72	51501.15
637.87	51814.78
638.02	51206.24
638.17	51409.87
638.32	51030.70
638.46	51089.21
638.61	51285.82
638.76	51026.02
638.91	50892.61
639.06	51079.85
639.20	51407.53
639.35	51288.16
639.50	51185.18
639.65	51320.93
639.80	51372.42
639.94	51110.28
640.09	51007.29
640.24	51236.67
640.39	50946.44
640.54	50848.14
640.68	50784.94
640.83	50808.35
640.98	50525.14
641.13	50445.57
641.27	50934.74
641.42	50766.22
641.57	50506.42
641.72	50822.39
641.86	50354.29
642.01	50213.85
642.16	50564.93
642.31	50333.22
642.45	50567.27
642.60	50302.79
642.75	50157.68
642.90	50288.75
643.04	50358.97
643.19	50131.93
643.34	50314.50
643.48	50419.82
643.63	50520.46
643.78	50574.30
643.93	50768.56
644.07	50515.78
644.22	50241.94
644.37	50454.93
644.51	50401.10
644.66	50066.40
644.81	49925.97
644.95	50181.09
645.10	50171.72
645.25	49958.73
645.39	49787.88
645.54	50153.00
645.69	50344.92
645.83	50108.53
645.98	50288.75
646.13	50117.89
646.27	50174.06
646.42	50057.04
646.57	50019.59
646.71	50150.66
646.86	50113.21
647.00	49827.66
647.15	49612.34
647.30	49673.19
647.44	49776.17
647.59	49993.84
647.74	49528.08
647.88	49844.05
648.03	49612.34
648.17	49958.73
648.32	49982.14
648.47	49748.09
648.61	49427.43
648.76	49682.55
648.90	49303.38
649.05	49560.84
649.20	49418.07
649.34	49556.16
649.49	49619.36
649.63	49703.62
649.78	48985.07
649.92	49453.18
650.07	49406.37
650.21	49436.80
650.36	49258.91
650.51	49710.64
650.65	49705.96
650.80	49233.17
650.94	49425.09
651.09	49687.23
651.23	49059.97
651.38	49144.23
651.52	48982.73
651.67	48975.71
651.81	48945.28
651.96	49045.93
652.10	48610.59
652.25	48861.02
652.39	48919.54
652.54	49509.35
652.68	48797.83
652.83	49066.99
652.97	49558.50
653.12	48964.01
653.26	49223.81
653.41	48772.08
653.55	48584.84
653.70	48631.65
653.84	48755.70
653.99	48540.37
654.13	48318.02
654.27	48727.61
654.42	48821.23
654.56	48526.33
654.71	48811.87
654.85	49041.24
655.00	48828.26
655.14	48577.82
655.29	48198.65
655.43	48617.61
655.57	48531.01
655.72	48481.86
655.86	48413.98
656.01	48116.73
656.15	48112.05
656.30	48224.40
656.44	47962.26
656.58	47686.07
656.73	47821.83
656.87	47943.53
657.01	47920.13
657.16	48435.05
657.30	48065.24
657.45	47882.68
657.59	48114.39
657.73	48067.58
657.88	47847.57
658.02	47573.73
658.16	47746.93
658.31	47559.69
658.45	47618.20
658.60	47323.29
658.74	47711.82
658.88	47224.99
659.03	47660.33
659.17	47405.21
659.31	47164.14
659.46	47414.57
659.60	47365.42
659.74	47711.82
659.89	47402.87
660.03	47653.31
660.17	47260.10
660.32	47377.12
660.46	46993.28
660.60	46829.44
660.74	46789.65
660.89	47077.54
661.03	46871.57
661.17	47194.56
661.32	46679.64
661.46	46897.31
661.60	46454.95
661.74	46843.48
661.89	46909.02
662.03	46600.07
662.17	46429.21
662.31	46499.42
662.46	47002.64
662.60	46286.43
662.74	45977.48
662.88	46054.72
663.03	46024.29
663.17	45776.20
663.31	45858.12
663.45	45844.07
663.60	45839.39
663.74	45769.18
663.88	45642.79
664.02	45542.14
664.17	45968.12
664.31	45862.80
664.45	45954.08
664.59	45656.83
664.73	45563.21
664.88	45605.34
665.02	44692.53
665.16	45338.52
665.30	44870.41
665.44	45059.99
665.59	44697.21
665.73	44889.13
665.87	44573.16
666.01	45338.52
666.15	45141.91
666.29	44781.47
666.44	45188.72
666.58	44531.03
666.72	45008.50
666.86	45064.67
667.00	44629.34
667.14	44470.18
667.28	44364.85
667.43	44137.82
667.57	44584.86
667.71	44095.69
667.85	44271.23
667.99	44236.12
668.13	43716.53
668.27	43723.55
668.41	43988.03
668.56	43505.88
668.70	43875.68
668.84	44034.84
668.98	44039.52
669.12	43810.15
669.26	43639.29
669.40	43564.39
669.54	43695.46
669.68	43540.99
669.82	42782.65
669.96	42962.87
670.10	42813.08
670.25	43229.69
670.39	42864.57
670.53	43021.39
670.67	42871.59
670.81	43147.78
670.95	42787.33
671.09	42902.02
671.23	42873.93
671.37	43072.88
671.51	42899.68
671.65	42740.52
671.79	42581.37
671.93	42265.39
672.07	42347.31
672.21	42078.15
672.35	42204.54
672.49	41897.93
672.63	42007.94
672.77	41731.75
672.91	41783.24
673.05	41254.28
673.19	41951.76
673.33	41514.08
673.47	41638.13
673.61	41947.08
673.75	41619.41
673.89	41331.52
674.03	41738.77
674.17	41280.03
674.31	41045.97
674.45	41001.50
674.59	41060.02
674.73	40821.28
674.87	40538.08
675.01	40533.40
675.15	40521.69
675.29	40320.41
675.43	40243.17
675.56	40407.01
675.70	40402.33
675.84	40687.87
675.98	39501.22
676.12	40388.28
676.26	40329.77
676.40	39992.73
676.54	39929.54
676.68	39559.73
676.82	38485.43
676.96	38878.64
677.10	39075.24
677.23	38740.55
677.37	38459.68
677.51	38726.50
677.65	38689.06
677.79	38384.79
677.93	38251.38
678.07	38305.21
678.21	38129.67
678.34	38359.04
678.48	38426.92
678.62	38316.91
678.76	38103.92
678.90	38003.28
679.04	37701.35
679.18	37954.13
679.31	36868.12
679.45	36870.46
679.59	36973.44
679.73	37301.12
679.87	36788.54
680.00	36566.19
680.14	36851.73
680.28	37048.34
680.42	36004.46
680.56	36809.61
680.70	36561.51
680.83	36495.97
680.97	36297.03
681.11	36491.29
681.25	36589.59
681.39	36084.04
681.52	36046.59
681.66	36247.88
681.80	36165.96
681.94	35271.87
682.07	35218.04
682.21	34955.90
682.35	34691.42
682.49	34799.08
682.62	34848.24
682.76	34536.94
682.90	34684.40
683.04	35213.36
683.17	34621.20
683.31	34754.61
683.45	34993.35
683.59	34515.88
683.72	34347.36
683.86	34288.85
684.00	33993.94
684.13	33738.82
684.27	33846.49
684.41	33343.27
684.55	32957.08
684.68	33287.10
684.82	33156.03
684.96	33275.40
685.09	33076.45
685.23	33111.56
685.37	32723.03
685.50	32823.67
685.64	32765.16
685.78	32811.97
685.91	32758.14
686.05	32788.56
686.19	32067.68
686.32	32266.63
686.46	31821.92
686.60	31447.44
686.73	31693.19
686.87	31704.90
687.01	31314.03
687.14	30909.11
687.28	30749.96
687.42	31051.89
687.55	31316.37
687.69	30857.62
687.82	30703.15
687.96	31110.40
688.10	31173.60
688.23	30670.38
688.37	30836.56
688.50	30370.79
688.64	30663.36
688.78	30188.23
688.91	30410.58
689.05	30061.84
689.18	29750.55
689.32	29539.90
689.46	29570.33
689.59	30143.76
689.73	29212.23
689.86	29273.08
690.00	29310.53
690.13	29244.99
690.27	28692.63
690.41	28716.03
690.54	28893.91
690.68	29149.03
690.81	29076.48
690.95	29083.50
691.08	28931.36
691.22	28765.18
691.35	28357.93
691.49	28268.99
691.62	27901.53
691.76	27765.78
691.89	27641.73
692.03	27487.25
692.16	27676.83
692.30	27288.31
692.43	27152.55
692.57	27494.27
692.70	27391.29
692.84	27180.64
692.97	27026.17
693.11	27410.01
693.24	26544.02
693.38	26944.25
693.51	26609.55
693.65	26869.35
693.78	26555.72
693.92	26352.09
694.05	26487.84
694.19	26096.97
694.32	25855.90
694.45	25996.33
694.59	25584.40
694.72	26066.55
694.86	25139.69
694.99	25277.79
695.13	25827.81
695.26	25109.27
695.39	24943.09
695.53	25106.93
695.66	24985.22
695.80	25120.97
695.93	24835.42
696.07	24877.55
696.20	24425.83
696.33	24641.16
696.47	24512.43
696.60	24453.92
696.73	24250.29
696.87	23889.85
697.00	24032.62
697.14	23901.55
697.27	23269.61
697.40	23367.91
697.54	23300.03
697.67	23143.22
697.80	23101.09
697.94	22864.69
698.07	23117.47
698.21	23037.89
698.34	22951.29
698.47	23047.26
698.61	22537.02
698.74	22635.32
698.87	22616.60
699.01	22710.22
699.14	22616.60
699.27	22260.84
699.40	22394.25
699.54	22178.92
699.67	21811.45
699.80	21542.29
699.94	21436.97
700.07	21837.20
700.20	21273.13
700.34	21432.29
700.47	21556.33
700.60	21415.90
700.73	21425.26
700.87	21427.60
701.00	21167.80
701.13	21537.61
701.26	20978.22
701.40	21083.55
701.53	20704.38
701.66	20980.56
701.79	20503.09
701.93	20479.69
702.06	20137.97
702.19	20051.37
702.32	20318.19
702.46	19859.45
702.59	19852.42
702.72	19569.22
702.85	19683.91
702.99	19468.58
703.12	19587.94
703.25	19468.58
703.38	19838.38
703.51	19611.35
703.65	19424.11
703.78	19431.13
703.91	19225.16
704.04	18988.77
704.17	19061.32
704.31	19119.84
704.44	18831.95
704.57	19012.17
704.70	18401.29
704.83	18417.68
704.96	18452.78
705.10	18225.75
705.23	18398.95
>>>>>End Processed Spectral Data<<<<<
