SpectraSuite Data File
++++++++++++++++++++++++++++++++++++
Date: Fri Oct 18 13:55:13 GMT-05:00 2013
User: bianchi
Dark Spectrum Present: No
Reference Spectrum Present: No
Number of Sampled Component Spectra: 1
Spectrometers: USB2+H05261
Integration Time (usec): 100000 (USB2+H05261)
Spectra Averaged: 1 (USB2+H05261)
Boxcar Smoothing: 0 (USB2+H05261)
Correct for Electrical Dark: No (USB2+H05261)
Strobe/Lamp Enabled: No (USB2+H05261)
Correct for Detector Non-linearity: No (USB2+H05261)
Correct for Stray Light: No (USB2+H05261)
Number of Pixels in Processed Spectrum: 2048
>>>>>Begin Processed Spectral Data<<<<<
365.73	0.00
365.92	0.00
366.12	0.00
366.32	0.00
366.52	0.00
366.72	0.00
366.91	0.00
367.11	0.00
367.31	0.00
367.51	0.00
367.70	0.00
367.90	0.00
368.10	0.00
368.30	0.00
368.49	0.00
368.69	0.00
368.89	0.00
369.09	0.00
369.28	0.00
369.48	0.00
369.68	0.00
369.87	0.00
370.07	0.00
370.27	0.00
370.47	4.68
370.66	229.37
370.86	320.65
371.06	311.29
371.25	318.31
371.45	220.01
371.65	376.83
371.84	367.46
372.04	367.46
372.24	351.08
372.44	411.93
372.63	407.25
372.83	470.45
373.03	404.91
373.22	414.27
373.42	505.56
373.62	404.91
373.81	503.22
374.01	489.17
374.21	543.00
374.40	496.19
374.60	517.26
374.79	496.19
374.99	493.85
375.19	470.45
375.38	573.43
375.58	566.41
375.78	531.30
375.97	489.17
376.17	592.16
376.37	507.90
376.56	561.73
376.76	491.51
376.95	571.09
377.15	578.11
377.35	465.77
377.54	533.64
377.74	660.03
377.93	575.77
378.13	557.05
378.33	617.90
378.52	528.96
378.72	594.50
378.91	657.69
379.11	627.26
379.31	695.14
379.50	496.19
379.70	720.88
379.89	690.46
380.09	667.05
380.28	550.03
380.48	631.94
380.68	610.88
380.87	641.31
381.07	648.33
381.26	669.39
381.46	676.41
381.65	645.99
381.85	697.48
382.04	678.76
382.24	664.71
382.43	645.99
382.63	704.50
382.83	699.82
383.02	751.31
383.22	739.61
383.41	723.23
383.61	741.95
383.80	791.10
384.00	704.50
384.19	760.67
384.39	781.74
384.58	746.63
384.78	753.65
384.97	802.80
385.17	781.74
385.36	798.12
385.56	767.70
385.75	788.76
385.95	767.70
386.14	835.57
386.34	788.76
386.53	748.97
386.72	807.48
386.92	819.19
387.11	856.64
387.31	940.90
387.50	755.99
387.70	837.91
387.89	851.96
388.09	915.15
388.28	978.34
388.48	861.32
388.67	976.00
388.86	994.73
389.06	880.04
389.25	894.08
389.45	964.30
389.64	858.98
389.84	847.27
390.03	964.30
390.22	912.81
390.42	926.85
390.61	1015.79
390.81	1053.24
391.00	1022.81
391.19	1078.99
391.39	1093.03
391.58	1048.56
391.78	1015.79
391.97	1060.26
392.16	1146.86
392.36	1107.07
392.55	1132.82
392.75	1095.37
392.94	1090.69
393.13	1090.69
393.33	1088.35
393.52	1177.29
393.71	1123.46
393.91	1130.48
394.10	1170.27
394.29	1240.48
394.49	1177.29
394.68	1240.48
394.88	1207.72
395.07	1366.87
395.26	1226.44
395.46	1233.46
395.65	1203.04
395.84	1334.11
396.04	1345.81
396.23	1308.36
396.42	1306.02
396.62	1369.21
396.81	1306.02
397.00	1338.79
397.19	1275.59
397.39	1345.81
397.58	1418.36
397.77	1397.30
397.97	1444.11
398.16	1401.98
398.35	1462.83
398.55	1441.77
398.74	1547.09
398.93	1507.30
399.12	1409.00
399.32	1448.79
399.51	1416.02
399.70	1572.84
399.90	1537.73
400.09	1561.14
400.28	1624.33
400.47	1547.09
400.67	1600.93
400.86	1680.50
401.05	1535.39
401.24	1626.67
401.44	1596.25
401.63	1710.93
401.82	1699.23
402.01	1600.93
402.21	1755.40
402.40	1820.94
402.59	1741.36
402.78	1804.55
402.97	1748.38
403.17	1863.07
403.36	1813.92
403.55	1790.51
403.74	1867.75
403.93	1916.90
404.13	1881.79
404.32	1921.58
404.51	1998.82
404.70	1966.05
404.89	1928.60
405.09	2010.52
405.28	2052.65
405.47	1982.43
405.66	2031.58
405.85	1980.09
406.05	2193.08
406.24	2172.02
406.43	2052.65
406.62	2218.83
406.81	2125.21
407.00	2069.03
407.20	2167.34
407.39	2134.57
407.58	2232.87
407.77	2265.64
407.96	2340.54
408.15	2415.43
408.34	2300.75
408.54	2403.73
408.73	2340.54
408.92	2413.09
409.11	2417.77
409.30	2534.80
409.49	2422.45
409.68	2504.37
409.87	2445.86
410.07	2546.50
410.26	2541.82
410.45	2497.35
410.64	2523.10
410.83	2569.91
411.02	2581.61
411.21	2693.96
411.40	2576.93
411.59	2803.96
411.78	2698.64
411.98	2633.10
412.17	2778.22
412.36	2829.71
412.55	2820.35
412.74	2911.63
412.93	2876.52
413.12	2930.35
413.31	3068.44
413.50	3033.33
413.69	2902.26
413.88	3117.59
414.07	3183.13
414.26	3141.00
414.45	3206.53
414.64	3239.30
414.83	3368.03
415.02	3255.69
415.22	3421.86
415.41	3527.19
415.60	3431.23
415.79	3494.42
415.98	3536.55
416.17	3492.08
416.36	3421.86
416.55	3585.70
416.74	3599.74
416.93	3569.32
417.12	3653.58
417.31	3681.66
417.50	3742.52
417.69	3925.08
417.88	3754.22
418.07	3758.90
418.26	3812.73
418.45	3833.80
418.64	3831.46
418.83	3887.63
419.02	3988.27
419.21	4074.87
419.39	4039.76
419.58	3969.55
419.77	4011.68
419.96	4177.86
420.15	4189.56
420.34	4114.66
420.53	4227.01
420.72	4184.88
420.91	4205.94
421.10	4250.41
421.29	4315.95
421.48	4168.49
421.67	4269.14
421.86	4273.82
422.05	4355.74
422.24	4318.29
422.43	4332.33
422.61	4428.29
422.80	4622.56
422.99	4447.02
423.18	4475.10
423.37	4409.57
423.56	4514.89
423.75	4491.49
423.94	4447.02
424.13	4191.90
424.32	4187.22
424.50	4451.70
424.69	4643.62
424.88	4631.92
425.07	4437.66
425.26	4575.75
425.45	4561.70
425.64	4447.02
425.83	4402.55
426.01	4571.07
426.20	4531.28
426.39	4554.68
426.58	4634.26
426.77	4718.52
426.96	4585.11
427.15	4613.20
427.33	4713.84
427.52	4702.14
427.71	4807.46
427.90	4690.43
428.09	4753.63
428.28	4725.54
428.46	4882.36
428.65	4985.34
428.84	4971.30
429.03	4985.34
429.22	4784.06
429.40	4987.68
429.59	5001.72
429.78	4802.78
429.97	4695.11
430.16	4957.25
430.34	5144.50
430.53	5165.56
430.72	5160.88
430.91	4938.53
431.10	5111.73
431.28	5341.10
431.47	5224.08
431.66	5420.68
431.85	5174.92
432.03	5401.96
432.22	5542.39
432.41	5298.97
432.60	5408.98
432.79	5322.38
432.97	5575.16
433.16	5334.08
433.35	5205.35
433.54	5680.48
433.72	5448.77
433.91	5472.17
434.10	5469.83
434.28	5547.07
434.47	5713.25
434.66	5736.65
434.85	5654.73
435.03	5724.95
435.22	5687.50
435.41	6069.01
435.59	5717.93
435.78	5947.30
435.97	5900.49
436.16	6136.88
436.34	5966.03
436.53	5989.43
436.72	6122.84
436.90	5919.21
437.09	5956.66
437.28	5788.14
437.46	6052.63
437.65	6054.97
437.84	6005.81
438.02	6176.67
438.21	6085.39
438.40	6284.34
438.58	6511.37
438.77	6186.04
438.96	6368.60
439.14	6614.35
439.33	6729.04
439.52	6612.01
439.70	6731.38
439.89	6729.04
440.08	6796.92
440.26	6775.85
440.45	6794.58
440.63	7023.95
440.82	6970.12
441.01	6930.33
441.19	6946.71
441.38	7318.86
441.57	7059.06
441.75	7344.60
441.94	7243.96
442.12	7288.43
442.31	7398.43
442.50	7330.56
442.68	7377.37
442.87	7243.96
443.05	7501.42
443.24	7501.42
443.43	7449.93
443.61	7634.83
443.80	7672.28
443.98	7349.28
444.17	7239.28
444.35	7403.11
444.54	7660.57
444.73	7595.04
444.91	7822.07
445.10	7634.83
445.28	7566.95
445.47	7543.55
445.65	7573.97
445.84	7653.55
446.02	7791.64
446.21	7735.47
446.39	7714.41
446.58	7822.07
446.77	7817.39
446.95	7702.70
447.14	7576.31
447.32	7896.97
447.51	7700.36
447.69	7824.41
447.88	7700.36
448.06	7810.37
448.25	7843.14
448.43	7878.24
448.62	8006.97
448.80	7873.56
448.99	8093.57
449.17	7995.27
449.36	7822.07
449.54	8163.79
449.73	7915.69
449.91	8161.45
450.10	8257.41
450.28	8271.45
450.46	8175.49
450.65	8388.48
450.83	8290.18
451.02	8416.57
451.20	8500.83
451.39	8374.44
451.57	8369.76
451.76	8154.43
451.94	8374.44
452.13	8390.82
452.31	8627.21
452.49	8425.93
452.68	8439.97
452.86	8667.00
453.05	8758.28
453.23	8798.07
453.42	8751.26
453.60	8709.13
453.78	8786.37
453.97	8547.64
454.15	8833.18
454.34	8594.45
454.52	8865.95
454.70	8737.22
454.89	8887.01
455.07	8793.39
455.26	8910.42
455.44	9366.82
455.62	9160.86
455.81	9139.79
455.99	9205.33
456.17	9200.65
456.36	9163.20
456.54	9362.14
456.73	9444.06
456.91	9614.92
457.09	9521.30
457.28	9701.52
457.46	9282.56
457.64	9750.67
457.83	9769.40
458.01	9455.76
458.19	9664.07
458.38	9568.11
458.56	9792.80
458.74	9717.90
458.93	9834.93
459.11	9935.57
459.29	10038.56
459.48	9837.27
459.66	10073.67
459.84	10101.75
460.03	10221.12
460.21	9942.60
460.39	10097.07
460.57	10244.52
460.76	10085.37
460.94	10256.23
461.12	10167.29
461.31	10211.76
461.49	10310.06
461.67	9951.96
461.85	10333.47
462.04	10354.53
462.22	10469.22
462.40	10546.45
462.59	10480.92
462.77	10663.48
462.95	10602.63
463.13	10450.49
463.32	10586.24
463.50	10682.20
463.68	10729.02
463.86	10927.96
464.05	10640.08
464.23	10553.48
464.41	10864.77
464.59	10569.86
464.78	10984.13
464.96	10729.02
465.14	10827.32
465.32	10881.15
465.50	10953.71
465.69	11005.20
465.87	11145.63
466.05	10892.85
466.23	11014.56
466.41	10932.64
466.60	11290.74
466.78	11054.35
466.96	11225.21
467.14	11269.68
467.32	11171.38
467.51	11538.84
467.69	11040.31
467.87	11276.70
468.05	11428.84
468.23	11154.99
468.41	11349.26
468.60	11220.53
468.78	11595.01
468.96	11503.73
469.14	11815.02
469.32	11735.45
469.50	11693.32
469.69	11660.55
469.87	12002.27
470.05	11953.12
470.23	11950.78
470.41	12009.29
470.59	12126.32
470.77	12102.91
470.95	12255.04
471.14	12290.15
471.32	12035.03
471.50	12416.54
471.68	12306.54
471.86	12365.05
472.04	12250.36
472.22	12746.56
472.40	12568.68
472.58	12666.98
472.77	12840.18
472.95	12968.91
473.13	13277.86
473.31	12835.50
473.49	12950.18
473.67	13004.02
473.85	13067.21
474.03	13085.94
474.21	13123.38
474.39	13439.36
474.57	13483.83
474.75	13418.29
474.93	13774.05
475.12	13429.99
475.30	13710.86
475.48	13596.17
475.66	13809.16
475.84	13881.72
476.02	13855.97
476.20	14176.62
476.38	14305.35
476.56	14752.40
476.74	14597.92
476.92	14303.01
477.10	14511.32
477.28	15021.56
477.46	14593.24
477.64	14824.95
477.82	15372.64
478.00	15232.21
478.18	15382.00
478.36	15496.69
478.54	15552.86
478.72	15606.69
478.90	16023.31
479.08	15967.13
479.26	16114.59
479.44	16381.41
479.62	16318.22
479.80	16664.61
479.98	16688.02
480.16	16737.17
480.34	16566.31
480.52	16823.77
480.70	17053.14
480.88	16681.00
481.06	17121.02
481.24	17032.08
481.41	17406.56
481.59	17703.81
481.77	17909.78
481.95	17738.92
482.13	17930.84
482.31	17886.37
482.49	18288.95
482.67	18368.52
482.85	18640.03
483.03	18860.04
483.21	18979.40
483.39	19049.62
483.57	18937.27
483.74	19042.60
483.92	19445.17
484.10	19496.66
484.28	19768.16
484.46	20140.31
484.64	20374.36
484.82	19889.87
485.00	20215.21
485.18	20706.72
485.35	20938.43
485.53	20861.19
485.71	21151.42
485.89	21448.67
486.07	21312.92
486.25	21364.41
486.43	21694.43
486.61	21546.97
486.78	22036.14
486.96	22293.60
487.14	22235.09
487.32	22368.50
487.50	22616.60
487.68	22712.56
487.85	22904.48
488.03	23206.41
488.21	23300.03
488.39	23325.78
488.57	23943.68
488.75	23634.73
488.92	24229.23
489.10	24297.10
489.28	24486.68
489.46	24772.23
489.64	24538.18
489.81	25092.88
489.99	25090.54
490.17	25132.67
490.35	25631.21
490.53	26150.81
490.70	25717.81
490.88	25678.02
491.06	26249.11
491.24	26150.81
491.41	26553.38
491.59	26628.27
491.77	27154.90
491.95	26834.24
492.13	26972.33
492.30	27218.09
492.48	27412.35
492.66	27756.41
492.84	27590.24
493.01	27887.48
493.19	27864.08
493.37	28226.86
493.54	28233.88
493.72	28739.44
493.90	28451.55
494.08	28751.14
494.25	29050.73
494.43	28924.34
494.61	29951.84
494.79	29565.65
494.96	29762.25
495.14	29773.95
495.32	30162.48
495.49	30038.44
495.67	30249.08
495.85	30387.18
496.02	30834.22
496.20	31264.88
496.38	30916.14
496.55	30930.18
496.73	31260.20
496.91	31054.23
497.09	31386.58
497.26	31964.70
497.44	31716.60
497.62	32170.66
497.79	32409.40
497.97	32327.48
498.14	32776.86
498.32	32514.72
498.50	32800.27
498.67	32975.81
498.85	32856.44
499.03	33179.43
499.20	33387.74
499.38	33291.78
499.56	33766.91
499.73	33677.97
499.91	33956.49
500.08	34345.02
500.26	33619.46
500.44	34061.82
500.61	34073.52
500.79	34192.89
500.97	34646.95
501.14	34670.36
501.32	35180.59
501.49	34462.05
501.67	34658.65
501.84	34946.54
502.02	35309.32
502.20	35204.00
502.37	35658.06
502.55	35590.19
502.72	35791.47
502.90	35440.39
503.07	35901.48
503.25	36072.34
503.43	35669.76
503.60	36102.76
503.78	36587.25
503.95	36133.19
504.13	36362.56
504.30	36561.51
504.48	36652.79
504.65	36807.26
504.83	37043.66
505.01	37565.60
505.18	37160.69
505.36	38010.30
505.53	37757.52
505.71	37694.33
505.88	37696.67
506.06	37137.28
506.23	38164.78
506.41	37724.75
506.58	38316.91
506.76	38237.33
506.93	38274.78
507.11	38665.65
507.28	38522.88
507.46	38630.54
507.63	38815.44
507.81	38834.17
507.98	38848.21
508.16	39065.88
508.33	39473.13
508.50	39126.74
508.68	39344.41
508.85	39817.19
509.03	39892.09
509.20	40002.10
509.38	40112.10
509.55	40327.43
509.73	40161.25
509.90	40212.74
510.08	40634.04
510.25	40243.17
510.42	40474.88
510.60	40732.34
510.77	40952.35
510.95	41361.95
511.12	40655.11
511.30	41155.98
511.47	41331.52
511.64	41024.91
511.82	41631.11
511.99	41937.72
512.17	41668.56
512.34	41923.68
512.51	42033.68
512.69	42038.36
512.86	42183.48
513.04	42483.06
513.21	42370.72
513.38	42581.37
513.56	42562.64
513.73	42616.47
513.90	42351.99
514.08	42693.71
514.25	42703.07
514.43	43000.32
514.60	43150.12
514.77	43175.86
514.95	43262.46
515.12	43152.46
515.29	43002.66
515.47	43267.14
515.64	43721.21
515.81	43611.20
515.99	44006.75
516.16	44376.56
516.33	44488.90
516.51	44720.62
516.68	43948.24
516.85	43892.07
517.03	44367.20
517.20	44182.29
517.37	44322.72
517.54	44671.46
517.72	44725.30
517.89	44325.07
518.06	44437.41
518.24	44519.33
518.41	44580.18
518.58	44933.60
518.75	45034.25
518.93	44893.82
519.10	45338.52
519.27	45375.97
519.45	44966.37
519.62	45179.36
519.79	45469.59
519.96	45294.05
520.14	46014.93
520.31	45968.12
520.48	46078.13
520.65	46052.38
520.83	46316.86
521.00	46408.14
521.17	46127.28
521.34	46150.68
521.52	46351.97
521.69	47030.72
521.86	46583.68
522.03	46806.03
522.20	46546.23
522.38	47119.66
522.55	46897.31
522.72	46918.38
522.89	47178.18
523.07	47290.52
523.24	47173.50
523.41	47150.09
523.58	47150.09
523.75	47248.39
523.92	47342.02
524.10	47423.93
524.27	47683.73
524.44	47856.93
524.61	47945.87
524.78	48205.67
524.96	48311.00
525.13	47868.64
525.30	48105.03
525.47	48486.54
525.64	48418.66
525.81	48498.24
525.98	48680.80
526.16	48514.62
526.33	48484.20
526.50	49008.48
526.67	48507.60
526.84	48622.29
527.01	48818.89
527.18	49069.33
527.36	49193.38
527.53	49186.36
527.70	49474.24
527.87	49806.60
528.04	49551.48
528.21	49233.17
528.38	49389.98
528.55	49338.49
528.72	49279.98
528.89	49684.89
529.07	49158.27
529.24	49237.85
529.41	49570.21
529.58	49279.98
529.75	49612.34
529.92	49640.42
530.09	49738.72
530.26	50045.33
530.43	50110.87
530.60	49778.51
530.77	50064.06
530.94	50155.34
531.11	49797.24
531.28	50073.42
531.46	50010.23
531.63	50113.21
531.80	50515.78
531.97	50251.30
532.14	50817.71
532.31	50354.29
532.48	50578.98
532.65	50578.98
532.82	50302.79
532.99	50548.55
533.16	50272.37
533.33	50707.71
533.50	51236.67
533.67	50923.04
533.84	50700.68
534.01	50937.08
534.18	50859.84
534.35	51175.81
534.52	50511.10
534.69	51143.05
534.86	51227.31
535.03	51341.99
535.20	51051.76
535.37	51208.58
535.54	51461.36
535.71	51208.58
535.88	51318.59
536.05	51554.98
536.22	51751.59
536.38	51784.35
536.55	51840.53
536.72	51554.98
536.89	51580.73
537.06	51522.21
537.23	51772.65
537.40	51920.10
537.57	51723.50
537.74	51566.68
537.91	52236.08
538.08	51838.18
538.25	51887.34
538.42	51681.37
538.59	52058.20
538.75	51892.02
538.92	51924.78
539.09	52095.64
539.26	52219.69
539.43	52430.34
539.60	52285.23
539.77	52437.36
539.94	52467.79
540.11	52435.02
540.28	52444.38
540.44	52128.41
540.61	52353.10
540.78	52336.72
540.95	52685.46
541.12	52416.30
541.29	52877.38
541.46	52760.36
541.62	52559.07
541.79	52402.25
541.96	52481.83
542.13	52645.67
542.30	53052.92
542.47	53322.08
542.63	53071.65
542.80	53043.56
542.97	53542.10
543.14	53347.83
543.31	52762.70
543.48	53127.82
543.64	53455.50
543.81	53567.84
543.98	53457.84
544.15	53675.51
544.32	53698.91
544.48	53815.94
544.65	53345.49
544.82	53478.90
544.99	53207.40
545.16	53633.38
545.32	53514.01
545.49	54115.53
545.66	53902.54
545.83	53654.44
546.00	53900.20
546.16	54087.44
546.33	53771.47
546.50	53574.86
546.67	53640.40
546.83	53361.87
547.00	53869.77
547.17	53769.13
547.34	53911.90
547.50	54024.25
547.67	54190.42
547.84	53998.50
548.00	54183.40
548.17	54358.94
548.34	54213.83
548.51	54188.08
548.67	54347.24
548.84	54319.15
549.01	54138.93
549.18	54167.02
549.34	54333.20
549.51	54176.38
549.68	54555.55
549.84	54005.52
550.01	54492.35
550.18	54267.66
550.34	54248.94
550.51	54677.25
550.68	54742.79
550.84	54209.15
551.01	54614.06
551.18	54363.62
551.34	54408.09
551.51	54447.88
551.68	54707.68
551.84	54576.61
552.01	54621.08
552.18	54759.17
552.34	54817.69
552.51	54553.21
552.68	54443.20
552.84	54684.28
553.01	54796.62
553.18	54815.35
553.34	54726.41
553.51	55018.97
553.67	54925.35
553.84	55033.02
554.01	55049.40
554.17	55121.96
554.34	55028.34
554.51	54742.79
554.67	54836.41
554.84	55159.41
555.00	55093.87
555.17	55044.72
555.33	55075.15
555.50	55084.51
555.67	55248.35
555.83	55297.50
556.00	55243.66
556.16	55402.82
556.33	55009.61
556.50	55367.71
556.66	55384.10
556.83	55327.92
556.99	55552.62
557.16	55440.27
557.32	55374.73
557.49	55627.51
557.65	55199.19
557.82	55594.74
557.98	55468.36
558.15	55489.42
558.32	55690.71
558.48	55407.50
558.65	55468.36
558.81	55564.32
558.98	55938.80
559.14	55618.15
559.31	55468.36
559.47	55550.27
559.64	55744.54
559.80	55648.58
559.97	55742.20
560.13	55576.02
560.30	55599.43
560.46	55641.56
560.63	55360.69
560.79	55566.66
560.96	55671.98
561.12	55583.04
561.29	56114.34
561.45	55887.31
561.61	55767.94
561.78	55742.20
561.94	55774.97
562.11	55863.91
562.27	55824.12
562.44	55679.00
562.60	55791.35
562.77	55770.28
562.93	55718.79
563.10	56112.00
563.26	55683.69
563.42	56392.87
563.59	55964.55
563.75	56086.26
563.92	56055.83
564.08	55910.72
564.24	55915.40
564.41	55758.58
564.57	55920.08
564.74	55992.64
564.90	55760.92
565.07	55948.17
565.23	56186.90
565.39	56081.58
565.56	55903.70
565.72	55870.93
565.88	55987.95
566.05	55948.17
566.21	55870.93
566.38	56051.15
566.54	55950.51
566.70	56212.65
566.87	56158.81
567.03	55987.95
567.19	56062.85
567.36	56170.52
567.52	55817.10
567.68	56151.79
567.85	56156.47
568.01	56142.43
568.17	55978.59
568.34	56133.07
568.50	56243.07
568.66	56245.41
568.83	56250.09
568.99	56006.68
569.15	56371.80
569.32	55927.10
569.48	56069.87
569.64	55952.85
569.81	56135.41
569.97	56037.11
570.13	56488.83
570.30	56172.86
570.46	56320.31
570.62	56158.81
570.78	56151.79
570.95	56163.50
571.11	56172.86
571.27	56177.54
571.43	56006.68
571.60	56360.10
571.76	56322.65
571.92	56383.51
572.09	56306.27
572.25	56238.39
572.41	56170.52
572.57	56460.74
572.74	56603.52
572.90	56292.22
573.06	56430.32
573.22	56119.02
573.38	56435.00
573.55	56336.69
573.71	56636.28
573.87	56481.81
574.03	56456.06
574.20	56507.55
574.36	56154.13
574.52	56280.52
574.68	56135.41
574.84	56329.67
575.01	56357.76
575.17	56486.49
575.33	56420.95
575.49	56266.48
575.65	56622.24
575.82	56584.79
575.98	56378.82
576.14	56575.43
576.30	56451.38
576.46	56198.60
576.62	56317.97
576.79	56474.79
576.95	56446.70
577.11	56287.54
577.27	56458.40
577.43	56521.60
577.59	56458.40
577.75	56308.61
577.92	56275.84
578.08	56294.56
578.24	56186.90
578.40	56294.56
578.56	56367.12
578.72	56458.40
578.88	56636.28
579.04	56755.65
579.21	56797.78
579.37	56418.61
579.53	56514.58
579.69	56285.20
579.85	56341.38
580.01	56383.51
580.17	56254.78
580.33	56552.02
580.49	56694.80
580.65	56339.04
580.82	56875.02
580.98	56521.60
581.14	56584.79
581.30	56601.18
581.46	56474.79
581.62	56186.90
581.78	56456.06
581.94	56526.28
582.10	56233.71
582.26	56420.95
582.42	56580.11
582.58	56568.41
582.74	56647.99
582.90	56678.41
583.06	56835.23
583.22	56643.30
583.38	56514.58
583.54	56416.27
583.70	56481.81
583.86	56481.81
584.02	56385.85
584.18	56418.61
584.34	56561.39
584.50	56739.27
584.66	56512.23
584.82	56521.60
584.98	56460.74
585.14	56374.14
585.30	56334.35
585.46	56512.23
585.62	56430.32
585.78	56430.32
585.94	56287.54
586.10	56526.28
586.26	56526.28
586.42	56516.92
586.58	56484.15
586.74	56486.49
586.90	56339.04
587.06	56259.46
587.22	56622.24
587.38	56364.78
587.54	56505.21
587.70	56643.30
587.86	56718.20
588.02	56786.08
588.18	56818.84
588.34	56350.74
588.49	56554.36
588.65	56444.36
588.81	56521.60
588.97	56687.78
589.13	56535.64
589.29	56535.64
589.45	56783.74
589.61	56753.31
589.77	56940.55
589.93	56973.32
590.08	56865.66
590.24	56746.29
590.40	56701.82
590.56	56942.89
590.72	56736.93
590.88	56692.46
591.04	56727.56
591.20	56676.07
591.35	56811.82
591.51	56996.73
591.67	56882.04
591.83	56982.68
591.99	56917.15
592.15	56601.18
592.31	56952.26
592.46	56795.44
592.62	56662.03
592.78	56924.17
592.94	56889.06
593.10	56633.94
593.26	57024.81
593.41	56875.02
593.57	56793.10
593.73	56685.43
593.89	56853.95
594.05	56830.55
594.20	56552.02
594.36	56856.29
594.52	56502.87
594.68	56617.56
594.84	56549.68
594.99	56954.60
595.15	56835.23
595.31	56863.32
595.47	56898.42
595.62	56772.03
595.78	57022.47
595.94	56910.13
596.10	56537.98
596.25	56666.71
596.41	56697.14
596.57	56594.15
596.73	56846.93
596.88	56666.71
597.04	56982.68
597.20	56809.48
597.36	56912.47
597.51	57141.84
597.67	56783.74
597.83	56797.78
597.99	56947.57
598.14	56736.93
598.30	56935.87
598.46	56790.76
598.61	56638.62
598.77	56694.80
598.93	56900.76
599.09	57088.01
599.24	57219.08
599.40	56973.32
599.56	56720.54
599.71	56882.04
599.87	57076.30
600.03	56839.91
600.18	56666.71
600.34	56643.30
600.50	56619.90
600.65	56795.44
600.81	57212.06
600.97	56832.89
601.12	57059.92
601.28	57291.63
601.44	57076.30
601.59	56903.10
601.75	56863.32
601.91	56980.34
602.06	56821.19
602.22	56870.34
602.37	56577.77
602.53	56573.09
602.69	56865.66
602.84	56718.20
603.00	56956.94
603.16	56921.83
603.31	57219.08
603.47	56961.62
603.62	56526.28
603.78	56800.12
603.94	56547.34
604.09	57027.15
604.25	56898.42
604.40	56882.04
604.56	56860.97
604.71	57076.30
604.87	56928.85
605.03	56800.12
605.18	56914.81
605.34	56821.19
605.49	56463.08
605.65	56772.03
605.80	56596.49
605.96	56802.46
606.12	56488.83
606.27	56919.49
606.43	56811.82
606.58	56828.21
606.74	56690.12
606.89	56753.31
607.05	56816.50
607.20	56596.49
607.36	56575.43
607.51	56987.36
607.67	56610.54
607.82	56566.07
607.98	56673.73
608.13	56336.69
608.29	56523.94
608.44	56671.39
608.60	56498.19
608.75	56692.46
608.91	56636.28
609.06	56615.22
609.22	56652.67
609.37	56226.69
609.53	56512.23
609.68	56465.42
609.84	56491.17
609.99	56339.04
610.15	56392.87
610.30	56584.79
610.46	56655.01
610.61	56341.38
610.76	56310.95
610.92	56369.46
611.07	56222.01
611.23	56308.61
611.38	56308.61
611.54	56479.47
611.69	56444.36
611.84	56076.90
612.00	56137.75
612.15	56009.02
612.31	56327.33
612.46	56442.02
612.62	56470.11
612.77	56306.27
612.92	56610.54
613.08	56484.15
613.23	56390.53
613.39	56315.63
613.54	56044.13
613.69	56086.26
613.85	56109.66
614.00	56317.97
614.15	56053.49
614.31	56041.79
614.46	56168.18
614.62	56247.75
614.77	56207.97
614.92	56151.79
615.08	56027.74
615.23	56362.44
615.38	56060.51
615.54	56224.35
615.69	55863.91
615.84	55868.59
616.00	56002.00
616.15	55915.40
616.30	56037.11
616.46	55758.58
616.61	55737.52
616.76	55945.83
616.92	55868.59
617.07	56041.79
617.22	55873.27
617.37	55674.32
617.53	55758.58
617.68	55683.69
617.83	55774.97
617.99	55803.05
618.14	55702.41
618.29	55882.63
618.45	55704.75
618.60	55826.46
618.75	56006.68
618.90	55849.86
619.06	55934.12
619.21	55629.85
619.36	55664.96
619.51	55648.58
619.67	55639.22
619.82	55374.73
619.97	55814.76
620.12	55351.33
620.28	55295.16
620.43	55545.59
620.58	55704.75
620.73	55608.79
620.89	55679.00
621.04	55681.34
621.19	55632.19
621.34	55592.40
621.49	55138.34
621.65	55444.95
621.80	55531.55
621.95	55320.90
622.10	55505.80
622.25	55416.86
622.41	55246.00
622.56	55393.46
622.71	55451.97
622.86	55327.92
623.01	55412.18
623.16	55407.50
623.32	55192.17
623.47	55337.29
623.62	55185.15
623.77	55210.90
623.92	55091.53
624.07	55023.65
624.23	55054.08
624.38	55412.18
624.53	55018.97
624.68	54967.48
624.83	55309.20
624.98	55386.44
625.13	55016.63
625.29	55002.59
625.44	54908.97
625.59	54710.02
625.74	54901.95
625.89	54791.94
626.04	54775.56
626.19	54628.10
626.34	54726.41
626.49	54670.23
626.65	54478.31
626.80	54836.41
626.95	54508.74
627.10	54941.74
627.25	54805.98
627.40	54768.54
627.55	54698.32
627.70	54466.61
627.85	54539.16
628.00	54274.68
628.15	54302.77
628.30	54375.33
628.45	54485.33
628.60	54227.87
628.76	54866.84
628.91	54656.19
629.06	54380.01
629.21	54447.88
629.36	54564.91
629.51	54323.83
629.66	54482.99
629.81	54178.72
629.96	54162.34
630.11	54251.28
630.26	54188.08
630.41	54012.54
630.56	54127.23
630.71	54099.14
630.86	54031.27
631.01	54047.65
631.16	54181.06
631.31	54174.04
631.46	54246.60
631.61	54267.66
631.76	54103.82
631.91	53925.94
632.06	53764.45
632.21	53986.80
632.36	54099.14
632.51	53684.87
632.66	53879.13
632.81	53914.24
632.96	53982.12
633.10	53624.01
633.25	54019.56
633.40	53839.34
633.55	53757.42
633.70	53628.69
633.85	53827.64
634.00	53652.10
634.15	53783.17
634.30	53635.72
634.45	53600.61
634.60	53572.52
634.75	53698.91
634.90	53675.51
635.05	53925.94
635.19	53408.68
635.34	53925.94
635.49	53893.18
635.64	53595.93
635.79	53331.45
635.94	53385.28
636.09	53616.99
636.24	53343.15
636.39	53389.96
636.53	53673.16
636.68	53521.03
636.83	53254.21
636.98	53528.05
637.13	53247.19
637.28	53422.73
637.43	53602.95
637.57	53628.69
637.72	52940.58
637.87	53289.32
638.02	53457.84
638.17	53137.18
638.32	52945.26
638.46	53034.20
638.61	52872.70
638.76	52760.36
638.91	52629.29
639.06	53106.76
639.20	52868.02
639.35	53191.01
639.50	52842.27
639.65	53132.50
639.80	52896.11
639.94	53020.16
640.09	52662.05
640.24	53013.13
640.39	52978.03
640.54	52411.62
640.68	52535.66
640.83	52666.73
640.98	52411.62
641.13	52493.54
641.27	52842.27
641.42	52542.69
641.57	52563.75
641.72	52900.79
641.86	52453.75
642.01	52135.43
642.16	52669.08
642.31	52409.28
642.45	52589.50
642.60	52367.15
642.75	52189.27
642.90	52350.76
643.04	52219.69
643.19	52205.65
643.34	52317.99
643.48	52488.85
643.63	52617.58
643.78	52156.50
643.93	52500.56
644.07	52428.00
644.22	52587.16
644.37	52254.80
644.51	52275.87
644.66	52275.87
644.81	51999.68
644.95	52020.75
645.10	52142.45
645.25	52102.67
645.39	51866.27
645.54	51702.43
645.69	52411.62
645.83	52137.77
645.98	52083.94
646.13	52296.93
646.27	52175.22
646.42	51915.42
646.57	51592.43
646.71	52175.22
646.86	51962.23
647.00	51608.81
647.15	51519.87
647.30	51662.64
647.44	51571.36
647.59	51999.68
647.74	51597.11
647.88	51732.86
648.03	51657.96
648.17	51969.26
648.32	51798.40
648.47	52039.47
648.61	51627.54
648.76	51791.37
648.90	51381.78
649.05	51669.67
649.20	51339.65
649.34	51597.11
649.49	50997.93
649.63	51372.42
649.78	51664.99
649.92	51250.71
650.07	51672.01
650.21	51262.41
650.36	51466.04
650.51	51035.38
650.65	51777.33
650.80	51281.14
650.94	51028.36
651.09	51178.15
651.23	51323.27
651.38	51409.87
651.52	50768.56
651.67	50974.53
651.81	50941.76
651.96	50930.06
652.10	50628.13
652.25	50911.33
652.39	50714.73
652.54	51136.02
652.68	51248.37
652.83	50759.20
652.97	51140.71
653.12	51157.09
653.26	50684.30
653.41	50869.20
653.55	50925.38
653.70	50625.79
653.84	50578.98
653.99	50660.90
654.13	50939.42
654.27	50506.42
654.42	50550.89
654.56	50749.84
654.71	50679.62
654.85	50728.77
655.00	50770.90
655.14	50873.88
655.29	50637.49
655.43	50431.52
655.57	50445.57
655.72	50227.90
655.86	50373.01
656.01	50169.38
656.15	50080.44
656.30	50263.00
656.44	50080.44
656.58	50164.70
656.73	50162.36
656.87	50288.75
657.01	50295.77
657.16	50529.83
657.30	50251.30
657.45	50246.62
657.59	50279.39
657.73	50117.89
657.88	49930.65
658.02	49874.48
658.16	49963.42
658.31	49741.06
658.45	49783.19
658.60	49530.42
658.74	49539.78
658.88	49567.87
659.03	49488.29
659.17	49558.50
659.31	49490.63
659.46	49504.67
659.60	49532.76
659.74	49605.31
659.89	49504.67
660.03	49514.03
660.17	49460.20
660.32	49329.13
660.46	49270.62
660.60	49127.84
660.74	49291.68
660.89	49345.51
661.03	48933.58
661.17	48725.27
661.32	48753.36
661.46	48795.49
661.60	48814.21
661.74	48924.22
661.89	48879.75
662.03	48912.52
662.17	48559.09
662.31	48261.85
662.46	48788.47
662.60	48444.41
662.74	48381.21
662.88	47870.98
663.03	48058.22
663.17	48296.95
663.31	47952.90
663.45	48074.60
663.60	48149.50
663.74	47990.34
663.88	48060.56
664.02	48182.27
664.17	48222.06
664.31	47796.08
664.45	48210.35
664.59	48069.92
664.73	47831.19
664.88	47409.89
665.02	47215.63
665.16	47487.13
665.30	47346.70
665.44	47288.18
665.59	46965.19
665.73	47232.01
665.87	47271.80
666.01	47262.44
666.15	47063.49
666.29	46969.87
666.44	47477.77
666.58	47246.05
666.72	46630.49
666.86	47133.71
667.00	47477.77
667.14	46602.41
667.28	47166.48
667.43	46838.80
667.57	47054.13
667.71	46511.13
667.85	46487.72
667.99	46082.81
668.13	46490.06
668.27	46223.24
668.41	46412.82
668.56	46103.87
668.70	46234.94
668.84	46047.70
668.98	46099.19
669.12	45745.77
669.26	46012.59
669.40	45626.40
669.54	45514.06
669.68	45375.97
669.82	45715.34
669.96	45708.32
670.10	44928.92
670.25	45308.09
670.39	45315.11
670.53	45038.93
670.67	45043.61
670.81	45794.92
670.95	45577.25
671.09	45254.26
671.23	45476.61
671.37	45193.40
671.51	45027.23
671.65	45340.86
671.79	44753.38
671.93	45013.18
672.07	44215.06
672.21	45041.27
672.35	44165.91
672.49	44378.90
672.63	44163.57
672.77	44168.25
672.91	44191.65
673.05	44086.33
673.19	44271.23
673.33	44158.89
673.47	43681.42
673.61	43995.05
673.75	43831.21
673.89	43803.13
674.03	44006.75
674.17	43658.01
674.31	43091.60
674.45	43328.00
674.59	43110.33
674.73	43082.24
674.87	42831.80
675.01	42574.34
675.15	42710.10
675.29	42408.17
675.43	42944.15
675.56	42298.16
675.70	42567.32
675.84	42890.32
675.98	41579.62
676.12	42618.81
676.26	42595.41
676.40	42401.14
676.54	42213.90
676.68	42036.02
676.82	40950.01
676.96	41406.42
677.10	41488.34
677.23	41151.30
677.37	40933.63
677.51	40659.79
677.65	41036.61
677.79	39988.05
677.93	40964.06
678.07	40737.02
678.21	40362.54
678.34	40320.41
678.48	40460.84
678.62	40198.70
678.76	40465.52
678.90	40327.43
679.04	39686.12
679.18	40020.82
679.31	39480.16
679.45	39599.52
679.59	39028.43
679.73	38934.81
679.87	38890.34
680.00	38883.32
680.14	38789.70
680.28	38710.12
680.42	38719.48
680.56	38909.07
680.70	38508.83
680.83	38822.47
680.97	38639.90
681.11	38415.21
681.25	38567.35
681.39	38478.41
681.52	38197.54
681.66	37933.06
681.80	37860.51
681.94	37420.48
682.07	37563.26
682.21	36950.04
682.35	37202.82
682.49	36928.97
682.62	36959.40
682.76	36325.11
682.90	36690.24
683.04	36409.37
683.17	36542.78
683.31	36528.74
683.45	36378.95
683.59	36297.03
683.72	36294.69
683.86	36149.57
684.00	35634.66
684.13	35892.12
684.27	35728.28
684.41	35339.75
684.55	35337.41
684.68	35171.23
684.82	35164.21
684.96	35480.18
685.09	34579.07
685.23	34242.04
685.37	34721.85
685.50	34651.63
685.64	34628.23
685.78	34253.74
685.91	34656.31
686.05	34368.43
686.19	34026.71
686.32	34291.19
686.46	34237.36
686.60	33336.25
686.73	33837.12
686.87	33574.98
687.01	33097.52
687.14	33235.61
687.28	32882.19
687.42	33134.96
687.55	32610.68
687.69	32545.15
687.82	32877.51
687.96	32809.63
688.10	32474.93
688.23	32601.32
688.37	32931.34
688.50	32290.03
688.64	32547.49
688.78	32074.70
688.91	31517.65
689.05	31810.22
689.18	31597.23
689.32	30778.04
689.46	31393.61
689.59	31325.73
689.73	31349.14
689.86	30988.69
690.00	31068.27
690.13	30998.06
690.27	30794.43
690.41	30593.14
690.54	30417.60
690.68	30721.87
690.81	30562.72
690.95	30532.29
691.08	30281.85
691.22	30153.12
691.35	29876.94
691.49	30057.16
691.62	29736.51
691.76	29455.64
691.89	29481.39
692.03	29518.84
692.16	29153.71
692.30	29132.65
692.43	28938.38
692.57	28872.85
692.70	28882.21
692.84	29186.48
692.97	28966.47
693.11	28348.57
693.24	28641.14
693.38	28596.67
693.51	28423.47
693.65	28804.97
693.78	28437.51
693.92	28350.91
694.05	28208.14
694.19	27861.74
694.32	27459.16
694.45	27419.38
694.59	27225.11
694.72	26962.97
694.86	27058.93
694.99	26787.43
695.13	27269.58
695.26	26686.79
695.39	26644.66
695.53	27225.11
695.66	27061.27
695.80	26586.15
695.93	26593.17
696.07	26396.56
696.20	26501.89
696.33	26307.62
696.47	25886.32
696.60	25909.73
696.73	25743.55
696.87	25228.63
697.00	25521.20
697.14	25394.81
697.27	25132.67
697.40	24896.28
697.54	24500.73
697.67	24849.47
697.80	24638.82
697.94	24425.83
698.07	24540.52
698.21	24533.50
698.34	24240.93
698.47	24556.90
698.61	24135.60
698.74	24423.49
698.87	24718.40
699.01	23800.91
699.14	24095.82
699.27	23742.39
699.40	23793.89
699.54	23314.08
699.67	23168.96
699.80	23042.57
699.94	23117.47
700.07	23122.15
700.20	22614.26
700.34	22569.79
700.47	22714.90
700.60	22745.33
700.73	22705.54
700.87	22366.16
701.00	22515.95
701.13	22452.76
701.26	22328.71
701.40	22265.52
701.53	22214.02
701.66	22188.28
701.79	21970.61
701.93	21628.89
702.06	21415.90
702.19	21582.08
702.32	21266.11
702.46	21422.92
702.59	21104.61
702.72	21135.04
702.85	20889.28
702.99	20863.54
703.12	21018.01
703.25	20442.24
703.38	20744.17
703.51	20695.02
703.65	20758.21
703.78	20561.61
703.91	20458.62
704.04	20388.41
704.17	20411.81
704.31	20020.94
704.44	19793.91
704.57	19978.81
704.70	19836.04
704.83	19569.22
704.96	19716.67
705.10	19403.04
705.23	19403.04
>>>>>End Processed Spectral Data<<<<<
