SpectraSuite Data File
++++++++++++++++++++++++++++++++++++
Date: Fri Oct 18 13:54:50 GMT-05:00 2013
User: bianchi
Dark Spectrum Present: No
Reference Spectrum Present: No
Number of Sampled Component Spectra: 1
Spectrometers: USB2+H05261
Integration Time (usec): 100000 (USB2+H05261)
Spectra Averaged: 1 (USB2+H05261)
Boxcar Smoothing: 0 (USB2+H05261)
Correct for Electrical Dark: No (USB2+H05261)
Strobe/Lamp Enabled: No (USB2+H05261)
Correct for Detector Non-linearity: No (USB2+H05261)
Correct for Stray Light: No (USB2+H05261)
Number of Pixels in Processed Spectrum: 2048
>>>>>Begin Processed Spectral Data<<<<<
365.73	0.00
365.92	0.00
366.12	0.00
366.32	0.00
366.52	0.00
366.72	0.00
366.91	0.00
367.11	0.00
367.31	0.00
367.51	0.00
367.70	0.00
367.90	0.00
368.10	0.00
368.30	0.00
368.49	0.00
368.69	0.00
368.89	0.00
369.09	0.00
369.28	0.00
369.48	0.00
369.68	0.00
369.87	0.00
370.07	0.00
370.27	0.00
370.47	21.06
370.66	290.23
370.86	301.93
371.06	280.86
371.25	334.70
371.45	376.83
371.65	418.96
371.84	353.42
372.04	421.30
372.24	358.10
372.44	311.29
372.63	367.46
372.83	463.43
373.03	442.36
373.22	418.96
373.42	456.40
373.62	388.53
373.81	379.17
374.01	559.39
374.21	486.83
374.40	507.90
374.60	517.26
374.79	517.26
374.99	531.30
375.19	526.62
375.38	533.64
375.58	496.19
375.78	557.05
375.97	592.16
376.17	580.45
376.37	594.50
376.56	514.92
376.76	533.64
376.95	566.41
377.15	589.82
377.35	559.39
377.54	550.03
377.74	603.86
377.93	589.82
378.13	582.79
378.33	592.16
378.52	573.43
378.72	582.79
378.91	667.05
379.11	550.03
379.31	631.94
379.50	589.82
379.70	716.20
379.89	655.35
380.09	655.35
380.28	641.31
380.48	723.23
380.68	650.67
380.87	636.63
381.07	685.78
381.26	737.27
381.46	692.80
381.65	709.18
381.85	788.76
382.04	786.42
382.24	758.33
382.43	643.65
382.63	732.59
382.83	732.59
383.02	753.65
383.22	777.06
383.41	727.91
383.61	681.10
383.80	755.99
384.00	662.37
384.19	720.88
384.39	786.42
384.58	828.55
384.78	770.04
384.97	877.70
385.17	830.89
385.36	795.78
385.56	837.91
385.75	755.99
385.95	805.14
386.14	868.34
386.34	877.70
386.53	802.80
386.72	976.00
386.92	947.92
387.11	922.17
387.31	901.11
387.50	912.81
387.70	833.23
387.89	821.53
388.09	861.32
388.28	915.15
388.48	950.26
388.67	1015.79
388.86	905.79
389.06	905.79
389.25	1015.79
389.45	987.71
389.64	1041.54
389.84	1067.28
390.03	1011.11
390.22	1029.84
390.42	1013.45
390.61	1036.86
390.81	1050.90
391.00	1008.77
391.19	1121.12
391.39	1100.05
391.58	1132.82
391.78	1095.37
391.97	1107.07
392.16	1027.50
392.36	1172.61
392.55	1146.86
392.75	1242.82
392.94	1200.69
393.13	1226.44
393.33	1167.93
393.52	1074.31
393.71	1240.48
393.91	1296.66
394.10	1259.21
394.29	1200.69
394.49	1146.86
394.68	1306.02
394.88	1219.42
395.07	1261.55
395.26	1308.36
395.46	1252.19
395.65	1322.40
395.84	1280.27
396.04	1451.13
396.23	1299.00
396.42	1336.45
396.62	1411.34
396.81	1411.34
397.00	1315.38
397.19	1385.60
397.39	1336.45
397.58	1434.75
397.77	1474.54
397.97	1493.26
398.16	1469.86
398.35	1446.45
398.55	1458.15
398.74	1500.28
398.93	1710.93
399.12	1502.62
399.32	1460.49
399.51	1549.43
399.70	1692.21
399.90	1577.52
400.09	1617.31
400.28	1678.16
400.47	1593.90
400.67	1720.29
400.86	1715.61
401.05	1762.42
401.24	1699.23
401.44	1753.06
401.63	1699.23
401.82	1696.89
402.01	1673.48
402.21	1804.55
402.40	1837.32
402.59	1713.27
402.78	1849.02
402.97	1832.64
403.17	1825.62
403.36	1837.32
403.55	1853.70
403.74	2003.50
403.93	1944.99
404.13	1954.35
404.32	1900.52
404.51	1909.88
404.70	2066.69
404.89	1935.62
405.09	2080.74
405.28	2094.78
405.47	2040.95
405.66	2223.51
405.85	2059.67
406.05	2122.87
406.24	2066.69
406.43	2134.57
406.62	2193.08
406.81	2225.85
407.00	2249.25
407.20	2218.83
407.39	2230.53
407.58	2289.04
407.77	2291.38
407.96	2424.80
408.15	2424.80
408.34	2363.94
408.54	2541.82
408.73	2434.16
408.92	2331.17
409.11	2370.96
409.30	2431.82
409.49	2480.97
409.68	2427.14
409.87	2459.90
410.07	2607.36
410.26	2682.25
410.45	2581.61
410.64	2682.25
410.83	2588.63
411.02	2686.94
411.21	2717.36
411.40	2708.00
411.59	2799.28
411.78	2885.88
411.98	2810.98
412.17	2906.95
412.36	2794.60
412.55	2951.42
412.74	2932.69
412.93	3045.04
413.12	2993.55
413.31	3239.30
413.50	3077.80
413.69	3096.53
413.88	3052.06
414.07	3136.32
414.26	3276.75
414.45	3218.24
414.64	3356.33
414.83	3391.44
415.02	3405.48
415.22	3442.93
415.41	3351.65
415.60	3515.48
415.79	3620.81
415.98	3534.21
416.17	3674.64
416.36	3653.58
416.55	3632.51
416.74	3705.07
416.93	3693.37
417.12	3639.53
417.31	3918.06
417.50	3929.76
417.69	3878.27
417.88	3868.91
418.07	3927.42
418.26	3915.72
418.45	3983.59
418.64	4086.58
418.83	4065.51
419.02	3971.89
419.21	4266.80
419.39	4227.01
419.58	3974.23
419.77	3939.12
419.96	4194.24
420.15	4245.73
420.34	4280.84
420.53	4241.05
420.72	4217.65
420.91	4252.75
421.10	4395.53
421.29	4486.81
421.48	4227.01
421.67	4444.68
421.86	4468.08
422.05	4498.51
422.24	4498.51
422.43	4379.14
422.61	4498.51
422.80	4578.09
422.99	4615.54
423.18	4596.81
423.37	4589.79
423.56	4575.75
423.75	4582.77
423.94	4507.87
424.13	4358.08
424.32	4325.31
424.50	4622.56
424.69	4697.46
424.88	4688.09
425.07	4564.04
425.26	4550.00
425.45	4709.16
425.64	4741.93
425.83	4657.67
426.01	4702.14
426.20	4582.77
426.39	4678.73
426.58	4667.03
426.77	4615.54
426.96	4601.49
427.15	4690.43
427.33	4753.63
427.52	4760.65
427.71	4751.29
427.90	4870.65
428.09	4975.98
428.28	4950.23
428.46	5046.20
428.65	5006.41
428.84	5165.56
429.03	5287.27
429.22	4826.18
429.40	5078.96
429.59	5245.14
429.78	4877.68
429.97	4858.95
430.16	5093.01
430.34	5282.59
430.53	5298.97
430.72	5317.70
430.91	5263.86
431.10	5172.58
431.28	5294.29
431.47	5320.04
431.66	5359.83
431.85	5380.89
432.03	5383.23
432.22	5668.78
432.41	5647.71
432.60	5621.97
432.79	5661.76
432.97	5706.23
433.16	5631.33
433.35	5446.43
433.54	5621.97
433.72	5778.78
433.91	5771.76
434.10	5837.30
434.28	5837.30
434.47	5755.38
434.66	5841.98
434.85	5846.66
435.03	5949.64
435.22	5888.79
435.41	6101.78
435.59	5949.64
435.78	5792.83
435.97	6169.65
436.16	6064.33
436.34	5921.56
436.53	6073.69
436.72	6216.46
436.90	5956.66
437.09	6108.80
437.28	6061.99
437.46	6129.86
437.65	6047.94
437.84	6326.47
438.02	6253.91
438.21	6434.13
438.40	6380.30
438.58	6494.99
438.77	6527.75
438.96	6525.41
439.14	6656.48
439.33	6696.27
439.52	6747.76
439.70	6719.68
439.89	6794.58
440.08	6853.09
440.26	6899.90
440.45	6925.65
440.63	7052.03
440.82	7077.78
441.01	7091.82
441.19	7091.82
441.38	7108.21
441.57	7194.81
441.75	7459.29
441.94	7344.60
442.12	7272.04
442.31	7588.02
442.50	7590.36
442.68	7478.01
442.87	7522.48
443.05	7768.24
443.24	7793.98
443.43	7805.69
443.61	7676.96
443.80	8093.57
443.98	7756.54
444.17	7447.58
444.35	7812.71
444.54	7857.18
444.73	7971.86
444.91	7939.10
445.10	7840.79
445.28	7822.07
445.47	7737.81
445.65	7889.95
445.84	8138.04
446.02	8023.36
446.21	7709.72
446.39	7892.29
446.58	7943.78
446.77	8039.74
446.95	7772.92
447.14	7805.69
447.32	7906.33
447.51	7964.84
447.69	8004.63
447.88	7868.88
448.06	7880.58
448.25	7974.21
448.43	7885.26
448.62	7943.78
448.80	8060.80
448.99	8009.31
449.17	8243.37
449.36	8107.62
449.54	8407.20
449.73	8409.54
449.91	8430.61
450.10	8264.43
450.28	8545.30
450.46	8369.76
450.65	8554.66
450.83	8573.38
451.02	8365.07
451.20	8641.26
451.39	8622.53
451.57	8617.85
451.76	8659.98
451.94	8617.85
452.13	8929.14
452.31	8791.05
452.49	8833.18
452.68	8702.11
452.86	8945.53
453.05	8915.10
453.23	8758.28
453.42	8802.75
453.60	8940.85
453.78	8891.70
453.97	8973.61
454.15	8741.90
454.34	8985.32
454.52	9303.63
454.70	9006.38
454.89	9195.96
455.07	9184.26
455.26	9355.12
455.44	9408.95
455.62	9348.10
455.81	9352.78
455.99	9277.88
456.17	9376.19
456.36	9556.41
456.54	9802.16
456.73	9493.21
456.91	9905.15
457.09	9619.60
457.28	9767.06
457.46	9748.33
457.64	9797.48
457.83	9958.98
458.01	9633.64
458.19	9923.87
458.38	9790.46
458.56	9891.10
458.74	10200.05
458.93	9912.17
459.11	10073.67
459.29	10078.35
459.48	10104.09
459.66	10291.34
459.84	10134.52
460.03	10345.17
460.21	10335.81
460.39	10118.14
460.57	10235.16
460.76	10333.47
460.94	10544.11
461.12	10373.25
461.31	10679.86
461.49	10256.23
461.67	10532.41
461.85	10560.50
462.04	10628.37
462.22	11267.34
462.40	10656.46
462.59	10703.27
462.77	10813.28
462.95	10864.77
463.13	10972.43
463.32	10920.94
463.50	10869.45
463.68	10871.79
463.86	10937.32
464.05	11044.99
464.23	10939.66
464.41	11147.97
464.59	10981.79
464.78	11239.25
464.96	11052.01
465.14	10988.82
465.32	11255.64
465.50	11576.29
465.69	11501.39
465.87	11356.28
466.05	11616.08
466.23	11204.14
466.41	11513.10
466.60	11751.83
466.78	11529.48
466.96	11506.07
467.14	11243.93
467.32	11705.02
467.51	11836.09
467.69	11431.18
467.87	11845.45
468.05	12023.33
468.23	11578.63
468.41	11548.20
468.60	11899.28
468.78	12044.40
468.96	11627.78
469.14	12070.14
469.32	12191.85
469.50	11646.51
469.69	12145.04
469.87	12123.98
470.05	12453.99
470.23	12313.56
470.41	12308.88
470.59	12285.47
470.77	12191.85
470.95	12458.67
471.14	12760.60
471.32	12514.84
471.50	12760.60
471.68	12774.64
471.86	12741.88
472.04	12739.54
472.22	12842.52
472.40	12854.22
472.58	13085.94
472.77	13247.43
472.95	13322.33
473.13	13710.86
473.31	13156.15
473.49	13167.85
473.67	13458.08
473.85	13488.51
474.03	13577.45
474.21	13537.66
474.39	13647.66
474.57	13783.41
474.75	13975.34
474.93	14136.84
475.12	13980.02
475.30	14026.83
475.48	14061.94
475.66	14242.16
475.84	14178.97
476.02	14452.81
476.20	14260.88
476.38	14618.99
476.56	14698.56
476.74	14700.90
476.92	14642.39
477.10	14728.99
477.28	15140.93
477.46	14850.70
477.64	15049.64
477.82	15082.41
478.00	15878.19
478.18	15737.76
478.36	16259.70
478.54	16180.12
478.72	15859.47
478.90	16257.36
479.08	16187.14
479.26	16503.12
479.44	16475.03
479.62	16769.94
479.80	16678.66
479.98	17041.44
480.16	17006.33
480.34	17142.08
480.52	17514.23
480.70	17439.33
480.88	17266.13
481.06	17422.95
481.24	17479.12
481.41	17783.39
481.59	18305.33
481.77	18141.49
481.95	18249.16
482.13	18487.89
482.31	18239.79
482.49	18698.54
482.67	18932.59
482.85	19262.61
483.03	19204.10
483.21	19281.33
483.39	19690.93
483.57	19599.65
483.74	19749.44
483.92	19976.47
484.10	19688.59
484.28	20409.47
484.46	20477.35
484.64	20875.24
484.82	20360.32
485.00	20844.81
485.18	21106.95
485.35	21582.08
485.53	21228.66
485.71	21385.47
485.89	21998.70
486.07	21575.06
486.25	21750.60
486.43	21820.81
486.61	22225.73
486.78	22387.22
486.96	22654.05
487.14	22916.19
487.32	23147.90
487.50	23428.76
487.68	23267.27
487.85	23157.26
488.03	24020.92
488.21	24051.34
488.39	24072.41
488.57	24271.36
488.75	24259.65
488.92	24692.65
489.10	24945.43
489.28	24947.77
489.46	25439.28
489.64	25397.15
489.81	26082.93
489.99	25666.31
490.17	25741.21
490.35	26396.56
490.53	26513.59
490.70	26485.50
490.88	26195.28
491.06	26778.07
491.24	26637.64
491.41	26845.94
491.59	27674.49
491.77	27321.07
491.95	27658.11
492.13	28067.70
492.30	28046.64
492.48	27913.23
492.66	28203.46
492.84	28460.91
493.01	28556.88
493.19	28156.64
493.37	29109.24
493.54	29010.94
493.72	29411.17
493.90	29469.69
494.08	29888.64
494.25	29823.11
494.43	29797.36
494.61	30483.14
494.79	30419.94
494.96	30085.25
495.14	30714.85
495.32	30635.27
495.49	30665.70
495.67	30885.71
495.85	31367.86
496.02	31517.65
496.20	31725.96
496.38	31707.24
496.55	31896.82
496.73	32313.44
496.91	31997.46
497.09	32961.76
497.26	32582.60
497.44	32364.93
497.62	32601.32
497.79	33717.76
497.97	33020.28
498.14	33490.73
498.32	33443.91
498.50	33734.14
498.67	34258.42
498.85	34007.98
499.03	34263.10
499.20	33914.36
499.38	34288.85
499.56	34660.99
499.73	34710.14
499.91	34665.67
500.08	34843.56
500.26	35005.05
500.44	34958.24
500.61	35147.82
500.79	35269.53
500.97	35789.13
501.14	35821.90
501.32	36055.95
501.49	35782.11
501.67	36133.19
501.84	36039.57
502.02	35971.69
502.20	36631.72
502.37	36250.22
502.55	36596.62
502.72	36678.54
502.90	37095.15
503.07	36245.54
503.25	36914.93
503.43	36910.25
503.60	37462.61
503.78	37263.67
503.95	37490.70
504.13	37741.14
504.30	37841.78
504.48	37745.82
504.65	38312.23
504.83	38206.90
505.01	38696.08
505.18	38471.39
505.36	38403.51
505.53	38363.72
505.71	38246.69
505.88	38845.87
506.06	38656.29
506.23	38752.25
506.41	39021.41
506.58	39161.84
506.76	38972.26
506.93	39651.02
507.11	39803.15
507.28	39992.73
507.46	39508.24
507.63	39538.67
507.81	40133.17
507.98	40091.04
508.16	40383.60
508.33	40229.13
508.50	40765.11
508.68	40610.64
508.85	41095.13
509.03	40697.24
509.20	40608.29
509.38	41268.33
509.55	40893.84
509.73	41443.87
509.90	41200.45
510.08	41385.35
510.25	41694.30
510.42	41588.98
510.60	41928.36
510.77	41951.76
510.95	42319.23
511.12	41830.05
511.30	42012.62
511.47	42316.89
511.64	42405.83
511.82	42857.55
511.99	42780.31
512.17	42911.38
512.34	42831.80
512.51	42843.51
512.69	43438.00
512.86	42763.93
513.04	43459.07
513.21	43810.15
513.38	43749.29
513.56	43557.37
513.73	43512.90
513.90	43358.42
514.08	43510.56
514.25	43723.55
514.43	44081.65
514.60	44189.31
514.77	44528.69
514.95	44212.72
515.12	44353.15
515.29	44329.75
515.47	44304.00
515.64	44870.41
515.81	44556.78
515.99	45003.82
516.16	45455.54
516.33	45518.74
516.51	45207.45
516.68	45390.01
516.85	45247.24
517.03	45605.34
517.20	45673.21
517.37	45759.81
517.54	45881.52
517.72	45958.76
517.89	45680.24
518.06	45684.92
518.24	45610.02
518.41	46117.92
518.58	46113.23
518.75	45839.39
518.93	46370.69
519.10	46415.16
519.27	46319.20
519.45	46614.11
519.62	46562.62
519.79	46653.90
519.96	46621.13
520.14	47138.39
520.31	46525.17
520.48	47061.15
520.65	47196.90
520.83	47129.03
521.00	46941.78
521.17	47012.00
521.34	47257.76
521.52	47421.59
521.69	47456.70
521.86	47955.24
522.03	48243.12
522.20	47927.15
522.38	47831.19
522.55	48123.75
522.72	48210.35
522.89	48062.90
523.07	48421.00
523.24	48481.86
523.41	48442.07
523.58	48083.97
523.75	48619.95
523.92	48488.88
524.10	48800.17
524.27	48680.80
524.44	48989.75
524.61	48900.81
524.78	49038.90
524.96	49113.80
525.13	48680.80
525.30	49055.29
525.47	49406.37
525.64	49347.86
525.81	49265.94
525.98	49631.06
526.16	49385.30
526.33	49308.07
526.50	49862.77
526.67	49888.52
526.84	49837.03
527.01	49294.02
527.18	49743.41
527.36	50101.51
527.53	50312.16
527.70	50195.13
527.87	50169.38
528.04	50358.97
528.21	50478.33
528.38	50071.08
528.55	50110.87
528.72	50405.78
528.89	50714.73
529.07	50368.33
529.24	50220.87
529.41	50735.79
529.58	50707.71
529.75	50440.89
529.92	50791.97
530.09	50916.01
530.26	50705.37
530.43	50768.56
530.60	50616.43
530.77	51061.13
530.94	51281.14
531.11	51065.81
531.28	50948.78
531.46	51077.51
531.63	51171.13
531.80	51482.42
531.97	51498.81
532.14	51657.96
532.31	51393.48
532.48	51674.35
532.65	51662.64
532.82	51409.87
532.99	51655.62
533.16	51150.07
533.33	51547.96
533.50	52006.70
533.67	52023.09
533.84	51655.62
534.01	51835.84
534.18	51870.95
534.35	52053.51
534.52	51807.76
534.69	52285.23
534.86	52404.59
535.03	52346.08
535.20	52245.44
535.37	52299.27
535.54	52500.56
535.71	51819.46
535.88	52280.55
536.05	52257.14
536.22	52643.33
536.38	52790.78
536.55	52449.06
536.72	52458.43
536.89	52392.89
537.06	52449.06
537.23	52746.31
537.40	52423.32
537.57	52605.88
537.74	52699.50
537.91	52802.49
538.08	52886.74
538.25	52563.75
538.42	53045.90
538.59	53249.53
538.75	52566.09
538.92	52933.56
539.09	52940.58
539.26	53071.65
539.43	53329.11
539.60	53265.91
539.77	53371.24
539.94	53483.58
540.11	53324.43
540.28	53265.91
540.44	53492.94
540.61	53609.97
540.78	53436.77
540.95	53570.18
541.12	53221.44
541.29	53530.39
541.46	53675.51
541.62	53469.54
541.79	53628.69
541.96	53272.93
542.13	53689.55
542.30	53523.37
542.47	53942.33
542.63	53979.78
542.80	53932.96
542.97	53944.67
543.14	54211.49
543.31	54005.52
543.48	53900.20
543.64	54518.10
543.81	54518.10
543.98	54377.67
544.15	54490.01
544.32	54365.96
544.48	54347.24
544.65	54497.03
544.82	54639.81
544.99	54049.99
545.16	54171.70
545.32	54260.64
545.49	54658.53
545.66	54450.22
545.83	54557.89
546.00	54958.12
546.16	54930.03
546.33	54429.16
546.50	54284.04
546.67	54590.66
546.83	54031.27
547.00	54834.07
547.17	54630.44
547.34	54864.50
547.50	54855.14
547.67	54890.24
547.84	54923.01
548.00	55021.31
548.17	55285.79
548.34	54763.85
548.51	55299.84
548.67	55327.92
548.84	55086.85
549.01	55255.37
549.18	55004.93
549.34	55002.59
549.51	55140.68
549.68	55180.47
549.84	55114.94
550.01	55117.28
550.18	55035.36
550.34	55421.55
550.51	55381.76
550.68	55629.85
550.84	55014.29
551.01	55463.67
551.18	55016.63
551.34	55168.77
551.51	55561.98
551.68	55398.14
551.84	55622.83
552.01	55231.96
552.18	55526.87
552.34	55505.80
552.51	55627.51
552.68	55358.35
552.84	55604.11
553.01	55608.79
553.18	55674.32
553.34	55805.39
553.51	55676.66
553.67	56044.13
553.84	56142.43
554.01	56144.77
554.17	55819.44
554.34	55739.86
554.51	55948.17
554.67	55973.91
554.84	55952.85
555.00	56016.04
555.17	55870.93
555.33	56231.37
555.50	55943.48
555.67	55913.06
555.83	55976.25
556.00	56261.80
556.16	56303.93
556.33	55884.97
556.50	55845.18
556.66	56189.24
556.83	56123.71
556.99	56484.15
557.16	56453.72
557.32	56395.21
557.49	56294.56
557.65	56142.43
557.82	56140.09
557.98	56203.28
558.15	56301.59
558.32	56442.02
558.48	56257.12
558.65	56488.83
558.81	56484.15
558.98	56418.61
559.14	56376.48
559.31	56367.12
559.47	56507.55
559.64	56563.73
559.80	56495.85
559.97	56224.35
560.13	56315.63
560.30	56509.89
560.46	56362.44
560.63	56470.11
560.79	56629.26
560.96	56615.22
561.12	56362.44
561.29	56650.33
561.45	56739.27
561.61	56823.53
561.78	56928.85
561.94	56748.63
562.11	56729.90
562.27	56722.88
562.44	56563.73
562.60	56605.86
562.77	56523.94
562.93	56647.99
563.10	56708.84
563.26	56760.33
563.42	56994.39
563.59	56814.16
563.75	56938.21
563.92	57017.79
564.08	56842.25
564.24	56706.50
564.41	56743.95
564.57	56795.44
564.74	56619.90
564.90	56790.76
565.07	57013.11
565.23	56786.08
565.39	56973.32
565.56	56933.53
565.72	56610.54
565.88	56931.19
566.05	56889.06
566.21	56715.86
566.38	56755.65
566.54	56961.62
566.70	56924.17
566.87	57270.57
567.03	56633.94
567.19	56961.62
567.36	57022.47
567.52	56779.06
567.68	56994.39
567.85	56980.34
568.01	57162.90
568.17	56830.55
568.34	56959.28
568.50	57176.95
568.66	56947.57
568.83	57205.03
568.99	56828.21
569.15	57008.43
569.32	56985.02
569.48	56938.21
569.64	57097.37
569.81	57120.77
569.97	57057.58
570.13	57209.71
570.30	57073.96
570.46	57120.77
570.62	57078.64
570.78	57043.54
570.95	56935.87
571.11	56931.19
571.27	56891.40
571.43	56970.98
571.60	57293.97
571.76	56830.55
571.92	56985.02
572.09	57205.03
572.25	57237.80
572.41	57207.37
572.57	56938.21
572.74	57312.70
572.90	56914.81
573.06	57132.48
573.22	57027.15
573.38	57041.20
573.55	57148.86
573.71	57633.35
573.87	57345.47
574.03	57265.89
574.20	57146.52
574.36	57322.06
574.52	57200.35
574.68	57139.50
574.84	57088.01
575.01	57198.01
575.17	57219.08
575.33	57111.41
575.49	57141.84
575.65	57462.49
575.82	57509.30
575.98	57116.09
576.14	57359.51
576.30	57097.37
576.46	56985.02
576.62	57020.13
576.79	57146.52
576.95	57333.76
577.11	57249.50
577.27	57256.53
577.43	57333.76
577.59	56954.60
577.75	57167.58
577.92	57160.56
578.08	57041.20
578.24	57099.71
578.40	57190.99
578.56	57195.67
578.72	57200.35
578.88	57396.96
579.04	57340.78
579.21	57181.63
579.37	57261.21
579.53	57338.44
579.69	57169.93
579.85	57048.22
580.01	57235.46
580.17	57008.43
580.33	57279.93
580.49	57202.69
580.65	57448.45
580.82	57422.70
580.98	57219.08
581.14	57240.14
581.30	57516.32
581.46	57155.88
581.62	57193.33
581.78	57008.43
581.94	57258.87
582.10	57312.70
582.26	57464.83
582.42	57319.72
582.58	57380.57
582.74	57368.87
582.90	57523.35
583.06	57696.55
583.22	57352.49
583.38	57111.41
583.54	57301.00
583.70	57186.31
583.86	57373.55
584.02	57118.43
584.18	57462.49
584.34	57525.69
584.50	57609.95
584.66	57490.58
584.82	57261.21
584.98	57518.67
585.14	57476.54
585.30	57202.69
585.46	57256.53
585.62	57090.35
585.78	57331.42
585.94	57111.41
586.10	57392.28
586.26	57221.42
586.42	57567.82
586.58	57595.90
586.74	57389.94
586.90	57198.01
587.06	57183.97
587.22	57506.96
587.38	57235.46
587.54	57385.25
587.70	57584.20
587.86	57411.00
588.02	57462.49
588.18	57539.73
588.34	57399.30
588.49	57661.44
588.65	57256.53
588.81	57478.88
588.97	57448.45
589.13	57532.71
589.29	57387.60
589.45	57570.16
589.61	57483.56
589.77	57829.96
589.93	57696.55
590.08	57577.18
590.24	57565.48
590.40	57680.16
590.56	57560.79
590.72	57504.62
590.88	57305.68
591.04	57352.49
591.20	57626.33
591.35	57733.99
591.51	57879.11
591.67	57675.48
591.83	57635.69
591.99	57743.36
592.15	57841.66
592.31	57492.92
592.46	57661.44
592.62	57492.92
592.78	57579.52
592.94	57441.43
593.10	57581.86
593.26	57703.57
593.41	57570.16
593.57	57572.50
593.73	57876.77
593.89	57855.70
594.05	57567.82
594.20	57366.53
594.36	57591.22
594.52	57432.07
594.68	57563.14
594.84	57237.80
594.99	57818.25
595.15	57680.16
595.31	57696.55
595.47	57565.48
595.62	57860.38
595.78	57539.73
595.94	57743.36
596.10	57731.65
596.25	57462.49
596.41	57696.55
596.57	57623.99
596.73	57696.55
596.88	57364.19
597.04	57600.58
597.20	57640.37
597.36	57719.95
597.51	57958.69
597.67	57684.84
597.83	57621.65
597.99	58010.18
598.14	57518.67
598.30	57888.47
598.46	57724.63
598.61	57598.24
598.77	57556.11
598.93	57928.26
599.09	57717.61
599.24	57841.66
599.40	57881.45
599.56	57766.76
599.71	57726.97
599.87	57895.49
600.03	57691.86
600.18	57535.05
600.34	57565.48
600.50	57684.84
600.65	57649.74
600.81	57771.44
600.97	57949.32
601.12	57860.38
601.28	57923.58
601.44	57715.27
601.59	57794.85
601.75	57783.15
601.91	57670.80
602.06	57609.95
602.22	57766.76
602.37	57411.00
602.53	57593.56
602.69	57593.56
602.84	57689.52
603.00	57729.31
603.16	57670.80
603.31	57769.10
603.47	57619.31
603.62	57631.01
603.78	57581.86
603.94	57621.65
604.09	57703.57
604.25	57588.88
604.40	57689.52
604.56	57616.97
604.71	57923.58
604.87	57670.80
605.03	57738.68
605.18	57731.65
605.34	57822.93
605.49	57502.28
605.65	57654.42
605.80	57279.93
605.96	57450.79
606.12	57364.19
606.27	57733.99
606.43	57616.97
606.58	57661.44
606.74	57638.03
606.89	57621.65
607.05	57544.41
607.20	57609.95
607.36	57371.21
607.51	57537.39
607.67	57340.78
607.82	57272.91
607.98	57509.30
608.13	57352.49
608.29	57263.55
608.44	57347.81
608.60	57492.92
608.75	57750.38
608.91	57584.20
609.06	57403.98
609.22	57460.15
609.37	57165.24
609.53	57418.02
609.68	57525.69
609.84	57293.97
609.99	57333.76
610.15	57291.63
610.30	57481.22
610.46	57408.66
610.61	57373.55
610.76	57305.68
610.92	57256.53
611.07	57181.63
611.23	57118.43
611.38	57354.83
611.54	57457.81
611.69	57244.82
611.84	56975.66
612.00	57069.28
612.15	57017.79
612.31	57167.58
612.46	57275.25
612.62	57429.72
612.77	57251.84
612.92	57308.02
613.08	57106.73
613.23	57303.34
613.39	57069.28
613.54	56853.95
613.69	57268.23
613.85	56987.36
614.00	57031.83
614.15	56975.66
614.31	56905.44
614.46	57085.67
614.62	57153.54
614.77	57083.33
614.92	57261.21
615.08	56942.89
615.23	57268.23
615.38	57212.06
615.54	56729.90
615.69	56790.76
615.84	56821.19
616.00	56898.42
616.15	56875.02
616.30	56753.31
616.46	56713.52
616.61	56961.62
616.76	56886.72
616.92	56788.42
617.07	56917.15
617.22	56552.02
617.37	56769.69
617.53	56692.46
617.68	56561.39
617.83	56425.64
617.99	56832.89
618.14	56868.00
618.29	56811.82
618.45	56718.20
618.60	56718.20
618.75	56669.05
618.90	56584.79
619.06	56676.07
619.21	56786.08
619.36	56537.98
619.51	56589.47
619.67	56493.51
619.82	56453.72
619.97	56332.01
620.12	56233.71
620.28	56072.21
620.43	56364.78
620.58	56427.98
620.73	56526.28
620.89	56458.40
621.04	56542.66
621.19	56357.76
621.34	56633.94
621.49	56224.35
621.65	56416.27
621.80	56303.93
621.95	56226.69
622.10	56369.46
622.25	56313.29
622.41	56343.72
622.56	56432.66
622.71	56484.15
622.86	56444.36
623.01	56163.50
623.16	56018.38
623.32	56350.74
623.47	56177.54
623.62	56154.13
623.77	55877.95
623.92	56130.73
624.07	55976.25
624.23	56095.62
624.38	56090.94
624.53	56104.98
624.68	56020.72
624.83	56037.11
624.98	56299.25
625.13	55987.95
625.29	55978.59
625.44	56027.74
625.59	55803.05
625.74	55674.32
625.89	55812.41
626.04	55540.91
626.19	55714.11
626.34	55639.22
626.49	55702.41
626.65	55704.75
626.80	55758.58
626.95	55700.07
627.10	55732.84
627.25	55484.74
627.40	55407.50
627.55	55529.21
627.70	55702.41
627.85	55409.84
628.00	55327.92
628.15	55384.10
628.30	55475.38
628.45	55622.83
628.60	55531.55
628.76	55765.60
628.91	55487.08
629.06	55442.61
629.21	55395.80
629.36	55351.33
629.51	55491.76
629.66	55299.84
629.81	55110.25
629.96	55405.16
630.11	54920.67
630.26	55248.35
630.41	55267.07
630.56	54939.39
630.71	55147.70
630.86	55330.26
631.01	55288.13
631.16	55379.42
631.31	55271.75
631.46	54908.97
631.61	55297.50
631.76	54899.61
631.91	54913.65
632.06	54782.58
632.21	54724.07
632.36	55096.21
632.51	54686.62
632.66	54932.37
632.81	54871.52
632.96	55164.09
633.10	54876.20
633.25	55014.29
633.40	55126.64
633.55	55068.12
633.70	54602.36
633.85	54688.96
634.00	54567.25
634.15	54468.95
634.30	54541.50
634.45	54862.16
634.60	54852.80
634.75	54717.04
634.90	54597.68
635.05	54855.14
635.19	55018.97
635.34	54822.37
635.49	54698.32
635.64	54784.92
635.79	54527.46
635.94	54356.60
636.09	54445.54
636.24	54312.13
636.39	54330.86
636.53	54618.74
636.68	54433.84
636.83	54607.04
636.98	54403.41
637.13	54555.55
637.28	54600.02
637.43	54597.68
637.57	54475.97
637.72	54246.60
637.87	54183.40
638.02	54244.26
638.17	54403.41
638.32	54038.29
638.46	53787.85
638.61	53993.82
638.76	53909.56
638.91	54199.79
639.06	54047.65
639.20	54057.01
639.35	54288.73
639.50	53869.77
639.65	54171.70
639.80	54136.59
639.94	53911.90
640.09	54143.61
640.24	53822.96
640.39	53736.36
640.54	53464.86
640.68	53914.24
640.83	53577.20
640.98	53563.16
641.13	53399.32
641.27	53600.61
641.42	53755.08
641.57	53979.78
641.72	53387.62
641.86	53698.91
642.01	53518.69
642.16	53708.27
642.31	53593.59
642.45	53521.03
642.60	53380.60
642.75	53570.18
642.90	53389.96
643.04	53460.18
643.19	53258.89
643.34	53514.01
643.48	53462.52
643.63	53666.14
643.78	53308.04
643.93	53616.99
644.07	53619.33
644.22	53464.86
644.37	53462.52
644.51	53436.77
644.66	53092.71
644.81	53249.53
644.95	53340.81
645.10	52952.28
645.25	53132.50
645.39	53034.20
645.54	53027.18
645.69	53305.70
645.83	53141.86
645.98	52963.98
646.13	53223.78
646.27	53244.85
646.42	53183.99
646.57	52884.40
646.71	52891.43
646.86	53198.04
647.00	52793.12
647.15	52605.88
647.30	52896.11
647.44	52327.36
647.59	52966.32
647.74	52846.96
647.88	52711.20
648.03	52963.98
648.17	53088.03
648.32	52980.37
648.47	52985.05
648.61	52669.08
648.76	52933.56
648.90	52708.86
649.05	52521.62
649.20	52638.65
649.34	52509.92
649.49	52470.13
649.63	52626.95
649.78	52870.36
649.92	52418.64
650.07	52818.87
650.21	52411.62
650.36	52947.60
650.51	52451.41
650.65	52748.65
650.80	52619.92
650.94	52355.44
651.09	52446.72
651.23	52395.23
651.38	52570.77
651.52	52168.20
651.67	52285.23
651.81	52285.23
651.96	52341.40
652.10	52037.13
652.25	52177.56
652.39	52437.36
652.54	52460.77
652.68	52245.44
652.83	52254.80
652.97	52535.66
653.12	52275.87
653.26	52151.82
653.41	52154.16
653.55	51908.40
653.70	51515.19
653.84	51934.15
653.99	51877.97
654.13	51826.48
654.27	51789.03
654.42	51810.10
654.56	51831.16
654.71	52060.54
654.85	51880.31
655.00	52090.96
655.14	52240.76
655.29	51845.21
655.43	51959.89
655.57	51606.47
655.72	51573.70
655.86	51547.96
656.01	51391.14
656.15	51468.38
656.30	51419.23
656.44	51217.94
656.58	51554.98
656.73	51625.20
656.87	51353.69
657.01	51444.98
657.16	51634.56
657.30	51770.31
657.45	51611.15
657.59	51690.73
657.73	51271.78
657.88	51124.32
658.02	51185.18
658.16	51009.64
658.31	50850.48
658.45	50646.85
658.60	50562.59
658.74	50775.58
658.88	50920.70
659.03	50806.01
659.17	50871.54
659.31	51208.58
659.46	50728.77
659.60	50787.28
659.74	50756.86
659.89	50916.01
660.03	50759.20
660.17	51023.68
660.32	50616.43
660.46	50658.56
660.60	50384.71
660.74	50071.08
660.89	50529.83
661.03	50223.22
661.17	50246.62
661.32	50312.16
661.46	50321.52
661.60	49888.52
661.74	50368.33
661.89	49820.64
662.03	50373.01
662.17	49975.12
662.31	50059.38
662.46	50539.19
662.60	49647.44
662.74	49808.94
662.88	49897.88
663.03	49521.05
663.17	49886.18
663.31	49429.77
663.45	49478.92
663.60	49469.56
663.74	49565.52
663.88	49530.42
664.02	49340.83
664.17	49874.48
664.31	49282.32
664.45	49387.64
664.59	49434.45
664.73	48765.06
664.88	49036.56
665.02	48692.50
665.16	48676.12
665.30	48713.57
665.44	48795.49
665.59	48107.37
665.73	48563.78
665.87	48465.47
666.01	48608.25
666.15	48800.17
666.29	48584.84
666.44	48451.43
666.58	48383.55
666.72	48704.21
666.86	48596.54
667.00	48500.58
667.14	48390.58
667.28	48105.03
667.43	47805.44
667.57	48189.29
667.71	48193.97
667.85	48055.88
667.99	47517.56
668.13	47473.09
668.27	47723.52
668.41	47742.25
668.56	47721.18
668.70	48025.45
668.84	47735.23
668.98	47590.11
669.12	47580.75
669.26	47421.59
669.40	47180.52
669.54	47320.95
669.68	46799.01
669.82	46836.46
669.96	47061.15
670.10	46714.75
670.25	46932.42
670.39	46579.00
670.53	46958.17
670.67	46148.34
670.81	46607.09
670.95	46543.89
671.09	46506.44
671.23	46579.00
671.37	46546.23
671.51	46822.42
671.65	46693.69
671.79	46305.16
671.93	46302.82
672.07	46003.23
672.21	46085.15
672.35	45474.27
672.49	45539.80
672.63	45832.37
672.77	45567.89
672.91	45705.98
673.05	45287.03
673.19	45380.65
673.33	45354.90
673.47	45216.81
673.61	45394.69
673.75	45457.88
673.89	45645.13
674.03	45013.18
674.17	45235.53
674.31	44928.92
674.45	44650.40
674.59	44231.44
674.73	44589.55
674.87	44076.97
675.01	44378.90
675.15	44100.37
675.29	44079.31
675.43	44327.41
675.56	44123.78
675.70	43793.76
675.84	44381.24
675.98	43075.22
676.12	43934.20
676.26	44011.43
676.40	43739.93
676.54	43562.05
676.68	43414.60
676.82	42501.79
676.96	42733.50
677.10	42866.91
677.23	42590.73
677.37	42714.78
677.51	42267.73
677.65	42155.39
677.79	41886.23
677.93	42120.28
678.07	42094.53
678.21	41923.68
678.34	41961.12
678.48	41783.24
678.62	41661.54
678.76	41626.43
678.90	41556.21
679.04	41282.37
679.18	41493.02
679.31	40982.78
679.45	40863.41
679.59	40596.59
679.73	40652.76
679.87	40823.62
680.00	40390.62
680.14	40023.16
680.28	40130.83
680.42	40257.21
680.56	40144.87
680.70	39817.19
680.83	40084.01
680.97	39835.92
681.11	39896.77
681.25	39821.87
681.39	40037.20
681.52	39498.88
681.66	38850.55
681.80	38888.00
681.94	38852.89
682.07	38623.52
682.21	38597.77
682.35	38756.93
682.49	38356.70
682.62	37991.58
682.76	38103.92
682.90	37954.13
683.04	38139.03
683.17	37928.38
683.31	38068.81
683.45	37689.65
683.59	37572.62
683.72	37818.38
683.86	37521.13
684.00	36961.74
684.13	36825.99
684.27	36748.75
684.41	36779.18
684.55	36603.64
684.68	36397.67
684.82	36285.33
684.96	35915.52
685.09	36128.51
685.23	36444.48
685.37	36123.83
685.50	36109.78
685.64	36025.53
685.78	35861.69
685.91	35908.50
686.05	36030.21
686.19	35241.45
686.32	35538.69
686.46	35056.54
686.60	34473.75
686.73	35061.22
686.87	34815.47
687.01	34789.72
687.14	34735.89
687.28	33830.10
687.42	34204.59
687.55	33982.24
687.69	34349.70
687.82	33600.73
687.96	33961.17
688.10	33610.09
688.23	33972.88
688.37	33502.43
688.50	33855.85
688.64	33165.39
688.78	33429.87
688.91	32931.34
689.05	33050.70
689.18	32917.29
689.32	32247.90
689.46	32629.41
689.59	32650.47
689.73	32814.31
689.86	32477.27
690.00	32102.79
690.13	32208.11
690.27	31971.72
690.41	31901.50
690.54	31651.06
690.68	31557.44
690.81	31913.20
690.95	31976.40
691.08	31637.02
691.22	31489.57
691.35	30551.01
691.49	30897.41
691.62	30726.55
691.76	30412.92
691.89	30478.46
692.03	30366.11
692.16	30328.66
692.30	30162.48
692.43	30122.69
692.57	30068.86
692.70	29839.49
692.84	29628.84
692.97	29752.89
693.11	29912.05
693.24	29373.72
693.38	29741.19
693.51	29230.95
693.65	29530.54
693.78	29263.72
693.92	29617.14
694.05	29261.38
694.19	28907.96
694.32	28641.14
694.45	28477.30
694.59	28128.56
694.72	28404.74
694.86	28016.21
694.99	27510.66
695.13	27831.31
695.26	27772.80
695.39	27639.39
695.53	27817.27
695.66	28107.49
695.80	28006.85
695.93	27473.21
696.07	27772.80
696.20	27735.35
696.33	27129.15
696.47	27028.51
696.60	27229.79
696.73	26501.89
696.87	26515.93
697.00	26452.73
697.14	26246.77
697.27	25762.28
697.40	25420.56
697.54	25724.83
697.67	26024.42
697.80	25603.12
697.94	25436.94
698.07	25635.89
698.21	25212.25
698.34	25493.12
698.47	25413.54
698.61	24987.56
698.74	25509.50
698.87	24840.11
699.01	25062.46
699.14	24680.95
699.27	24905.64
699.40	24624.78
699.54	24486.68
699.67	23866.44
699.80	24020.92
699.94	24037.30
700.07	24151.99
700.20	23721.33
700.34	23424.08
700.47	23672.18
700.60	23651.11
700.73	24011.56
700.87	23489.62
701.00	23309.40
701.13	23419.40
701.26	23000.44
701.40	23208.75
701.53	23145.56
701.66	22787.46
701.79	22782.77
701.93	22628.30
702.06	22682.13
702.19	22448.08
702.32	22551.06
702.46	21975.29
702.59	21834.86
702.72	21860.60
702.85	22157.85
702.99	21645.27
703.12	21802.09
703.25	21315.26
703.38	21837.20
703.51	21577.40
703.65	21303.56
703.78	21287.17
703.91	21067.16
704.04	21209.93
704.17	21326.96
704.31	21039.08
704.44	20716.08
704.57	20526.50
704.70	20533.52
704.83	20641.18
704.96	20105.20
705.10	20201.16
705.23	20222.23
>>>>>End Processed Spectral Data<<<<<
