SpectraSuite Data File
++++++++++++++++++++++++++++++++++++
Date: Fri Oct 18 13:54:07 GMT-05:00 2013
User: bianchi
Dark Spectrum Present: No
Reference Spectrum Present: No
Number of Sampled Component Spectra: 1
Spectrometers: USB2+H05261
Integration Time (usec): 100000 (USB2+H05261)
Spectra Averaged: 1 (USB2+H05261)
Boxcar Smoothing: 0 (USB2+H05261)
Correct for Electrical Dark: No (USB2+H05261)
Strobe/Lamp Enabled: No (USB2+H05261)
Correct for Detector Non-linearity: No (USB2+H05261)
Correct for Stray Light: No (USB2+H05261)
Number of Pixels in Processed Spectrum: 2048
>>>>>Begin Processed Spectral Data<<<<<
365.73	0.00
365.92	0.00
366.12	0.00
366.32	0.00
366.52	0.00
366.72	0.00
366.91	0.00
367.11	0.00
367.31	0.00
367.51	0.00
367.70	0.00
367.90	0.00
368.10	0.00
368.30	0.00
368.49	0.00
368.69	0.00
368.89	0.00
369.09	0.00
369.28	0.00
369.48	0.00
369.68	0.00
369.87	0.00
370.07	0.00
370.27	0.00
370.47	37.45
370.66	175.54
370.86	355.76
371.06	320.65
371.25	346.40
371.45	318.31
371.65	456.40
371.84	372.15
372.04	358.10
372.24	313.63
372.44	330.02
372.63	369.80
372.83	365.12
373.03	418.96
373.22	402.57
373.42	461.09
373.62	500.87
373.81	559.39
374.01	479.81
374.21	575.77
374.40	564.07
374.60	543.00
374.79	395.55
374.99	592.16
375.19	589.82
375.38	510.24
375.58	528.96
375.78	582.79
375.97	489.17
376.17	648.33
376.37	587.47
376.56	552.37
376.76	594.50
376.95	510.24
377.15	638.97
377.35	606.20
377.54	613.22
377.74	500.87
377.93	535.98
378.13	596.84
378.33	662.37
378.52	685.78
378.72	582.79
378.91	648.33
379.11	526.62
379.31	678.76
379.50	655.35
379.70	660.03
379.89	599.18
380.09	575.77
380.28	669.39
380.48	617.90
380.68	683.44
380.87	641.31
381.07	653.01
381.26	674.07
381.46	753.65
381.65	641.31
381.85	699.82
382.04	648.33
382.24	744.29
382.43	734.93
382.63	730.25
382.83	784.08
383.02	786.42
383.22	816.85
383.41	751.31
383.61	674.07
383.80	849.61
384.00	725.57
384.19	798.12
384.39	732.59
384.58	873.02
384.78	753.65
384.97	816.85
385.17	660.03
385.36	823.87
385.56	844.93
385.75	837.91
385.95	908.13
386.14	884.72
386.34	887.06
386.53	912.81
386.72	833.23
386.92	830.89
387.11	875.36
387.31	898.77
387.50	912.81
387.70	901.11
387.89	781.74
388.09	868.34
388.28	961.96
388.48	847.27
388.67	940.90
388.86	933.87
389.06	1018.13
389.25	966.64
389.45	917.49
389.64	1004.09
389.84	1041.54
390.03	1020.47
390.22	950.26
390.42	1055.58
390.61	983.02
390.81	1041.54
391.00	1149.20
391.19	1121.12
391.39	1088.35
391.58	1104.73
391.78	976.00
391.97	1083.67
392.16	1071.97
392.36	1121.12
392.55	1053.24
392.75	1219.42
392.94	1151.54
393.13	1128.14
393.33	1036.86
393.52	1203.04
393.71	1207.72
393.91	1163.25
394.10	1259.21
394.29	1254.53
394.49	1177.29
394.68	1270.91
394.88	1277.93
395.07	1350.49
395.26	1416.02
395.46	1282.61
395.65	1359.85
395.84	1350.49
396.04	1404.32
396.23	1256.87
396.42	1310.70
396.62	1390.28
396.81	1483.90
397.00	1334.11
397.19	1409.00
397.39	1430.07
397.58	1404.32
397.77	1366.87
397.97	1495.60
398.16	1486.24
398.35	1568.16
398.55	1516.67
398.74	1519.01
398.93	1547.09
399.12	1441.77
399.32	1441.77
399.51	1551.78
399.70	1605.61
399.90	1558.80
400.09	1659.44
400.28	1720.29
400.47	1696.89
400.67	1701.57
400.86	1671.14
401.05	1717.95
401.24	1575.18
401.44	1741.36
401.63	1710.93
401.82	1729.66
402.01	1739.02
402.21	1748.38
402.40	1790.51
402.59	1837.32
402.78	1755.40
402.97	1729.66
403.17	1877.11
403.36	1940.30
403.55	1921.58
403.74	1970.73
403.93	1928.60
404.13	2005.84
404.32	1860.73
404.51	1975.41
404.70	1987.11
404.89	2001.16
405.09	2146.27
405.28	2015.20
405.47	1919.24
405.66	2047.97
405.85	2134.57
406.05	2162.66
406.24	2165.00
406.43	2251.60
406.62	2282.02
406.81	2242.23
407.00	2188.40
407.20	2141.59
407.39	2223.51
407.58	2399.05
407.77	2333.51
407.96	2424.80
408.15	2221.17
408.34	2389.69
408.54	2420.11
408.73	2459.90
408.92	2408.41
409.11	2415.43
409.30	2555.86
409.49	2417.77
409.68	2553.52
409.87	2551.18
410.07	2565.23
410.26	2689.28
410.45	2626.08
410.64	2581.61
410.83	2768.85
411.02	2703.32
411.21	2822.69
411.40	2745.45
411.59	2712.68
411.78	2818.00
411.98	2864.82
412.17	2871.84
412.36	2869.50
412.55	3059.08
412.74	2986.52
412.93	3026.31
413.12	3129.30
413.31	3096.53
413.50	2981.84
413.69	3084.83
413.88	3204.19
414.07	3077.80
414.26	3220.58
414.45	3274.41
414.64	3337.60
414.83	3428.88
415.02	3534.21
415.22	3463.99
415.41	3475.70
415.60	3473.36
415.79	3552.93
415.98	3508.46
416.17	3534.21
416.36	3672.30
416.55	3782.31
416.74	3705.07
416.93	3686.34
417.12	3812.73
417.31	3873.59
417.50	3873.59
417.69	3990.61
417.88	3875.93
418.07	3955.51
418.26	3880.61
418.45	3999.98
418.64	4072.53
418.83	4077.21
419.02	4028.06
419.21	4084.23
419.39	4236.37
419.58	4180.20
419.77	3992.95
419.96	4257.43
420.15	4208.28
420.34	4198.92
420.53	4290.20
420.72	4329.99
420.91	4327.65
421.10	4332.33
421.29	4512.55
421.48	4351.06
421.67	4440.00
421.86	4348.72
422.05	4468.08
422.24	4248.07
422.43	4535.96
422.61	4521.92
422.80	4545.32
422.99	4503.19
423.18	4564.04
423.37	4596.81
423.56	4542.98
423.75	4493.83
423.94	4496.17
424.13	4266.80
424.32	4280.84
424.50	4711.50
424.69	4629.58
424.88	4678.73
425.07	4507.87
425.26	4484.47
425.45	4573.41
425.64	4704.48
425.83	4692.77
426.01	4767.67
426.20	4690.43
426.39	4657.67
426.58	4592.13
426.77	4732.56
426.96	4865.97
427.15	4685.75
427.33	4786.40
427.52	4847.25
427.71	4737.24
427.90	4898.74
428.09	5004.07
428.28	5006.41
428.46	5074.28
428.65	5032.15
428.84	5053.22
429.03	5022.79
429.22	4966.62
429.40	5057.90
429.59	5027.47
429.78	4800.44
429.97	4966.62
430.16	4947.89
430.34	5144.50
430.53	5298.97
430.72	5352.81
430.91	5179.61
431.10	5135.14
431.28	5474.51
431.47	5294.29
431.66	5453.45
431.85	5261.52
432.03	5495.58
432.22	5472.17
432.41	5699.20
432.60	5652.39
432.79	5577.50
432.97	5605.58
433.16	5593.88
433.35	5523.66
433.54	5706.23
433.72	5673.46
433.91	5767.08
434.10	5675.80
434.28	5717.93
434.47	5771.76
434.66	5806.87
434.85	5940.28
435.03	6019.86
435.22	5834.96
435.41	6064.33
435.59	5991.77
435.78	6010.50
435.97	6125.18
436.16	6127.52
436.34	6141.57
436.53	6099.44
436.72	6296.04
436.90	6033.90
437.09	6104.12
437.28	6090.07
437.46	6230.51
437.65	6277.32
437.84	6406.05
438.02	6452.86
438.21	6354.55
438.40	6249.23
438.58	6626.06
438.77	6635.42
438.96	6597.97
439.14	6600.31
439.33	6663.51
439.52	6916.28
439.70	6949.05
439.89	6843.73
440.08	6839.05
440.26	6860.11
440.45	6869.47
440.63	6993.52
440.82	7208.85
441.01	7098.84
441.19	7140.97
441.38	7258.00
441.57	7309.49
441.75	7445.24
441.94	7456.95
442.12	7332.90
442.31	7751.85
442.50	7681.64
442.68	7489.71
442.87	7595.04
443.05	7789.30
443.24	7758.88
443.43	7815.05
443.61	7651.21
443.80	7990.59
443.98	7681.64
444.17	7372.69
444.35	7854.84
444.54	7857.18
444.73	8004.63
444.91	8009.31
445.10	7899.31
445.28	7892.29
445.47	7606.74
445.65	7786.96
445.84	8140.38
446.02	7819.73
446.21	7873.56
446.39	7793.98
446.58	7927.39
446.77	8004.63
446.95	7714.41
447.14	8074.85
447.32	8049.10
447.51	8006.97
447.69	8023.36
447.88	7995.27
448.06	8138.04
448.25	7971.86
448.43	8060.80
448.62	8044.42
448.80	7992.93
448.99	8306.56
449.17	8224.64
449.36	8107.62
449.54	8498.49
449.73	8374.44
449.91	8493.80
450.10	8479.76
450.28	8482.10
450.46	8446.99
450.65	8482.10
450.83	8510.19
451.02	8585.08
451.20	8734.88
451.39	8517.21
451.57	8592.11
451.76	8372.10
451.94	8734.88
452.13	8744.24
452.31	8882.33
452.49	8725.52
452.68	8823.82
452.86	9050.85
453.05	8861.27
453.23	8982.98
453.42	8910.42
453.60	8741.90
453.78	9062.55
453.97	8769.99
454.15	8863.61
454.34	8819.14
454.52	9022.77
454.70	9015.74
454.89	9128.09
455.07	9114.05
455.26	9352.78
455.44	9298.95
455.62	9305.97
455.81	9191.28
455.99	9373.85
456.17	9455.76
456.36	9366.82
456.54	9659.39
456.73	9568.11
456.91	9830.25
457.09	9795.14
457.28	9834.93
457.46	9891.10
457.64	9839.61
457.83	9708.54
458.01	9755.35
458.19	9825.57
458.38	9825.57
458.56	10111.11
458.74	10146.22
458.93	9933.23
459.11	10064.30
459.29	9994.09
459.48	10249.21
459.66	10303.04
459.84	10209.42
460.03	10464.54
460.21	10228.14
460.39	10452.83
460.57	10342.83
460.76	10352.19
460.94	10604.97
461.12	10408.36
461.31	10469.22
461.49	10396.66
461.67	10399.00
461.85	10806.25
462.04	10626.03
462.22	11274.36
462.40	10832.00
462.59	11059.03
462.77	10820.30
462.95	11040.31
463.13	10885.83
463.32	10897.53
463.50	11052.01
463.68	11190.10
463.86	11059.03
464.05	10705.61
464.23	10944.34
464.41	11267.34
464.59	11082.44
464.78	11262.66
464.96	11143.29
465.14	10984.13
465.32	11405.43
465.50	11293.08
465.69	11477.99
465.87	11496.71
466.05	11222.87
466.23	11346.92
466.41	11538.84
466.60	11543.52
466.78	11473.31
466.96	11520.12
467.14	11480.33
467.32	11595.01
467.51	11705.02
467.69	11676.93
467.87	11655.87
468.05	11749.49
468.23	11552.88
468.41	11712.04
468.60	11756.51
468.78	11957.80
468.96	11744.81
469.14	12056.10
469.32	12058.44
469.50	11548.20
469.69	12119.29
469.87	12348.67
470.05	12500.80
470.23	12400.16
470.41	12196.53
470.59	12280.79
470.77	12341.64
470.95	12472.71
471.14	12519.53
471.32	12484.42
471.50	12854.22
471.68	12606.13
471.86	12709.11
472.04	12744.22
472.22	13341.05
472.40	12858.90
472.58	12788.69
472.77	12936.14
472.95	13163.17
473.13	13467.44
473.31	12940.82
473.49	13156.15
473.67	13195.94
473.85	13266.16
474.03	13605.53
474.21	13561.06
474.39	13654.69
474.57	13919.17
474.75	13926.19
474.93	14068.96
475.12	14033.85
475.30	13987.04
475.48	14045.55
475.66	14377.91
475.84	14115.77
476.02	14478.55
476.20	14326.42
476.38	14672.82
476.56	14923.26
476.74	14764.10
476.92	14860.06
477.10	14860.06
477.28	15426.47
477.46	14885.81
477.64	15295.40
477.82	15393.70
478.00	15751.81
478.18	15697.97
478.36	15899.26
478.54	15899.26
478.72	16086.50
478.90	16156.72
479.08	16353.32
479.26	16575.67
479.44	16648.23
479.62	16723.13
479.80	16704.40
479.98	16968.88
480.16	17184.21
480.34	17142.08
480.52	17467.42
480.70	17497.84
480.88	17186.55
481.06	17689.77
481.24	17563.38
481.41	18075.96
481.59	17877.01
481.77	18071.28
481.95	18384.91
482.13	18515.98
482.31	18745.35
482.49	18810.89
482.67	18827.27
482.85	19012.17
483.03	19264.95
483.21	19452.19
483.39	19669.86
483.57	19669.86
483.74	19651.14
483.92	19910.94
484.10	19810.29
484.28	20159.03
484.46	20512.46
484.64	21200.57
484.82	20407.13
485.00	20910.35
485.18	21085.89
485.35	21376.11
485.53	21612.51
485.71	21600.80
485.89	22197.64
486.07	21715.49
486.25	21961.25
486.43	22141.47
486.61	21994.01
486.78	22616.60
486.96	22621.28
487.14	23175.98
487.32	22705.54
487.50	23426.42
487.68	23211.09
487.85	23723.67
488.03	24109.86
488.21	24325.19
488.39	23936.66
488.57	24285.40
488.75	24535.84
488.92	24683.29
489.10	24980.54
489.28	25104.59
489.46	25537.59
489.64	25193.53
489.81	25509.50
489.99	25832.49
490.17	26015.05
490.35	26316.98
490.53	25986.97
490.70	26628.27
490.88	26431.67
491.06	27143.19
491.24	27058.93
491.41	27204.05
491.59	27335.12
491.77	27491.93
491.95	27623.00
492.13	28182.39
492.30	27796.20
492.48	28271.33
492.66	28231.54
492.84	28484.32
493.01	28608.37
493.19	28940.72
493.37	28905.62
493.54	29184.14
493.72	29457.98
493.90	29252.02
494.08	29563.31
494.25	30045.46
494.43	30286.53
494.61	30340.36
494.79	30771.02
494.96	30073.54
495.14	30527.61
495.32	31108.06
495.49	31089.34
495.67	30939.54
495.85	31707.24
496.02	31346.79
496.20	31927.25
496.38	31915.54
496.55	32032.57
496.73	32390.67
496.91	32224.50
497.09	32404.72
497.26	33081.13
497.44	32648.13
497.62	32943.04
497.79	33251.99
497.97	33132.62
498.14	33883.94
498.32	33476.68
498.50	33900.32
498.67	34082.88
498.85	34139.05
499.03	34328.64
499.20	34251.40
499.38	34398.85
499.56	34946.54
499.73	34534.60
499.91	34876.32
500.08	35168.89
500.26	34424.60
500.44	34946.54
500.61	35133.78
500.79	34965.26
500.97	35604.23
501.14	35833.60
501.32	35803.17
501.49	36133.19
501.67	36182.34
501.84	36156.60
502.02	36285.33
502.20	36467.89
502.37	36868.12
502.55	36545.12
502.72	36547.47
502.90	36994.51
503.07	36760.45
503.25	36697.26
503.43	37003.87
503.60	37640.50
503.78	37645.18
503.95	37610.07
504.13	38117.96
504.30	37986.89
504.48	37848.80
504.65	38134.35
504.83	38115.62
505.01	38637.56
505.18	38567.35
505.36	38616.50
505.53	38459.68
505.71	38696.08
505.88	38586.07
506.06	38572.03
506.23	38988.64
506.41	38918.43
506.58	39676.76
506.76	39543.35
506.93	39431.01
507.11	39318.66
507.28	39660.38
507.46	39667.40
507.63	40030.18
507.81	40130.83
507.98	40025.50
508.16	40088.70
508.33	40346.15
508.50	40348.50
508.68	40435.10
508.85	41095.13
509.03	40924.27
509.20	40727.66
509.38	40985.12
509.55	41596.00
509.73	41455.57
509.90	41755.16
510.08	41294.07
510.25	41184.07
510.42	41464.93
510.60	42239.65
510.77	42490.09
510.95	42445.62
511.12	41848.78
511.30	42068.79
511.47	42328.59
511.64	42623.50
511.82	42405.83
511.99	42892.66
512.17	43166.50
512.34	42775.63
512.51	42838.83
512.69	42932.45
512.86	43161.82
513.04	43690.78
513.21	43166.50
513.38	43449.70
513.56	43695.46
513.73	43510.56
513.90	44222.08
514.08	43976.33
514.25	44219.74
514.43	44561.46
514.60	44423.37
514.77	44491.24
514.95	44720.62
515.12	44243.15
515.29	44184.63
515.47	45067.02
515.64	44516.99
515.81	44751.04
515.99	44737.00
516.16	45364.26
516.33	45333.84
516.51	45336.18
516.68	45050.63
516.85	45090.42
517.03	45368.94
517.20	45588.95
517.37	45689.60
517.54	45710.66
517.72	45368.94
517.89	45839.39
518.06	45727.05
518.24	46012.59
518.41	46218.56
518.58	46092.17
518.75	46005.57
518.93	46459.63
519.10	46705.39
519.27	46817.74
519.45	46450.27
519.62	46485.38
519.79	46745.18
519.96	46873.91
520.14	47311.59
520.31	46803.69
520.48	47215.63
520.65	47423.93
520.83	47316.27
521.00	47456.70
521.17	47178.18
521.34	47274.14
521.52	47391.17
521.69	47473.09
521.86	47473.09
522.03	48177.59
522.20	47950.56
522.38	48006.73
522.55	48006.73
522.72	48123.75
522.89	47870.98
523.07	48729.95
523.24	48479.52
523.41	48404.62
523.58	48060.56
523.75	48765.06
523.92	48516.96
524.10	48612.93
524.27	48758.04
524.44	48666.76
524.61	49029.54
524.78	48877.41
524.96	49048.27
525.13	49160.61
525.30	49490.63
525.47	49415.73
525.64	49525.74
525.81	49621.70
525.98	49588.93
526.16	49663.83
526.33	49605.31
526.50	49773.83
526.67	49301.04
526.84	49724.68
527.01	49780.85
527.18	49392.33
527.36	49762.13
527.53	50157.68
527.70	50286.41
527.87	50115.55
528.04	49918.95
528.21	50136.62
528.38	50265.34
528.55	50108.53
528.72	50365.99
528.89	50803.67
529.07	50134.28
529.24	50466.63
529.41	50670.26
529.58	50756.86
529.75	50370.67
529.92	50932.40
530.09	50646.85
530.26	50747.50
530.43	50908.99
530.60	50738.13
530.77	51327.95
530.94	51100.92
531.11	51007.29
531.28	51033.04
531.46	50934.74
531.63	51559.66
531.80	51444.98
531.97	51580.73
532.14	51688.39
532.31	51583.07
532.48	51480.08
532.65	51470.72
532.82	51529.23
532.99	51545.62
533.16	51681.37
533.33	51767.97
533.50	52273.52
533.67	52236.08
533.84	51632.22
534.01	51735.20
534.18	51782.01
534.35	52121.39
534.52	51760.95
534.69	52390.55
534.86	52161.18
535.03	52268.84
535.20	52177.56
535.37	52224.37
535.54	52112.03
535.71	52306.29
535.88	52355.44
536.05	52212.67
536.22	52570.77
536.38	52783.76
536.55	52648.01
536.72	52809.51
536.89	52507.58
537.06	52477.15
537.23	52697.16
537.40	52423.32
537.57	52399.91
537.74	52633.97
537.91	52830.57
538.08	52875.04
538.25	52652.69
538.42	53022.50
538.59	53097.39
538.75	52776.74
538.92	53041.22
539.09	52940.58
539.26	53202.72
539.43	53392.30
539.60	53478.90
539.77	53588.91
539.94	53371.24
540.11	53411.02
540.28	53289.32
540.44	53359.53
540.61	53427.41
540.78	53509.33
540.95	53492.94
541.12	53614.65
541.29	53345.49
541.46	53698.91
541.62	53404.00
541.79	53701.25
541.96	53439.11
542.13	53691.89
542.30	53577.20
542.47	54211.49
542.63	53731.68
542.80	53844.02
542.97	54468.95
543.14	54199.79
543.31	54012.54
543.48	54099.14
543.64	54363.62
543.81	54312.13
543.98	54536.82
544.15	54728.75
544.32	54410.43
544.48	54284.04
544.65	54429.16
544.82	54541.50
544.99	53876.79
545.16	54389.37
545.32	54445.54
545.49	54686.62
545.66	54770.88
545.83	54628.10
546.00	54784.92
546.16	54536.82
546.33	54625.76
546.50	54295.75
546.67	54649.17
546.83	54295.75
547.00	54639.81
547.17	54733.43
547.34	54805.98
547.50	54883.22
547.67	54997.91
547.84	54754.49
548.00	54967.48
548.17	55386.44
548.34	54899.61
548.51	55363.03
548.67	55089.19
548.84	55091.53
549.01	55185.15
549.18	55161.75
549.34	55121.96
549.51	55337.29
549.68	55260.05
549.84	55124.30
550.01	55257.71
550.18	54993.23
550.34	55554.96
550.51	55187.49
550.68	55302.18
550.84	55419.20
551.01	55489.42
551.18	55356.01
551.34	55187.49
551.51	55407.50
551.68	55473.04
551.84	55601.77
552.01	55442.61
552.18	55664.96
552.34	55442.61
552.51	55772.63
552.68	55880.29
552.84	55370.05
553.01	55840.50
553.18	55629.85
553.34	55777.31
553.51	55650.92
553.67	55723.47
553.84	56254.78
554.01	55891.99
554.17	55908.38
554.34	55800.71
554.51	55931.78
554.67	56088.60
554.84	55847.52
555.00	55856.88
555.17	55887.31
555.33	56058.17
555.50	55772.63
555.67	55835.82
555.83	55973.91
556.00	55906.04
556.16	56317.97
556.33	56324.99
556.50	56332.01
556.66	56360.10
556.83	56116.68
556.99	56259.46
557.16	56388.19
557.32	56336.69
557.49	56348.40
557.65	55943.48
557.82	56261.80
557.98	55976.25
558.15	56261.80
558.32	56374.14
558.48	56416.27
558.65	56472.45
558.81	56594.15
558.98	56444.36
559.14	56596.49
559.31	56458.40
559.47	56292.22
559.64	56355.42
559.80	56458.40
559.97	56549.68
560.13	56341.38
560.30	56540.32
560.46	56598.83
560.63	56385.85
560.79	56573.09
560.96	56491.17
561.12	56530.96
561.29	56589.47
561.45	56437.34
561.61	56760.33
561.78	56802.46
561.94	56580.11
562.11	56804.80
562.27	56687.78
562.44	56577.77
562.60	56748.63
562.77	56514.58
562.93	56645.65
563.10	56952.26
563.26	56636.28
563.42	57057.58
563.59	56828.21
563.75	56994.39
563.92	56886.72
564.08	56528.62
564.24	56828.21
564.41	56765.01
564.57	56638.62
564.74	56842.25
564.90	56711.18
565.07	56666.71
565.23	56968.64
565.39	56584.79
565.56	56963.96
565.72	56800.12
565.88	56942.89
566.05	56619.90
566.21	56673.73
566.38	56736.93
566.54	56715.86
566.70	57265.89
566.87	57212.06
567.03	56769.69
567.19	57076.30
567.36	57043.54
567.52	56844.59
567.68	57221.42
567.85	56748.63
568.01	57022.47
568.17	56989.70
568.34	56903.10
568.50	57202.69
568.66	57085.67
568.83	57256.53
568.99	56992.04
569.15	56879.70
569.32	56907.79
569.48	56896.08
569.64	56750.97
569.81	56870.34
569.97	57083.33
570.13	57099.71
570.30	56975.66
570.46	57008.43
570.62	57282.27
570.78	57088.01
570.95	56942.89
571.11	57015.45
571.27	56877.36
571.43	57001.41
571.60	56886.72
571.76	57123.11
571.92	57069.28
572.09	57338.44
572.25	57106.73
572.41	57022.47
572.57	57057.58
572.74	57162.90
572.90	56970.98
573.06	57214.40
573.22	56839.91
573.38	57291.63
573.55	57240.14
573.71	57343.12
573.87	57460.15
574.03	57340.78
574.20	57488.24
574.36	57249.50
574.52	57144.18
574.68	57165.24
574.84	57305.68
575.01	57190.99
575.17	57396.96
575.33	57359.51
575.49	57071.62
575.65	57415.68
575.82	57237.80
575.98	57024.81
576.14	57361.85
576.30	57619.31
576.46	56999.07
576.62	56996.73
576.79	57282.27
576.95	56945.23
577.11	57181.63
577.27	57216.74
577.43	57195.67
577.59	57116.09
577.75	57284.61
577.92	57162.90
578.08	57272.91
578.24	56975.66
578.40	57139.50
578.56	57495.26
578.72	57411.00
578.88	57354.83
579.04	57425.04
579.21	57055.24
579.37	57462.49
579.53	57237.80
579.69	57382.91
579.85	57230.78
580.01	57371.21
580.17	57352.49
580.33	57354.83
580.49	57205.03
580.65	57492.92
580.82	57474.20
580.98	57338.44
581.14	57296.31
581.30	57361.85
581.46	57144.18
581.62	57364.19
581.78	57176.95
581.94	57403.98
582.10	57326.74
582.26	57354.83
582.42	57282.27
582.58	57450.79
582.74	57551.43
582.90	57490.58
583.06	57708.25
583.22	57378.23
583.38	57389.94
583.54	57324.40
583.70	57190.99
583.86	57350.15
584.02	57144.18
584.18	57544.41
584.34	57450.79
584.50	57436.75
584.66	57516.32
584.82	57427.38
584.98	57293.97
585.14	57123.11
585.30	57055.24
585.46	57375.89
585.62	57029.49
585.78	57574.84
585.94	57275.25
586.10	57605.26
586.26	57724.63
586.42	57645.05
586.58	57471.85
586.74	57371.21
586.90	57198.01
587.06	57331.42
587.22	57359.51
587.38	57272.91
587.54	57462.49
587.70	57628.67
587.86	57654.42
588.02	57436.75
588.18	57471.85
588.34	57532.71
588.49	57542.07
588.65	57347.81
588.81	57602.92
588.97	57436.75
589.13	57623.99
589.29	57605.26
589.45	57434.41
589.61	57588.88
589.77	57785.49
589.93	57722.29
590.08	57797.19
590.24	57661.44
590.40	57670.80
590.56	57556.11
590.72	57521.01
590.88	57228.44
591.04	57471.85
591.20	57869.75
591.35	57783.15
591.51	57689.52
591.67	57640.37
591.83	57834.64
591.99	57598.24
592.15	57694.21
592.31	57546.75
592.46	57598.24
592.62	57448.45
592.78	57532.71
592.94	57532.71
593.10	57607.61
593.26	57635.69
593.41	57778.46
593.57	57752.72
593.73	57647.39
593.89	57715.27
594.05	57509.30
594.20	57460.15
594.36	57659.10
594.52	57485.90
594.68	57537.39
594.84	57387.60
594.99	57612.29
595.15	57757.40
595.31	57778.46
595.47	57712.93
595.62	57783.15
595.78	57776.12
595.94	57560.79
596.10	57567.82
596.25	57647.39
596.41	57698.89
596.57	57439.09
596.73	57668.46
596.88	57413.34
597.04	57818.25
597.20	57832.30
597.36	57818.25
597.51	57792.51
597.67	57773.78
597.83	57888.47
597.99	57872.09
598.14	57661.44
598.30	57593.56
598.46	57518.67
598.61	57607.61
598.77	57881.45
598.93	57738.68
599.09	57729.31
599.24	57925.92
599.40	57776.12
599.56	57867.40
599.71	57638.03
599.87	57858.04
600.03	57633.35
600.18	57694.21
600.34	57614.63
600.50	57684.84
600.65	57879.11
600.81	57820.59
600.97	57755.06
601.12	57946.98
601.28	57979.75
601.44	57984.43
601.59	57698.89
601.75	57757.40
601.91	57928.26
602.06	57631.01
602.22	57623.99
602.37	57659.10
602.53	57801.87
602.69	57820.59
602.84	57738.68
603.00	58003.16
603.16	57645.05
603.31	57677.82
603.47	57755.06
603.62	57851.02
603.78	57668.46
603.94	57675.48
604.09	57661.44
604.25	57701.23
604.40	57785.49
604.56	57741.02
604.71	57808.89
604.87	57631.01
605.03	57923.58
605.18	57614.63
605.34	57506.96
605.49	57343.12
605.65	57745.70
605.80	57408.66
605.96	57553.77
606.12	57322.06
606.27	57808.89
606.43	57350.15
606.58	57591.22
606.74	57497.60
606.89	57549.09
607.05	57654.42
607.20	57631.01
607.36	57572.50
607.51	57506.96
607.67	57434.41
607.82	57499.94
607.98	57235.46
608.13	57530.37
608.29	57478.88
608.44	57668.46
608.60	57331.42
608.75	57591.22
608.91	57628.67
609.06	57270.57
609.22	57542.07
609.37	57371.21
609.53	57469.51
609.68	57528.03
609.84	57293.97
609.99	57352.49
610.15	57160.56
610.30	57258.87
610.46	57319.72
610.61	57478.88
610.76	57219.08
610.92	57469.51
611.07	57151.20
611.23	57305.68
611.38	57425.04
611.54	57359.51
611.69	57174.61
611.84	57174.61
612.00	57158.22
612.15	56985.02
612.31	57396.96
612.46	57254.18
612.62	57289.29
612.77	57263.55
612.92	57544.41
613.08	57305.68
613.23	57282.27
613.39	57116.09
613.54	57055.24
613.69	57207.37
613.85	56985.02
614.00	56989.70
614.15	57153.54
614.31	56931.19
614.46	57151.20
614.62	56968.64
614.77	57350.15
614.92	57153.54
615.08	57116.09
615.23	57137.16
615.38	57083.33
615.54	56996.73
615.69	56825.87
615.84	56676.07
616.00	56931.19
616.15	56772.03
616.30	57034.17
616.46	56879.70
616.61	57059.92
616.76	57078.64
616.92	56802.46
617.07	56860.97
617.22	56849.27
617.37	56772.03
617.53	56711.18
617.68	56701.82
617.83	56655.01
617.99	56882.04
618.14	56655.01
618.29	56863.32
618.45	57022.47
618.60	56811.82
618.75	56587.13
618.90	56615.22
619.06	56694.80
619.21	56633.94
619.36	56741.61
619.51	56420.95
619.67	56306.27
619.82	56362.44
619.97	56203.28
620.12	56697.14
620.28	56289.88
620.43	56453.72
620.58	56493.51
620.73	56470.11
620.89	56673.73
621.04	56612.88
621.19	56655.01
621.34	56442.02
621.49	56306.27
621.65	56207.97
621.80	56444.36
621.95	56303.93
622.10	56343.72
622.25	56170.52
622.41	56456.06
622.56	56294.56
622.71	56467.76
622.86	56182.22
623.01	56226.69
623.16	56247.75
623.32	55957.53
623.47	55997.32
623.62	55962.21
623.77	55819.44
623.92	56177.54
624.07	56254.78
624.23	56158.81
624.38	56034.77
624.53	56229.03
624.68	56062.85
624.83	56079.24
624.98	56088.60
625.13	55781.99
625.29	55763.26
625.44	55992.64
625.59	56030.08
625.74	55697.73
625.89	55765.60
626.04	55814.76
626.19	55683.69
626.34	55737.52
626.49	55793.69
626.65	55760.92
626.80	55697.73
626.95	55615.81
627.10	55756.24
627.25	55763.26
627.40	55370.05
627.55	55767.94
627.70	55075.15
627.85	55618.15
628.00	55290.48
628.15	55484.74
628.30	55356.01
628.45	55547.93
628.60	55391.12
628.76	55306.86
628.91	55763.26
629.06	55440.27
629.21	55496.44
629.36	55414.52
629.51	55379.42
629.66	55435.59
629.81	55021.31
629.96	55152.38
630.11	55159.41
630.26	55238.98
630.41	55028.34
630.56	55028.34
630.71	55068.12
630.86	55222.60
631.01	55309.20
631.16	55290.48
631.31	55246.00
631.46	55117.28
631.61	55196.85
631.76	55051.74
631.91	55070.46
632.06	54894.92
632.21	55040.04
632.36	54934.71
632.51	54871.52
632.66	54930.03
632.81	55018.97
632.96	55014.29
633.10	54817.69
633.25	54773.22
633.40	54768.54
633.55	54754.49
633.70	54930.03
633.85	54663.21
634.00	54794.28
634.15	54642.15
634.30	54497.03
634.45	54616.40
634.60	54672.57
634.75	54969.82
634.90	54532.14
635.05	54887.90
635.19	54717.04
635.34	54681.94
635.49	54864.50
635.64	54679.60
635.79	54511.08
635.94	54501.71
636.09	54625.76
636.24	54440.86
636.39	54246.60
636.53	54410.43
636.68	54644.49
636.83	54468.95
636.98	54560.23
637.13	54344.90
637.28	54480.65
637.43	54564.91
637.57	54398.73
637.72	54176.38
637.87	54103.82
638.02	54349.58
638.17	54080.42
638.32	54195.10
638.46	53764.45
638.61	53886.15
638.76	53900.20
638.91	54024.25
639.06	54068.72
639.20	54059.35
639.35	54246.60
639.50	54209.15
639.65	54136.59
639.80	54099.14
639.94	54005.52
640.09	54028.93
640.24	53977.43
640.39	53897.86
640.54	53879.13
640.68	53624.01
640.83	53682.53
640.98	53509.33
641.13	53567.84
641.27	53818.28
641.42	53628.69
641.57	53609.97
641.72	53851.05
641.86	53708.27
642.01	53832.32
642.16	53607.63
642.31	53315.06
642.45	53759.76
642.60	53308.04
642.75	53420.39
642.90	53570.18
643.04	53284.64
643.19	53429.75
643.34	53429.75
643.48	53130.16
643.63	53563.16
643.78	53642.74
643.93	53935.30
644.07	53265.91
644.22	53301.02
644.37	53205.06
644.51	53584.22
644.66	53209.74
644.81	53099.73
644.95	53127.82
645.10	52886.74
645.25	53191.01
645.39	53265.91
645.54	53099.73
645.69	53389.96
645.83	53305.70
645.98	53364.21
646.13	53549.12
646.27	53095.05
646.42	53029.52
646.57	53064.63
646.71	53205.06
646.86	53193.36
647.00	52861.00
647.15	52989.73
647.30	52713.55
647.44	52648.01
647.59	53006.11
647.74	52453.75
647.88	52505.24
648.03	52912.49
648.17	53097.39
648.32	52863.34
648.47	52905.47
648.61	52898.45
648.76	52882.06
648.90	52580.13
649.05	52467.79
649.20	52650.35
649.34	52336.72
649.49	52523.96
649.63	52498.22
649.78	52512.26
649.92	52261.82
650.07	52804.83
650.21	52591.84
650.36	52428.00
650.51	52030.11
650.65	52692.48
650.80	52882.06
650.94	52767.38
651.09	52397.57
651.23	52367.15
651.38	52383.53
651.52	52397.57
651.67	52147.14
651.81	52243.10
651.96	52023.09
652.10	52116.71
652.25	52224.37
652.39	52231.40
652.54	52629.29
652.68	52182.24
652.83	52301.61
652.97	52367.15
653.12	52126.07
653.26	52088.62
653.41	52100.32
653.55	51711.80
653.70	51573.70
653.84	51763.29
653.99	51999.68
654.13	51758.61
654.27	51749.24
654.42	51971.60
654.56	51751.59
654.71	51997.34
654.85	51971.60
655.00	51943.51
655.14	51845.21
655.29	51840.53
655.43	51526.89
655.57	51725.84
655.72	51604.13
655.86	51444.98
656.01	51341.99
656.15	51363.06
656.30	51302.20
656.44	51222.62
656.58	51194.54
656.73	51327.95
656.87	51054.11
657.01	51583.07
657.16	51554.98
657.30	51622.86
657.45	51428.59
657.59	51250.71
657.73	50918.35
657.88	51222.62
658.02	51433.27
658.16	50995.59
658.31	51178.15
658.45	51344.33
658.60	50738.13
658.74	51011.98
658.88	50871.54
659.03	50916.01
659.17	50934.74
659.31	50920.70
659.46	50789.62
659.60	51089.21
659.74	51267.09
659.89	50852.82
660.03	50890.27
660.17	50791.97
660.32	50333.22
660.46	50454.93
660.60	50239.60
660.74	50499.40
660.89	50227.90
661.03	50436.20
661.17	50377.69
661.32	50206.83
661.46	50223.22
661.60	49963.42
661.74	50576.64
661.89	50246.62
662.03	50363.65
662.17	50073.42
662.31	49717.66
662.46	50096.83
662.60	49837.03
662.74	49820.64
662.88	49364.24
663.03	49668.51
663.17	49640.42
663.31	49247.21
663.45	49354.88
663.60	49518.71
663.74	48928.90
663.88	49352.54
664.02	49631.06
664.17	49701.28
664.31	49518.71
664.45	49319.77
664.59	49556.16
664.73	49268.28
664.88	49607.65
665.02	48385.89
665.16	48694.85
665.30	48584.84
665.44	48575.48
665.59	48484.20
665.73	48589.52
665.87	48303.98
666.01	48940.60
666.15	48854.00
666.29	48549.73
666.44	48657.40
666.58	48554.41
666.72	48453.77
666.86	48559.09
667.00	48556.75
667.14	48556.75
667.28	48364.83
667.43	48243.12
667.57	47959.92
667.71	47936.51
667.85	47973.96
667.99	47533.94
668.13	47547.98
668.27	47379.46
668.41	47634.58
668.56	47463.72
668.70	47821.83
668.84	47723.52
668.98	47409.89
669.12	47274.14
669.26	47213.29
669.40	47302.23
669.54	46988.60
669.68	47164.14
669.82	46845.82
669.96	46784.97
670.10	46756.88
670.25	46981.57
670.39	46696.03
670.53	46293.46
670.67	46103.87
670.81	46550.91
670.95	46593.04
671.09	46546.23
671.23	46588.36
671.37	46611.77
671.51	46532.19
671.65	46609.43
671.79	46007.91
671.93	46094.51
672.07	46291.12
672.21	45799.60
672.35	45815.99
672.49	45752.79
672.63	45645.13
672.77	45607.68
672.91	45626.40
673.05	45167.66
673.19	45382.99
673.33	45268.30
673.47	45359.58
673.61	45390.01
673.75	45294.05
673.89	45319.79
674.03	44839.98
674.17	44612.95
674.31	44676.15
674.45	44465.50
674.59	44360.17
674.73	44360.17
674.87	44566.14
675.01	44465.50
675.15	44158.89
675.29	44088.67
675.43	44048.88
675.56	44196.34
675.70	44245.49
675.84	44011.43
675.98	42831.80
676.12	44009.09
676.26	43840.57
676.40	43821.85
676.54	43452.05
676.68	43255.44
676.82	42546.26
676.96	43295.23
677.10	42941.81
677.23	42782.65
677.37	42223.26
677.51	42234.97
677.65	42359.02
677.79	41741.11
677.93	42230.29
678.07	41495.36
678.21	42302.84
678.34	41750.48
678.48	41656.85
678.62	41801.97
678.76	41617.07
678.90	41214.49
679.04	41289.39
679.18	40746.39
679.31	40643.40
679.45	40868.09
679.59	40453.82
679.73	40390.62
679.87	40397.65
680.00	40257.21
680.14	40257.21
680.28	39723.57
680.42	39936.56
680.56	39709.53
680.70	39948.26
680.83	39800.81
680.97	39761.02
681.11	40030.18
681.25	39522.29
681.39	39768.04
681.52	39681.44
681.66	39409.94
681.80	39246.10
681.94	38749.91
682.07	38635.22
682.21	38642.24
682.35	38319.25
682.49	38731.18
682.62	38333.29
682.76	37984.55
682.90	38213.93
683.04	37853.48
683.17	38195.20
683.31	37750.50
683.45	37347.93
683.59	38167.12
683.72	37577.30
683.86	37294.10
684.00	36793.22
684.13	36727.69
684.27	36561.51
684.41	37027.28
684.55	36940.68
684.68	36933.65
684.82	36664.49
684.96	36170.64
685.09	36318.09
685.23	36037.23
685.37	36128.51
685.50	35903.82
685.64	35934.24
685.78	35761.05
685.91	35852.33
686.05	35758.70
686.19	35145.48
686.32	35124.42
686.46	35023.78
686.60	34873.98
686.73	34675.04
686.87	34607.16
687.01	34389.49
687.14	34525.24
687.28	34174.16
687.42	34387.15
687.55	34061.82
687.69	34113.31
687.82	33792.65
687.96	34066.50
688.10	33907.34
688.23	34160.12
688.37	34010.32
688.50	33542.22
688.64	33666.27
688.78	33191.14
688.91	33120.92
689.05	33118.58
689.18	33074.11
689.32	31927.25
689.46	32264.28
689.59	32168.32
689.73	32287.69
689.86	31775.11
690.00	31990.44
690.13	32030.23
690.27	32098.11
690.41	31831.29
690.54	31655.75
690.68	31487.23
690.81	31880.44
690.95	31522.34
691.08	31578.51
691.22	31372.54
691.35	31428.71
691.49	31094.02
691.62	30710.17
691.76	30590.80
691.89	30452.71
692.03	30635.27
692.16	30122.69
692.30	30237.38
692.43	29888.64
692.57	29921.41
692.70	30279.51
692.84	29792.68
692.97	29947.15
693.11	30108.65
693.24	29228.61
693.38	29598.41
693.51	29443.94
693.65	29497.77
693.78	29074.13
693.92	29237.97
694.05	29132.65
694.19	28973.49
694.32	28737.10
694.45	28802.63
694.59	28442.19
694.72	28334.53
694.86	27950.68
694.99	27985.79
695.13	27639.39
695.26	27924.93
695.39	27740.03
695.53	27559.81
695.66	27676.83
695.80	27613.64
695.93	27688.54
696.07	27594.92
696.20	27358.52
696.33	27187.66
696.47	27082.34
696.60	26925.52
696.73	27007.44
696.87	26829.56
697.00	26263.15
697.14	26256.13
697.27	25703.76
697.40	25722.49
697.54	25432.26
697.67	26005.69
697.80	25530.56
697.94	25310.55
698.07	25312.89
698.21	25483.75
698.34	25397.15
698.47	25584.40
698.61	25191.19
698.74	25170.12
698.87	25104.59
699.01	25191.19
699.14	24713.72
699.27	24924.36
699.40	24627.12
699.54	24350.93
699.67	24311.14
699.80	24102.84
699.94	23936.66
700.07	24051.34
700.20	23653.45
700.34	23644.09
700.47	23405.36
700.60	23726.01
700.73	23543.45
700.87	23782.18
701.00	23365.57
701.13	23314.08
701.26	23304.71
701.40	23264.92
701.53	22827.24
701.66	22902.14
701.79	22398.93
701.93	22796.82
702.06	22544.04
702.19	22515.95
702.32	22228.07
702.46	21862.94
702.59	21774.00
702.72	21846.56
702.85	21872.31
702.99	21610.17
703.12	21748.26
703.25	21596.12
703.38	21174.83
703.51	21500.16
703.65	21549.31
703.78	21212.28
703.91	21219.30
704.04	21270.79
704.17	21149.08
704.31	20788.64
704.44	20723.10
704.57	20528.84
704.70	20233.93
704.83	20079.46
704.96	20053.71
705.10	20102.86
705.23	20219.89
>>>>>End Processed Spectral Data<<<<<
