SpectraSuite Data File
++++++++++++++++++++++++++++++++++++
Date: Fri Oct 18 13:54:24 GMT-05:00 2013
User: bianchi
Dark Spectrum Present: No
Reference Spectrum Present: No
Number of Sampled Component Spectra: 1
Spectrometers: USB2+H05261
Integration Time (usec): 100000 (USB2+H05261)
Spectra Averaged: 1 (USB2+H05261)
Boxcar Smoothing: 0 (USB2+H05261)
Correct for Electrical Dark: No (USB2+H05261)
Strobe/Lamp Enabled: No (USB2+H05261)
Correct for Detector Non-linearity: No (USB2+H05261)
Correct for Stray Light: No (USB2+H05261)
Number of Pixels in Processed Spectrum: 2048
>>>>>Begin Processed Spectral Data<<<<<
365.73	0.00
365.92	0.00
366.12	0.00
366.32	0.00
366.52	0.00
366.72	0.00
366.91	0.00
367.11	0.00
367.31	0.00
367.51	0.00
367.70	0.00
367.90	0.00
368.10	0.00
368.30	0.00
368.49	0.00
368.69	0.00
368.89	0.00
369.09	0.00
369.28	0.00
369.48	0.00
369.68	0.00
369.87	0.00
370.07	0.00
370.27	0.00
370.47	9.36
370.66	271.50
370.86	215.33
371.06	308.95
371.25	365.12
371.45	311.29
371.65	400.23
371.84	327.68
372.04	290.23
372.24	367.46
372.44	332.36
372.63	334.70
372.83	447.04
373.03	423.64
373.22	411.93
373.42	484.49
373.62	475.13
373.81	475.13
374.01	447.04
374.21	538.32
374.40	472.79
374.60	496.19
374.79	486.83
374.99	465.77
375.19	505.56
375.38	500.87
375.58	463.43
375.78	545.34
375.97	503.22
376.17	613.22
376.37	475.13
376.56	540.66
376.76	489.17
376.95	519.60
377.15	596.84
377.35	519.60
377.54	545.34
377.74	477.47
377.93	498.53
378.13	561.73
378.33	608.54
378.52	543.00
378.72	564.07
378.91	615.56
379.11	594.50
379.31	641.31
379.50	538.32
379.70	631.94
379.89	669.39
380.09	678.76
380.28	610.88
380.48	533.64
380.68	660.03
380.87	629.60
381.07	685.78
381.26	683.44
381.46	622.58
381.65	613.22
381.85	690.46
382.04	725.57
382.24	589.82
382.43	706.84
382.63	772.38
382.83	690.46
383.02	634.29
383.22	688.12
383.41	716.20
383.61	706.84
383.80	786.42
384.00	805.14
384.19	734.93
384.39	805.14
384.58	784.08
384.78	713.86
384.97	861.32
385.17	826.21
385.36	760.67
385.56	844.93
385.75	777.06
385.95	833.23
386.14	882.38
386.34	830.89
386.53	821.53
386.72	851.96
386.92	830.89
387.11	985.37
387.31	802.80
387.50	807.48
387.70	793.44
387.89	763.01
388.09	952.60
388.28	826.21
388.48	814.51
388.67	950.26
388.86	936.21
389.06	933.87
389.25	947.92
389.45	959.62
389.64	877.70
389.84	1046.22
390.03	1053.24
390.22	1013.45
390.42	978.34
390.61	976.00
390.81	1027.50
391.00	1074.31
391.19	1039.20
391.39	992.39
391.58	1078.99
391.78	1067.28
391.97	1041.54
392.16	1053.24
392.36	1076.65
392.55	1086.01
392.75	1130.48
392.94	1156.22
393.13	1219.42
393.33	1125.80
393.52	1137.50
393.71	1111.75
393.91	1135.16
394.10	1076.65
394.29	1177.29
394.49	1137.50
394.68	1139.84
394.88	1128.14
395.07	1329.42
395.26	1193.67
395.46	1200.69
395.65	1207.72
395.84	1193.67
396.04	1324.74
396.23	1357.51
396.42	1385.60
396.62	1357.51
396.81	1411.34
397.00	1322.40
397.19	1380.92
397.39	1259.21
397.58	1404.32
397.77	1409.00
397.97	1425.39
398.16	1352.83
398.35	1434.75
398.55	1437.09
398.74	1483.90
398.93	1519.01
399.12	1481.56
399.32	1394.96
399.51	1416.02
399.70	1521.35
399.90	1533.05
400.09	1638.38
400.28	1593.90
400.47	1568.16
400.67	1629.01
400.86	1631.35
401.05	1586.88
401.24	1696.89
401.44	1643.06
401.63	1694.55
401.82	1657.10
402.01	1631.35
402.21	1706.25
402.40	1743.70
402.59	1699.23
402.78	1785.83
402.97	1902.86
403.17	1874.77
403.36	1870.09
403.55	1816.26
403.74	1912.22
403.93	1921.58
404.13	1998.82
404.32	2024.56
404.51	1959.03
404.70	1956.69
404.89	1914.56
405.09	2029.24
405.28	1994.14
405.47	2045.63
405.66	2012.86
405.85	2019.88
406.05	2092.44
406.24	2108.82
406.43	2118.18
406.62	2120.53
406.81	2246.91
407.00	2183.72
407.20	2054.99
407.39	2132.23
407.58	2209.47
407.77	2347.56
407.96	2326.49
408.15	2319.47
408.34	2228.19
408.54	2363.94
408.73	2377.98
408.92	2387.35
409.11	2506.71
409.30	2408.41
409.49	2443.52
409.68	2476.29
409.87	2480.97
410.07	2462.24
410.26	2483.31
410.45	2541.82
410.64	2619.06
410.83	2757.15
411.02	2649.49
411.21	2595.65
411.40	2717.36
411.59	2539.48
411.78	2703.32
411.98	2773.53
412.17	2839.07
412.36	2815.66
412.55	2928.01
412.74	2967.80
412.93	2848.43
413.12	2923.33
413.31	3052.06
413.50	2970.14
413.69	3052.06
413.88	3141.00
414.07	3096.53
414.26	3213.56
414.45	3272.07
414.64	3274.41
414.83	3288.45
415.02	3393.78
415.22	3398.46
415.41	3496.76
415.60	3419.52
415.79	3531.87
415.98	3487.40
416.17	3569.32
416.36	3569.32
416.55	3562.30
416.74	3646.55
416.93	3571.66
417.12	3646.55
417.31	3641.87
417.50	3653.58
417.69	3723.79
417.88	3815.07
418.07	3868.91
418.26	3819.75
418.45	3967.21
418.64	4009.34
418.83	4009.34
419.02	3971.89
419.21	4180.20
419.39	4067.85
419.58	3817.41
419.77	4009.34
419.96	4060.83
420.15	4065.51
420.34	4060.83
420.53	4128.70
420.72	4210.62
420.91	4248.07
421.10	4346.37
421.29	4369.78
421.48	4238.71
421.67	4418.93
421.86	4229.35
422.05	4440.00
422.24	4400.21
422.43	4428.29
422.61	4526.60
422.80	4564.04
422.99	4304.25
423.18	4524.26
423.37	4538.30
423.56	4650.64
423.75	4451.70
423.94	4383.82
424.13	4222.33
424.32	4355.74
424.50	4638.94
424.69	4723.20
424.88	4578.09
425.07	4442.34
425.26	4451.70
425.45	4468.08
425.64	4484.47
425.83	4437.66
426.01	4779.37
426.20	4641.28
426.39	4617.88
426.58	4624.90
426.77	4585.11
426.96	4638.94
427.15	4657.67
427.33	4671.71
427.52	4826.18
427.71	4767.67
427.90	4674.05
428.09	4793.42
428.28	4990.02
428.46	5001.72
428.65	4865.97
428.84	5015.77
429.03	4924.49
429.22	4870.65
429.40	4973.64
429.59	5076.62
429.78	4891.72
429.97	4819.16
430.16	4910.44
430.34	5132.79
430.53	5214.71
430.72	5221.74
430.91	5027.47
431.10	5057.90
431.28	5270.89
431.47	5357.49
431.66	5322.38
431.85	5132.79
432.03	5511.96
432.22	5561.11
432.41	5504.94
432.60	5404.30
432.79	5427.70
432.97	5554.09
433.16	5556.43
433.35	5458.13
433.54	5458.13
433.72	5647.71
433.91	5533.03
434.10	5600.90
434.28	5596.22
434.47	5701.54
434.66	5753.04
434.85	5636.01
435.03	5846.66
435.22	5776.44
435.41	5874.74
435.59	5872.40
435.78	5827.93
435.97	6043.26
436.16	6150.93
436.34	5886.45
436.53	5902.83
436.72	6113.48
436.90	5996.45
437.09	6235.19
437.28	5888.79
437.46	6047.94
437.65	6122.84
437.84	6223.48
438.02	5954.32
438.21	6228.17
438.40	6162.63
438.58	6464.56
438.77	6473.92
438.96	6284.34
439.14	6576.91
439.33	6576.91
439.52	6672.87
439.70	6743.08
439.89	6712.66
440.08	6649.46
440.26	6782.87
440.45	6839.05
440.63	6951.39
440.82	7173.74
441.01	7007.56
441.19	6991.18
441.38	7000.54
441.57	7173.74
441.75	7222.89
441.94	7403.11
442.12	7445.24
442.31	7667.60
442.50	7410.14
442.68	7445.24
442.87	7346.94
443.05	7414.82
443.24	7714.41
443.43	7541.21
443.61	7606.74
443.80	7723.77
443.98	7482.69
444.17	7307.15
444.35	7494.40
444.54	7700.36
444.73	7702.70
444.91	7606.74
445.10	7641.85
445.28	7414.82
445.47	7592.70
445.65	7728.45
445.84	7602.06
446.02	7845.48
446.21	7667.60
446.39	7712.07
446.58	7815.05
446.77	7875.90
446.95	7723.77
447.14	7822.07
447.32	7908.67
447.51	7824.41
447.69	7646.53
447.88	7786.96
448.06	7747.17
448.25	7779.94
448.43	7878.24
448.62	7894.63
448.80	7770.58
448.99	7936.76
449.17	8002.29
449.36	7896.97
449.54	8149.75
449.73	8318.26
449.91	8336.99
450.10	8067.83
450.28	8416.57
450.46	8407.20
450.65	8201.24
450.83	8280.82
451.02	8304.22
451.20	8636.58
451.39	8650.62
451.57	8479.76
451.76	8346.35
451.94	8596.79
452.13	8819.14
452.31	8512.53
452.49	8503.17
452.68	8557.00
452.86	8627.21
453.05	8704.45
453.23	8882.33
453.42	8610.83
453.60	8599.13
453.78	8887.01
453.97	8606.15
454.15	8599.13
454.34	8915.10
454.52	8809.78
454.70	8945.53
454.89	9008.72
455.07	9034.47
455.26	9055.53
455.44	9064.89
455.62	9231.07
455.81	9114.05
455.99	9235.75
456.17	9231.07
456.36	9392.57
456.54	9296.61
456.73	9371.50
456.91	9612.58
457.09	9556.41
457.28	9624.28
457.46	9320.01
457.64	9525.98
457.83	9762.37
458.01	9479.17
458.19	9743.65
458.38	9846.63
458.56	9886.42
458.74	9872.38
458.93	9785.78
459.11	9877.06
459.29	9708.54
459.48	9956.64
459.66	9928.55
459.84	10125.16
460.03	10139.20
460.21	10015.15
460.39	9982.38
460.57	10249.21
460.76	10186.01
460.94	10303.04
461.12	10228.14
461.31	10239.84
461.49	10410.70
461.67	10326.44
461.85	10532.41
462.04	10576.88
462.22	11030.94
462.40	10569.86
462.59	10427.09
462.77	10724.33
462.95	10752.42
463.13	10663.48
463.32	10633.05
463.50	10721.99
463.68	10665.82
463.86	10946.69
464.05	10670.50
464.23	10911.58
464.41	10993.50
464.59	10642.42
464.78	10993.50
464.96	10860.09
465.14	10707.95
465.32	11236.91
465.50	11098.82
465.69	11026.26
465.87	11075.42
466.05	11080.10
466.23	11187.76
466.41	11358.62
466.60	11492.03
466.78	11089.46
466.96	11105.84
467.14	11014.56
467.32	11073.07
467.51	11356.28
467.69	10916.26
467.87	11660.55
468.05	11454.58
468.23	11487.35
468.41	11379.68
468.60	11569.27
468.78	11793.96
468.96	11396.07
469.14	11716.72
469.32	11901.62
469.50	11541.18
469.69	12088.87
469.87	12030.35
470.05	12131.00
470.23	12241.00
470.41	11836.09
470.59	12013.97
470.77	11941.41
470.95	12182.49
471.14	12428.24
471.32	12119.29
471.50	12587.40
471.68	12430.59
471.86	12381.43
472.04	12624.85
472.22	12772.30
472.40	12748.90
472.58	12657.62
472.77	12755.92
472.95	12695.07
473.13	13268.50
473.31	12945.50
473.49	12940.82
473.67	12950.18
473.85	13121.04
474.03	13252.11
474.21	13228.71
474.39	13404.25
474.57	13434.68
474.75	13708.52
474.93	13774.05
475.12	13689.79
475.30	13788.10
475.48	13862.99
475.66	13752.99
475.84	13827.88
476.02	13879.38
476.20	13834.91
476.38	14202.37
476.56	14401.32
476.74	14501.96
476.92	14387.27
477.10	14609.62
477.28	15035.60
477.46	14750.06
477.64	14710.27
477.82	14911.55
478.00	15356.25
478.18	15377.32
478.36	15473.28
478.54	15555.20
478.72	15871.17
478.90	15995.22
479.08	16081.82
479.26	16325.24
479.44	16044.37
479.62	16484.39
479.80	16421.20
479.98	16659.93
480.16	17137.40
480.34	16863.56
480.52	16950.16
480.70	16835.47
480.88	16861.22
481.06	16985.27
481.24	17338.69
481.41	17497.84
481.59	17619.55
481.77	17701.47
481.95	17940.21
482.13	17893.40
482.31	18129.79
482.49	18539.38
482.67	18106.38
482.85	18473.85
483.03	18602.58
483.21	18892.80
483.39	18981.74
483.57	19213.46
483.74	19278.99
483.92	19183.03
484.10	19611.35
484.28	19936.68
484.46	20247.97
484.64	20409.47
484.82	19978.81
485.00	20353.30
485.18	20765.23
485.35	20968.86
485.53	20917.37
485.71	20868.22
485.89	21710.81
486.07	21383.13
486.25	21575.06
486.43	21474.42
486.61	21832.52
486.78	22097.00
486.96	22263.18
487.14	22429.35
487.32	22771.07
487.50	22661.07
487.68	22934.91
487.85	23122.15
488.03	23171.30
488.21	23854.74
488.39	23784.52
488.57	23747.08
488.75	23838.36
488.92	24278.38
489.10	24423.49
489.28	24350.93
489.46	24807.34
489.64	24477.32
489.81	25238.00
489.99	25446.30
490.17	25521.20
490.35	25556.31
490.53	25504.82
490.70	26001.01
490.88	25736.53
491.06	26115.70
491.24	26422.31
491.41	26487.84
491.59	26361.45
491.77	26548.70
491.95	27297.67
492.13	27201.71
492.30	27321.07
492.48	27232.13
492.66	27538.74
492.84	27402.99
493.01	28065.36
493.19	28353.25
493.37	28694.97
493.54	28240.90
493.72	28589.64
493.90	28835.40
494.08	28783.91
494.25	29270.74
494.43	29202.86
494.61	29867.58
494.79	29558.63
494.96	29312.87
495.14	30174.19
495.32	30354.41
495.49	30183.55
495.67	30253.76
495.85	30890.39
496.02	30703.15
496.20	30654.00
496.38	31061.25
496.55	30897.41
496.73	31920.23
496.91	31887.46
497.09	31559.78
497.26	32247.90
497.44	31604.25
497.62	32243.22
497.79	32725.37
497.97	32226.84
498.14	32947.72
498.32	33261.35
498.50	32624.73
498.67	33371.36
498.85	33230.93
499.03	33523.49
499.20	33383.06
499.38	33743.50
499.56	33792.65
499.73	34024.37
499.91	33998.62
500.08	34321.62
500.26	33958.83
500.44	34419.92
500.61	34511.20
500.79	34604.82
500.97	34749.93
501.14	35140.80
501.32	35037.82
501.49	34726.53
501.67	35356.13
501.84	35304.64
502.02	35302.30
502.20	35929.56
502.37	35665.08
502.55	35585.50
502.72	35793.81
502.90	35913.18
503.07	35892.12
503.25	36201.07
503.43	36187.02
503.60	36254.90
503.78	36587.25
503.95	36914.93
504.13	36950.04
504.30	37024.93
504.48	37043.66
504.65	36849.39
504.83	37670.92
505.01	37635.81
505.18	37266.01
505.36	37717.73
505.53	37457.93
505.71	37773.91
505.88	37818.38
506.06	37502.40
506.23	38227.97
506.41	38452.66
506.58	38763.95
506.76	38457.34
506.93	38794.38
507.11	38389.47
507.28	38417.55
507.46	38677.35
507.63	39138.44
507.81	39133.76
507.98	38962.90
508.16	39342.06
508.33	39440.37
508.50	39676.76
508.68	39814.85
508.85	40175.30
509.03	39782.09
509.20	40423.39
509.38	40182.32
509.55	40170.61
509.73	40023.16
509.90	40332.11
510.08	40048.91
510.25	40758.09
510.42	40999.16
510.60	41460.25
510.77	41326.84
510.95	41298.75
511.12	41104.49
511.30	40980.44
511.47	41137.26
511.64	41743.45
511.82	41624.09
511.99	41741.11
512.17	41626.43
512.34	41207.47
512.51	42398.80
512.69	41717.71
512.86	41984.53
513.04	42719.46
513.21	42459.66
513.38	42597.75
513.56	42808.40
513.73	42347.31
513.90	42831.80
514.08	42499.45
514.25	43140.75
514.43	42794.36
514.60	42864.57
514.77	43487.15
514.95	43739.93
515.12	43091.60
515.29	43215.65
515.47	43768.02
515.64	44170.59
515.81	43812.49
515.99	44109.74
516.16	44402.30
516.33	44348.47
516.51	44816.58
516.68	43981.01
516.85	44545.08
517.03	44760.40
517.20	44390.60
517.37	44575.50
517.54	45045.95
517.72	44940.63
517.89	44690.19
518.06	44495.92
518.24	44945.31
518.41	44739.34
518.58	45397.03
518.75	45301.07
518.93	45748.11
519.10	45792.58
519.27	45617.04
519.45	45380.65
519.62	45701.30
519.79	45923.65
519.96	45705.98
520.14	46113.23
520.31	45832.37
520.48	46316.86
520.65	46204.52
520.83	45794.92
521.00	46363.67
521.17	46646.88
521.34	46340.27
521.52	46368.35
521.69	47138.39
521.86	46988.60
522.03	47016.68
522.20	46862.21
522.38	47185.20
522.55	47161.79
522.72	47449.68
522.89	47126.69
523.07	47428.62
523.24	47320.95
523.41	47641.60
523.58	47543.30
523.75	47533.94
523.92	47452.02
524.10	47805.44
524.27	47899.06
524.44	47980.98
524.61	48196.31
524.78	47870.98
524.96	48519.31
525.13	48147.16
525.30	48231.42
525.47	48404.62
525.64	48348.45
525.81	48631.65
525.98	48851.66
526.16	48804.85
526.33	49078.69
526.50	48729.95
526.67	47927.15
526.84	48856.34
527.01	48786.13
527.18	49240.19
527.36	49097.42
527.53	49422.75
527.70	49638.08
527.87	49614.68
528.04	49045.93
528.21	49584.25
528.38	49109.12
528.55	49507.01
528.72	49696.59
528.89	49535.10
529.07	49879.16
529.24	49511.69
529.41	49986.82
529.58	49558.50
529.75	49858.09
529.92	50042.99
530.09	50047.68
530.26	50064.06
530.43	50103.85
530.60	49900.22
530.77	49675.53
530.94	50220.87
531.11	50024.27
531.28	50103.85
531.46	50192.79
531.63	50351.94
531.80	50639.83
531.97	51161.77
532.14	50763.88
532.31	50738.13
532.48	50698.34
532.65	50621.11
532.82	50443.23
532.99	50806.01
533.16	50590.68
533.33	51262.41
533.50	51349.01
533.67	51168.79
533.84	50925.38
534.01	51065.81
534.18	50972.19
534.35	51339.65
534.52	51236.67
534.69	51540.94
534.86	51533.92
535.03	51430.93
535.20	51526.89
535.37	51669.67
535.54	51587.75
535.71	51370.08
535.88	51496.47
536.05	51566.68
536.22	51681.37
536.38	51889.68
536.55	52156.50
536.72	51941.17
536.89	51442.63
537.06	51587.75
537.23	52032.45
537.40	51580.73
537.57	51784.35
537.74	51913.08
537.91	52458.43
538.08	52116.71
538.25	51887.34
538.42	52226.71
538.59	52285.23
538.75	51838.18
538.92	52425.66
539.09	52463.11
539.26	52500.56
539.43	52495.88
539.60	52666.73
539.77	52453.75
539.94	52680.78
540.11	52753.33
540.28	52552.05
540.44	52568.43
540.61	52428.00
540.78	52659.71
540.95	52619.92
541.12	52587.16
541.29	52816.53
541.46	52891.43
541.62	52856.32
541.79	52982.71
541.96	52879.72
542.13	53008.45
542.30	52928.87
542.47	53324.43
542.63	52903.13
542.80	53118.46
542.97	53303.36
543.14	53228.46
543.31	53200.38
543.48	53312.72
543.64	53687.21
543.81	53633.38
543.98	53605.29
544.15	53549.12
544.32	53504.65
544.48	53895.52
544.65	53645.08
544.82	53595.93
544.99	53385.28
545.16	53703.59
545.32	53628.69
545.49	54038.29
545.66	54099.14
545.83	54178.72
546.00	53954.03
546.16	54164.68
546.33	53914.24
546.50	53497.62
546.67	53815.94
546.83	53528.05
547.00	54045.31
547.17	54288.73
547.34	54164.68
547.50	54092.12
547.67	54328.52
547.84	54389.37
548.00	54422.14
548.17	54351.92
548.34	54323.83
548.51	54614.06
548.67	54337.88
548.84	54480.65
549.01	54368.30
549.18	54464.27
549.34	54724.07
549.51	54461.93
549.68	54534.48
549.84	54480.65
550.01	54494.69
550.18	54728.75
550.34	54660.87
550.51	54726.41
550.68	54738.11
550.84	54522.78
551.01	54939.39
551.18	54438.52
551.34	54408.09
551.51	54726.41
551.68	54719.38
551.84	54642.15
552.01	54822.37
552.18	54997.91
552.34	54841.09
552.51	54651.51
552.68	54553.21
552.84	54930.03
553.01	55154.72
553.18	54946.42
553.34	55157.06
553.51	55110.25
553.67	55309.20
553.84	55344.31
554.01	55227.28
554.17	55348.99
554.34	55168.77
554.51	55262.39
554.67	55264.73
554.84	55320.90
555.00	55262.39
555.17	55522.19
555.33	55372.39
555.50	55178.13
555.67	55093.87
555.83	55161.75
556.00	55444.95
556.16	55653.26
556.33	55356.01
556.50	55400.48
556.66	55501.12
556.83	55255.37
556.99	55739.86
557.16	55894.33
557.32	55814.76
557.49	55524.53
557.65	55451.97
557.82	55592.40
557.98	55627.51
558.15	55393.46
558.32	55611.13
558.48	55653.26
558.65	55753.90
558.81	55735.18
558.98	55728.16
559.14	55702.41
559.31	55412.18
559.47	55594.74
559.64	55922.42
559.80	55571.34
559.97	55887.31
560.13	55627.51
560.30	55854.54
560.46	56072.21
560.63	55873.27
560.79	55957.53
560.96	55875.61
561.12	55564.32
561.29	55924.76
561.45	55931.78
561.61	55955.19
561.78	55894.33
561.94	55924.76
562.11	55978.59
562.27	55999.66
562.44	56123.71
562.60	55917.74
562.77	55807.73
562.93	55664.96
563.10	56161.15
563.26	55938.80
563.42	56205.62
563.59	56081.58
563.75	56390.53
563.92	56198.60
564.08	55875.61
564.24	55999.66
564.41	56161.15
564.57	56039.45
564.74	56149.45
564.90	56168.18
565.07	56285.20
565.23	56308.61
565.39	56210.31
565.56	56303.93
565.72	56184.56
565.88	56378.82
566.05	56200.94
566.21	55868.59
566.38	56170.52
566.54	56032.42
566.70	56435.00
566.87	56397.55
567.03	56374.14
567.19	56456.06
567.36	56453.72
567.52	56214.99
567.68	56395.21
567.85	56135.41
568.01	56320.31
568.17	56076.90
568.34	56474.79
568.50	56210.31
568.66	56350.74
568.83	56507.55
568.99	56268.82
569.15	56200.94
569.32	56315.63
569.48	56032.42
569.64	56264.14
569.81	56257.12
569.97	56016.04
570.13	56395.21
570.30	56369.46
570.46	56435.00
570.62	56292.22
570.78	56289.88
570.95	56364.78
571.11	56324.99
571.27	56259.46
571.43	56243.07
571.60	56367.12
571.76	56261.80
571.92	56687.78
572.09	56385.85
572.25	56640.96
572.41	56556.70
572.57	56507.55
572.74	56603.52
572.90	56470.11
573.06	56418.61
573.22	56491.17
573.38	56734.59
573.55	56449.04
573.71	56678.41
573.87	56633.94
574.03	56346.06
574.20	56552.02
574.36	56516.92
574.52	56439.68
574.68	56430.32
574.84	56409.25
575.01	56479.47
575.17	56442.02
575.33	56559.05
575.49	56451.38
575.65	56699.48
575.82	56528.62
575.98	56399.89
576.14	56741.61
576.30	56596.49
576.46	56308.61
576.62	56432.66
576.79	56673.73
576.95	56423.29
577.11	56456.06
577.27	56692.46
577.43	56556.70
577.59	56420.95
577.75	56577.77
577.92	56451.38
578.08	56432.66
578.24	56278.18
578.40	56559.05
578.56	56582.45
578.72	56659.69
578.88	56624.58
579.04	56666.71
579.21	56507.55
579.37	56732.25
579.53	56612.88
579.69	56406.91
579.85	56444.36
580.01	56456.06
580.17	56512.23
580.33	56488.83
580.49	56647.99
580.65	56568.41
580.82	56713.52
580.98	56629.26
581.14	56746.29
581.30	56769.69
581.46	56336.69
581.62	56591.81
581.78	56416.27
581.94	56594.15
582.10	56512.23
582.26	56573.09
582.42	56554.36
582.58	56882.04
582.74	56542.66
582.90	57020.13
583.06	57013.11
583.22	56399.89
583.38	56458.40
583.54	56535.64
583.70	56647.99
583.86	56573.09
584.02	56334.35
584.18	56596.49
584.34	56765.01
584.50	56844.59
584.66	56570.75
584.82	56493.51
584.98	56659.69
585.14	56533.30
585.30	56367.12
585.46	56568.41
585.62	56655.01
585.78	56769.69
585.94	56413.93
586.10	56652.67
586.26	56537.98
586.42	56940.55
586.58	56982.68
586.74	56753.31
586.90	56472.45
587.06	56573.09
587.22	56769.69
587.38	56591.81
587.54	56690.12
587.70	57090.35
587.86	56875.02
588.02	56935.87
588.18	56697.14
588.34	56734.59
588.49	56697.14
588.65	56650.33
588.81	56411.59
588.97	56865.66
589.13	56701.82
589.29	56690.12
589.45	56804.80
589.61	57113.75
589.77	56886.72
589.93	56765.01
590.08	56877.36
590.24	57099.71
590.40	56931.19
590.56	57078.64
590.72	56697.14
590.88	56612.88
591.04	56914.81
591.20	56776.72
591.35	57059.92
591.51	57029.49
591.67	57062.26
591.83	57190.99
591.99	56912.47
592.15	56989.70
592.31	57045.88
592.46	56774.37
592.62	56968.64
592.78	56687.78
592.94	56779.06
593.10	56807.14
593.26	56914.81
593.41	56811.82
593.57	57017.79
593.73	56853.95
593.89	57055.24
594.05	56928.85
594.20	56821.19
594.36	56736.93
594.52	57132.48
594.68	56762.67
594.84	56786.08
594.99	57223.76
595.15	56900.76
595.31	57258.87
595.47	57279.93
595.62	57247.16
595.78	56914.81
595.94	56999.07
596.10	56959.28
596.25	56860.97
596.41	56905.44
596.57	56671.39
596.73	56938.21
596.88	56762.67
597.04	57155.88
597.20	57200.35
597.36	57095.03
597.51	57090.35
597.67	56809.48
597.83	57048.22
597.99	57083.33
598.14	57123.11
598.30	56952.26
598.46	56781.40
598.61	56844.59
598.77	56692.46
598.93	57045.88
599.09	57102.05
599.24	57357.17
599.40	57139.50
599.56	56949.92
599.71	57013.11
599.87	56926.51
600.03	56851.61
600.18	56938.21
600.34	57059.92
600.50	57031.83
600.65	56989.70
600.81	57062.26
600.97	57289.29
601.12	57261.21
601.28	57361.85
601.44	57146.52
601.59	56858.63
601.75	56989.70
601.91	57041.20
602.06	56765.01
602.22	57090.35
602.37	56769.69
602.53	56917.15
602.69	57006.09
602.84	56776.72
603.00	56956.94
603.16	57127.80
603.31	57078.64
603.47	57013.11
603.62	56753.31
603.78	56954.60
603.94	56935.87
604.09	57132.48
604.25	56664.37
604.40	56783.74
604.56	57062.26
604.71	57144.18
604.87	57326.74
605.03	57043.54
605.18	57111.41
605.34	56919.49
605.49	56797.78
605.65	56832.89
605.80	56793.10
605.96	56671.39
606.12	56924.17
606.27	57190.99
606.43	56804.80
606.58	56975.66
606.74	57003.75
606.89	56816.50
607.05	56970.98
607.20	56933.53
607.36	56790.76
607.51	56814.16
607.67	56849.27
607.82	56533.30
607.98	56530.96
608.13	56793.10
608.29	56767.35
608.44	56872.68
608.60	56631.60
608.75	56952.26
608.91	56671.39
609.06	56575.43
609.22	56786.08
609.37	56465.42
609.53	56545.00
609.68	56669.05
609.84	56486.49
609.99	56640.96
610.15	56573.09
610.30	56500.53
610.46	56577.77
610.61	56446.70
610.76	56442.02
610.92	56673.73
611.07	56596.49
611.23	56547.34
611.38	56563.73
611.54	56416.27
611.69	56498.19
611.84	56222.01
612.00	56502.87
612.15	56442.02
612.31	56591.81
612.46	56378.82
612.62	56662.03
612.77	56629.26
612.92	56722.88
613.08	56409.25
613.23	56484.15
613.39	56310.95
613.54	56179.88
613.69	56360.10
613.85	56247.75
614.00	56179.88
614.15	56350.74
614.31	56161.15
614.46	56395.21
614.62	56395.21
614.77	56561.39
614.92	56247.75
615.08	56090.94
615.23	56488.83
615.38	56495.85
615.54	56200.94
615.69	56193.92
615.84	56079.24
616.00	56303.93
616.15	56175.20
616.30	56306.27
616.46	55903.70
616.61	56076.90
616.76	56348.40
616.92	56009.02
617.07	56083.92
617.22	56018.38
617.37	55814.76
617.53	55831.14
617.68	55927.10
617.83	55744.54
617.99	55924.76
618.14	55835.82
618.29	56137.75
618.45	56030.08
618.60	56058.17
618.75	55938.80
618.90	55723.47
619.06	56226.69
619.21	55781.99
619.36	55800.71
619.51	55894.33
619.67	55646.24
619.82	55491.76
619.97	55796.03
620.12	55620.49
620.28	55730.50
620.43	55784.33
620.58	55735.18
620.73	55789.01
620.89	55704.75
621.04	55458.99
621.19	55779.65
621.34	55856.88
621.49	55360.69
621.65	55533.89
621.80	55426.23
621.95	55470.70
622.10	55356.01
622.25	55498.78
622.41	55442.61
622.56	55510.49
622.71	55679.00
622.86	55458.99
623.01	55569.00
623.16	55327.92
623.32	55423.89
623.47	55215.58
623.62	55290.48
623.77	55138.34
623.92	55538.57
624.07	55229.62
624.23	55320.90
624.38	55428.57
624.53	55002.59
624.68	55241.32
624.83	55407.50
624.98	55407.50
625.13	55299.84
625.29	55299.84
625.44	55227.28
625.59	55150.04
625.74	54906.63
625.89	55009.61
626.04	54813.01
626.19	54733.43
626.34	54852.80
626.49	54976.84
626.65	54864.50
626.80	54932.37
626.95	54700.66
627.10	55082.17
627.25	54794.28
627.40	54988.55
627.55	54663.21
627.70	54688.96
627.85	54747.47
628.00	54312.13
628.15	54763.85
628.30	54679.60
628.45	54775.56
628.60	54515.76
628.76	54571.93
628.91	54855.14
629.06	54684.28
629.21	54885.56
629.36	54452.56
629.51	54497.03
629.66	54581.29
629.81	54274.68
629.96	54047.65
630.11	54356.60
630.26	54422.14
630.41	54099.14
630.56	54244.26
630.71	54227.87
630.86	54445.54
631.01	54548.53
631.16	54337.88
631.31	54719.38
631.46	54232.55
631.61	54475.97
631.76	54478.31
631.91	54057.01
632.06	54073.40
632.21	54108.50
632.36	53865.09
632.51	54131.91
632.66	54148.29
632.81	54124.89
632.96	54305.11
633.10	53925.94
633.25	53839.34
633.40	54150.63
633.55	54176.38
633.70	54021.90
633.85	53954.03
634.00	53757.42
634.15	53998.50
634.30	53712.95
634.45	53858.07
634.60	53820.62
634.75	54106.16
634.90	53631.04
635.05	54309.79
635.19	53731.68
635.34	54007.86
635.49	53537.41
635.64	53762.11
635.79	53549.12
635.94	53757.42
636.09	53869.77
636.24	53436.77
636.39	53340.81
636.53	53413.37
636.68	53392.30
636.83	53523.37
636.98	53731.68
637.13	53460.18
637.28	53511.67
637.43	53984.46
637.57	53490.60
637.72	53375.92
637.87	53350.17
638.02	53378.26
638.17	53434.43
638.32	53485.92
638.46	53254.21
638.61	53148.88
638.76	52982.71
638.91	52968.66
639.06	53050.58
639.20	53270.59
639.35	53176.97
639.50	53279.96
639.65	53003.77
639.80	53411.02
639.94	53268.25
640.09	52973.34
640.24	53024.84
640.39	52879.72
640.54	53010.79
640.68	52837.59
640.83	52853.98
640.98	52729.93
641.13	52802.49
641.27	52973.34
641.42	52779.08
641.57	52800.15
641.72	52814.19
641.86	52678.44
642.01	52697.16
642.16	52800.15
642.31	52577.79
642.45	52786.10
642.60	52388.21
642.75	52629.29
642.90	52371.83
643.04	52465.45
643.19	52435.02
643.34	52626.95
643.48	52666.73
643.63	52704.18
643.78	52308.63
643.93	52889.09
644.07	52687.80
644.22	52397.57
644.37	52395.23
644.51	52374.17
644.66	52708.86
644.81	52282.89
644.95	52264.16
645.10	52390.55
645.25	52107.35
645.39	52486.51
645.54	52308.63
645.69	52161.18
645.83	52378.85
645.98	52149.48
646.13	52383.53
646.27	52392.89
646.42	51969.26
646.57	52257.14
646.71	52076.92
646.86	52107.35
647.00	51875.63
647.15	51777.33
647.30	51892.02
647.44	52032.45
647.59	51819.46
647.74	51611.15
647.88	51856.91
648.03	51985.64
648.17	52016.07
648.32	51810.10
648.47	52090.96
648.61	51526.89
648.76	51508.17
648.90	51646.26
649.05	51749.24
649.20	51828.82
649.34	51456.68
649.49	51339.65
649.63	51566.68
649.78	51536.26
649.92	51498.81
650.07	51739.88
650.21	51339.65
650.36	51648.60
650.51	51606.47
650.65	51782.01
650.80	51686.05
650.94	51608.81
651.09	51606.47
651.23	51332.63
651.38	51533.92
651.52	51377.10
651.67	51065.81
651.81	51576.04
651.96	51105.60
652.10	51154.75
652.25	51028.36
652.39	51629.88
652.54	51360.72
652.68	51356.03
652.83	51330.29
652.97	51400.50
653.12	51264.75
653.26	51014.32
653.41	51019.00
653.55	50901.97
653.70	50684.30
653.84	51016.66
653.99	50740.47
654.13	50719.41
654.27	50721.75
654.42	50546.21
654.56	50766.22
654.71	50962.82
654.85	51091.55
655.00	51103.26
655.14	51161.77
655.29	50614.08
655.43	50848.14
655.57	50815.37
655.72	50319.18
655.86	50742.81
656.01	50319.18
656.15	50244.28
656.30	50251.30
656.44	49991.50
656.58	50272.37
656.73	50365.99
656.87	50424.50
657.01	50440.89
657.16	50684.30
657.30	50312.16
657.45	50536.85
657.59	50389.39
657.73	49911.92
657.88	50419.82
658.02	49942.35
658.16	50281.73
658.31	49869.79
658.45	49738.72
658.60	49977.46
658.74	49783.19
658.88	50155.34
659.03	49712.98
659.17	50110.87
659.31	50120.23
659.46	49626.38
659.60	50108.53
659.74	49790.22
659.89	49404.03
660.03	49546.80
660.17	49792.56
660.32	49544.46
660.46	49457.86
660.60	49310.41
660.74	49052.95
660.89	49385.30
661.03	48856.34
661.17	49013.16
661.32	49148.91
661.46	49223.81
661.60	49036.56
661.74	48854.00
661.89	49017.84
662.03	48940.60
662.17	48884.43
662.31	48648.03
662.46	49207.42
662.60	48568.46
662.74	48680.80
662.88	48629.31
663.03	48329.72
663.17	48540.37
663.31	48240.78
663.45	48072.26
663.60	48200.99
663.74	48044.18
663.88	48261.85
664.02	47976.30
664.17	48538.03
664.31	48320.36
664.45	48018.43
664.59	48287.59
664.73	48095.67
664.88	47880.34
665.02	47791.40
665.16	47463.72
665.30	47686.07
665.44	47435.64
665.59	46909.02
665.73	47320.95
665.87	46885.61
666.01	47430.96
666.15	47358.40
666.29	47157.11
666.44	47213.29
666.58	47402.87
666.72	47428.62
666.86	47257.76
667.00	47342.02
667.14	47220.31
667.28	46979.23
667.43	46401.12
667.57	47002.64
667.71	46969.87
667.85	46876.25
667.99	46293.46
668.13	46607.09
668.27	46717.09
668.41	46710.07
668.56	46323.88
668.70	46471.34
668.84	46333.24
668.98	46440.91
669.12	46204.52
669.26	46164.73
669.40	46155.36
669.54	45991.53
669.68	46199.83
669.82	45315.11
669.96	45720.02
670.10	45841.73
670.25	45705.98
670.39	45420.44
670.53	45296.39
670.67	45263.62
670.81	45202.77
670.95	45450.86
671.09	45429.80
671.23	45172.34
671.37	45642.79
671.51	45251.92
671.65	45298.73
671.79	45097.44
671.93	45127.87
672.07	45132.55
672.21	44779.13
672.35	44449.11
672.49	44069.95
672.63	44825.94
672.77	44081.65
672.91	44477.20
673.05	44137.82
673.19	43461.41
673.33	44179.95
673.47	44102.71
673.61	44224.42
673.75	44037.18
673.89	44364.85
674.03	43995.05
674.17	43962.28
674.31	43365.45
674.45	43285.87
674.59	43611.20
674.73	43089.26
674.87	43538.65
675.01	42787.33
675.15	42752.23
675.29	42967.55
675.43	43154.80
675.56	42637.54
675.70	42906.70
675.84	42883.30
675.98	41525.78
676.12	42710.10
676.26	42773.29
676.40	42520.51
676.54	42473.70
676.68	42073.47
676.82	41291.73
676.96	41446.21
677.10	41579.62
677.23	41083.42
677.37	41179.39
677.51	41134.92
677.65	40882.14
677.79	40795.54
677.93	40360.20
678.07	40369.56
678.21	40392.97
678.34	40631.70
678.48	40753.41
678.62	40437.44
678.76	40355.52
678.90	39873.37
679.04	40376.58
679.18	40580.21
679.31	39735.27
679.45	39702.51
679.59	39349.09
679.73	39023.75
679.87	39276.53
680.00	39122.05
680.14	38796.72
680.28	38562.67
680.42	38808.42
680.56	38866.94
680.70	38939.49
680.83	39047.16
680.97	38410.53
681.11	38880.98
681.25	38738.21
681.39	38663.31
681.52	38682.03
681.66	37912.00
681.80	37893.27
681.94	37673.26
682.07	37668.58
682.21	37408.78
682.35	37095.15
682.49	37436.87
682.62	36987.49
682.76	36877.48
682.90	36966.42
683.04	36816.63
683.17	36966.42
683.31	36816.63
683.45	36638.75
683.59	36570.87
683.72	36484.27
683.86	35978.72
684.00	35826.58
684.13	35569.12
684.27	35611.25
684.41	35730.62
684.55	35473.16
684.68	35651.04
684.82	35079.95
684.96	34983.99
685.09	35131.44
685.23	35044.84
685.37	34593.12
685.50	35196.98
685.64	35189.95
685.78	34991.01
685.91	34796.74
686.05	34597.80
686.19	34080.54
686.32	34312.25
686.46	33956.49
686.60	33635.84
686.73	34036.07
686.87	33469.66
687.01	33420.51
687.14	33404.13
687.28	33177.09
687.42	32980.49
687.55	32577.92
687.69	32891.55
687.82	32734.73
687.96	32795.59
688.10	32624.73
688.23	32863.46
688.37	32830.69
688.50	33008.58
688.64	32133.21
688.78	32428.12
688.91	31974.06
689.05	31847.67
689.18	32058.32
689.32	31166.57
689.46	31152.53
689.59	31239.13
689.73	31601.91
689.86	30976.99
690.00	31225.09
690.13	31168.91
690.27	31037.84
690.41	31185.30
690.54	31019.12
690.68	30567.40
690.81	30958.27
690.95	30670.38
691.08	30424.62
691.22	30160.14
691.35	30057.16
691.49	30216.32
691.62	29729.48
691.76	29397.13
691.89	29455.64
692.03	29186.48
692.16	29291.80
692.30	29549.26
692.43	29085.84
692.57	29247.33
692.70	28929.02
692.84	28751.14
692.97	28645.82
693.11	29259.04
693.24	28910.30
693.38	28332.18
693.51	28435.17
693.65	28320.48
693.78	28561.56
693.92	28547.51
694.05	28226.86
694.19	27910.89
694.32	27906.21
694.45	27662.79
694.59	27243.84
694.72	27496.61
694.86	27349.16
694.99	26693.81
695.13	27133.83
695.26	27037.87
695.39	26581.46
695.53	26754.66
695.66	27154.90
695.80	26852.97
695.93	26469.12
696.07	26340.39
696.20	26604.87
696.33	26483.16
696.47	26312.30
696.60	26169.53
696.73	25757.60
696.87	25802.07
697.00	25490.77
697.14	25518.86
697.27	25057.78
697.40	25055.43
697.54	25219.27
697.67	24751.17
697.80	24535.84
697.94	24748.82
698.07	25043.73
698.21	24341.57
698.34	24631.80
698.47	24711.38
698.61	24166.03
698.74	24414.13
698.87	24203.48
699.01	24219.86
699.14	24189.44
699.27	23828.99
699.40	24023.26
699.54	23482.59
699.67	23917.93
699.80	23391.31
699.94	22913.84
700.07	23199.39
700.20	23094.07
700.34	23009.81
700.47	22789.80
700.60	22923.21
700.73	22525.32
700.87	22618.94
701.00	22565.10
701.13	22621.28
701.26	22504.25
701.40	22174.24
701.53	22361.48
701.66	22085.30
701.79	21666.34
701.93	21879.33
702.06	21654.64
702.19	21631.23
702.32	21795.07
702.46	21219.30
702.59	21226.32
702.72	21139.72
702.85	20912.69
702.99	21153.76
703.12	21060.14
703.25	20982.90
703.38	20577.99
703.51	20411.81
703.65	20851.83
703.78	20734.81
703.91	20503.09
704.04	20493.73
704.17	20524.16
704.31	20098.18
704.44	20023.28
704.57	20072.43
704.70	19964.77
704.83	19702.63
704.96	19403.04
705.10	19374.95
705.23	19506.02
>>>>>End Processed Spectral Data<<<<<
