SpectraSuite Data File
++++++++++++++++++++++++++++++++++++
Date: Fri Oct 18 13:54:39 GMT-05:00 2013
User: bianchi
Dark Spectrum Present: No
Reference Spectrum Present: No
Number of Sampled Component Spectra: 1
Spectrometers: USB2+H05261
Integration Time (usec): 100000 (USB2+H05261)
Spectra Averaged: 1 (USB2+H05261)
Boxcar Smoothing: 0 (USB2+H05261)
Correct for Electrical Dark: No (USB2+H05261)
Strobe/Lamp Enabled: No (USB2+H05261)
Correct for Detector Non-linearity: No (USB2+H05261)
Correct for Stray Light: No (USB2+H05261)
Number of Pixels in Processed Spectrum: 2048
>>>>>Begin Processed Spectral Data<<<<<
365.73	0.00
365.92	0.00
366.12	0.00
366.32	0.00
366.52	0.00
366.72	0.00
366.91	0.00
367.11	0.00
367.31	0.00
367.51	0.00
367.70	0.00
367.90	0.00
368.10	0.00
368.30	0.00
368.49	0.00
368.69	0.00
368.89	0.00
369.09	0.00
369.28	0.00
369.48	0.00
369.68	0.00
369.87	0.00
370.07	0.00
370.27	0.00
370.47	0.00
370.66	245.76
370.86	360.44
371.06	341.72
371.25	425.98
371.45	276.18
371.65	381.51
371.84	386.19
372.04	334.70
372.24	440.02
372.44	407.25
372.63	351.08
372.83	503.22
373.03	433.00
373.22	456.40
373.42	416.62
373.62	451.72
373.81	507.90
374.01	498.53
374.21	496.19
374.40	451.72
374.60	554.71
374.79	472.79
374.99	451.72
375.19	458.74
375.38	545.34
375.58	526.62
375.78	592.16
375.97	554.71
376.17	594.50
376.37	517.26
376.56	510.24
376.76	524.28
376.95	521.94
377.15	535.98
377.35	582.79
377.54	514.92
377.74	578.11
377.93	554.71
378.13	592.16
378.33	521.94
378.52	540.66
378.72	566.41
378.91	559.39
379.11	589.82
379.31	610.88
379.50	500.87
379.70	620.24
379.89	671.73
380.09	622.58
380.28	587.47
380.48	681.10
380.68	636.63
380.87	629.60
381.07	645.99
381.26	704.50
381.46	629.60
381.65	690.46
381.85	697.48
382.04	641.31
382.24	718.54
382.43	709.18
382.63	809.83
382.83	751.31
383.02	826.21
383.22	802.80
383.41	674.07
383.61	704.50
383.80	823.87
384.00	709.18
384.19	653.01
384.39	791.10
384.58	788.76
384.78	826.21
384.97	760.67
385.17	758.33
385.36	786.42
385.56	802.80
385.75	765.36
385.95	791.10
386.14	896.43
386.34	837.91
386.53	812.17
386.72	798.12
386.92	905.79
387.11	877.70
387.31	894.08
387.50	861.32
387.70	919.83
387.89	889.40
388.09	800.46
388.28	875.36
388.48	966.64
388.67	1034.52
388.86	894.08
389.06	964.30
389.25	936.21
389.45	877.70
389.64	945.58
389.84	1034.52
390.03	978.34
390.22	961.96
390.42	1001.75
390.61	1050.90
390.81	1029.84
391.00	990.05
391.19	1132.82
391.39	1057.92
391.58	1095.37
391.78	1107.07
391.97	1018.13
392.16	1001.75
392.36	1144.52
392.55	1104.73
392.75	1163.25
392.94	1196.01
393.13	1212.40
393.33	1186.65
393.52	1142.18
393.71	1226.44
393.91	1210.06
394.10	1186.65
394.29	1086.01
394.49	1107.07
394.68	1224.10
394.88	1256.87
395.07	1294.32
395.26	1284.95
395.46	1310.70
395.65	1359.85
395.84	1331.76
396.04	1378.58
396.23	1268.57
396.42	1357.51
396.62	1425.39
396.81	1427.73
397.00	1357.51
397.19	1373.89
397.39	1350.49
397.58	1352.83
397.77	1401.98
397.97	1448.79
398.16	1416.02
398.35	1418.36
398.55	1481.56
398.74	1509.65
398.93	1540.07
399.12	1404.32
399.32	1540.07
399.51	1500.28
399.70	1589.22
399.90	1605.61
400.09	1624.33
400.28	1561.14
400.47	1666.46
400.67	1781.15
400.86	1678.16
401.05	1664.12
401.24	1694.55
401.44	1736.68
401.63	1659.44
401.82	1694.55
402.01	1689.87
402.21	1832.64
402.40	1767.10
402.59	1736.68
402.78	1881.79
402.97	1788.17
403.17	1729.66
403.36	1874.77
403.55	1912.22
403.74	1820.94
403.93	1907.54
404.13	1952.01
404.32	1921.58
404.51	1916.90
404.70	1930.94
404.89	1996.48
405.09	2017.54
405.28	1968.39
405.47	2125.21
405.66	2101.80
405.85	2153.29
406.05	2155.63
406.24	2221.17
406.43	2200.10
406.62	2195.42
406.81	2277.34
407.00	2106.48
407.20	2122.87
407.39	2230.53
407.58	2232.87
407.77	2244.57
407.96	2305.43
408.15	2422.45
408.34	2275.00
408.54	2413.09
408.73	2422.45
408.92	2363.94
409.11	2452.88
409.30	2338.20
409.49	2595.65
409.68	2539.48
409.87	2445.86
410.07	2532.46
410.26	2590.97
410.45	2555.86
410.64	2597.99
410.83	2722.04
411.02	2640.12
411.21	2785.24
411.40	2768.85
411.59	2780.56
411.78	2848.43
411.98	2682.25
412.17	2885.88
412.36	2796.94
412.55	2874.18
412.74	2738.43
412.93	2932.69
413.12	2993.55
413.31	3103.55
413.50	3026.31
413.69	3103.55
413.88	3080.14
414.07	3208.87
414.26	3131.64
414.45	3372.71
414.64	3246.32
414.83	3368.03
415.02	3337.60
415.22	3372.71
415.41	3522.51
415.60	3590.38
415.79	3557.61
415.98	3480.38
416.17	3536.55
416.36	3508.46
416.55	3632.51
416.74	3733.15
416.93	3672.30
417.12	3737.84
417.31	3604.42
417.50	3749.54
417.69	3950.82
417.88	3861.88
418.07	3929.76
418.26	3901.67
418.45	3943.80
418.64	4044.45
418.83	3962.53
419.02	4065.51
419.21	4046.79
419.39	4119.34
419.58	4109.98
419.77	4205.94
419.96	4091.26
420.15	4194.24
420.34	4046.79
420.53	4170.83
420.72	4346.37
420.91	4346.37
421.10	4362.76
421.29	4470.42
421.48	4388.50
421.67	4521.92
421.86	4262.12
422.05	4489.15
422.24	4397.87
422.43	4430.63
422.61	4376.80
422.80	4374.46
422.99	4524.26
423.18	4489.15
423.37	4512.55
423.56	4641.28
423.75	4491.49
423.94	4393.19
424.13	4269.14
424.32	4196.58
424.50	4505.53
424.69	4777.03
424.88	4580.43
425.07	4437.66
425.26	4482.13
425.45	4601.49
425.64	4678.73
425.83	4650.64
426.01	4554.68
426.20	4547.66
426.39	4671.71
426.58	4718.52
426.77	4730.22
426.96	4697.46
427.15	4692.77
427.33	4753.63
427.52	4690.43
427.71	4685.75
427.90	4875.34
428.09	5022.79
428.28	4870.65
428.46	5050.88
428.65	5001.72
428.84	5100.03
429.03	5200.67
429.22	4856.61
429.40	4968.96
429.59	5142.16
429.78	4870.65
429.97	5048.54
430.16	4844.91
430.34	5224.08
430.53	5327.06
430.72	5198.33
430.91	5252.16
431.10	5242.80
431.28	5273.23
431.47	5399.62
431.66	5430.04
431.85	5362.17
432.03	5254.50
432.22	5650.05
432.41	5516.64
432.60	5444.09
432.79	5289.61
432.97	5366.85
433.16	5568.13
433.35	5650.05
433.54	5621.97
433.72	5685.16
433.91	5753.04
434.10	5675.80
434.28	5614.95
434.47	5687.50
434.66	5806.87
434.85	5760.06
435.03	5804.53
435.22	5783.46
435.41	6139.23
435.59	6064.33
435.78	5870.06
435.97	5893.47
436.16	5825.59
436.34	5998.79
436.53	6118.16
436.72	6249.23
436.90	6104.12
437.09	6146.25
437.28	6066.67
437.46	6249.23
437.65	6253.91
437.84	6319.45
438.02	6235.19
438.21	6408.39
438.40	6424.77
438.58	6544.14
438.77	6530.09
438.96	6429.45
439.14	6509.03
439.33	6579.25
439.52	6609.67
439.70	6595.63
439.89	6881.18
440.08	6965.43
440.26	6813.30
440.45	6892.88
440.63	6998.20
440.82	6988.84
441.01	6846.07
441.19	7171.40
441.38	7131.61
441.57	7250.98
441.75	7267.36
441.94	7276.73
442.12	7344.60
442.31	7513.12
442.50	7492.05
442.68	7604.40
442.87	7398.43
443.05	7393.75
443.24	7789.30
443.43	7536.52
443.61	7588.02
443.80	7915.69
443.98	7681.64
444.17	7344.60
444.35	7719.09
444.54	7822.07
444.73	7864.20
444.91	7606.74
445.10	7939.10
445.28	7857.18
445.47	7801.01
445.65	7686.32
445.84	7768.24
446.02	7939.10
446.21	7824.41
446.39	7836.11
446.58	8013.99
446.77	7941.44
446.95	7698.02
447.14	7665.25
447.32	7878.24
447.51	7747.17
447.69	7868.88
447.88	8044.42
448.06	7901.65
448.25	7999.95
448.43	7859.52
448.62	7978.89
448.80	7974.21
448.99	8086.55
449.17	8102.93
449.36	8053.78
449.54	8093.57
449.73	8320.60
449.91	8381.46
450.10	8367.42
450.28	8369.76
450.46	8332.31
450.65	8414.23
450.83	8489.12
451.02	8589.77
451.20	8599.13
451.39	8500.83
451.57	8271.45
451.76	8360.39
451.94	8718.50
452.13	8631.90
452.31	8601.47
452.49	8667.00
452.68	8842.54
452.86	8737.22
453.05	8875.31
453.23	8865.95
453.42	8596.79
453.60	8676.37
453.78	8819.14
453.97	8828.50
454.15	8809.78
454.34	8924.46
454.52	8936.17
454.70	8905.74
454.89	9156.18
455.07	9020.42
455.26	9359.80
455.44	9144.47
455.62	9282.56
455.81	9373.85
455.99	9224.05
456.17	9420.66
456.36	9427.68
456.54	9500.23
456.73	9701.52
456.91	9635.99
457.09	9640.67
457.28	9645.35
457.46	9579.81
457.64	9673.43
457.83	9949.62
458.01	9628.96
458.19	9848.97
458.38	9743.65
458.56	9865.36
458.74	9987.07
458.93	9809.19
459.11	9954.30
459.29	10071.33
459.48	10071.33
459.66	10059.62
459.84	10174.31
460.03	10445.81
460.21	10202.40
460.39	10328.78
460.57	10200.05
460.76	10167.29
460.94	10506.66
461.12	10228.14
461.31	10349.85
461.49	10441.13
461.67	10431.77
461.85	10602.63
462.04	10420.06
462.22	11208.83
462.40	10808.59
462.59	10651.78
462.77	10752.42
462.95	10839.02
463.13	10733.70
463.32	10846.04
463.50	10768.80
463.68	10796.89
463.86	10925.62
464.05	10710.29
464.23	10759.44
464.41	10862.43
464.59	11028.60
464.78	11154.99
464.96	11091.80
465.14	10913.92
465.32	11225.21
465.50	11253.30
465.69	11166.70
465.87	11183.08
466.05	11133.93
466.23	11115.20
466.41	11414.79
466.60	11630.12
466.78	11089.46
466.96	11225.21
467.14	11342.24
467.32	11335.21
467.51	11550.54
467.69	11410.11
467.87	11398.41
468.05	11428.84
468.23	11555.22
468.41	11477.99
468.60	11803.32
468.78	11737.79
468.96	11562.25
469.14	12009.29
469.32	11896.94
469.50	11485.01
469.69	11770.55
469.87	11918.01
470.05	12168.45
470.23	12187.17
470.41	12009.29
470.59	12297.17
470.77	12264.41
470.95	12229.30
471.14	12198.87
471.32	12210.57
471.50	12631.87
471.68	12706.77
471.86	12870.61
472.04	12704.43
472.22	12957.21
472.40	12423.56
472.58	12849.54
472.77	12723.15
472.95	12919.76
473.13	13397.23
473.31	12851.88
473.49	12987.63
473.67	12929.12
473.85	13151.47
474.03	13504.89
474.21	13509.57
474.39	13685.11
474.57	13638.30
474.75	13682.77
474.93	13870.01
475.12	13877.04
475.30	13806.82
475.48	13895.76
475.66	13872.36
475.84	14115.77
476.02	14190.67
476.20	14010.45
476.38	14363.87
476.56	14714.95
476.74	14656.43
476.92	14810.91
477.10	14705.59
477.28	14944.32
477.46	14726.65
477.64	15213.48
477.82	15225.18
478.00	15492.01
478.18	15536.48
478.36	15697.97
478.54	15955.43
478.72	15623.08
478.90	16016.29
479.08	16044.37
479.26	16259.70
479.44	16524.18
479.62	16566.31
479.80	16367.37
479.98	16847.18
480.16	17057.82
480.34	16732.49
480.52	17163.15
480.70	17336.35
480.88	16987.61
481.06	17277.83
481.24	17570.40
481.41	17563.38
481.59	17757.64
481.77	18321.71
481.95	17940.21
482.13	18099.36
482.31	18143.83
482.49	18174.26
482.67	18810.89
482.85	18853.02
483.03	19089.41
483.21	19248.57
483.39	19316.44
483.57	19236.86
483.74	19531.77
483.92	19800.93
484.10	19625.39
484.28	20032.65
484.46	19924.98
484.64	20720.76
484.82	20357.98
485.00	20575.65
485.18	20744.17
485.35	21170.15
485.53	20903.32
485.71	21212.28
485.89	21467.39
486.07	21518.89
486.25	21125.68
486.43	21823.16
486.61	21614.85
486.78	22293.60
486.96	22064.23
487.14	22944.27
487.32	22508.93
487.50	22721.92
487.68	22803.84
487.85	23501.32
488.03	23676.86
488.21	23587.92
488.39	24004.53
488.57	24020.92
488.75	24343.91
488.92	24669.25
489.10	24580.31
489.28	24430.51
489.46	24945.43
489.64	24854.15
489.81	25411.20
489.99	25462.69
490.17	25549.29
490.35	25968.24
490.53	26106.34
490.70	25874.62
490.88	26218.68
491.06	26499.55
491.24	26490.18
491.41	26354.43
491.59	26782.75
491.77	26792.11
491.95	27379.59
492.13	27456.82
492.30	27805.56
492.48	27498.95
492.66	27632.36
492.84	27978.76
493.01	28023.23
493.19	28353.25
493.37	28526.45
493.54	28479.64
493.72	28762.84
493.90	28561.56
494.08	29226.27
494.25	29453.30
494.43	29397.13
494.61	29745.87
494.79	29869.92
494.96	29701.40
495.14	29841.83
495.32	30682.08
495.49	30291.21
495.67	30822.51
495.85	30972.31
496.02	31068.27
496.20	31414.67
496.38	31335.09
496.55	31414.67
496.73	31803.20
496.91	31672.13
497.09	32039.59
497.26	32362.59
497.44	32128.53
497.62	32283.01
497.79	32528.77
497.97	32823.67
498.14	32980.49
498.32	33371.36
498.50	33130.28
498.67	33570.30
498.85	33366.68
499.03	33472.00
499.20	33640.52
499.38	34003.30
499.56	34110.97
499.73	34267.78
499.91	34639.93
500.08	34380.13
500.26	34122.67
500.44	34401.19
500.61	34778.02
500.79	34761.64
500.97	35068.25
501.14	35597.21
501.32	35285.92
501.49	35782.11
501.67	35754.02
501.84	35454.44
502.02	35590.19
502.20	35789.13
502.37	36472.57
502.55	35950.63
502.72	35967.01
502.90	36287.67
503.07	36177.66
503.25	36165.96
503.43	36605.98
503.60	36575.55
503.78	37076.43
503.95	37167.71
504.13	37144.30
504.30	37235.58
504.48	37029.62
504.65	37434.53
504.83	37614.75
505.01	38022.00
505.18	37993.92
505.36	37975.19
505.53	37937.74
505.71	38115.62
505.88	38155.41
506.06	38188.18
506.23	38597.77
506.41	38213.93
506.58	38518.20
506.76	38712.46
506.93	38714.80
507.11	38356.70
507.28	38986.30
507.46	39171.21
507.63	39494.20
507.81	39489.52
507.98	39037.80
508.16	39229.72
508.33	39714.21
508.50	39817.19
508.68	39807.83
508.85	40369.56
509.03	40158.91
509.20	40371.90
509.38	40353.18
509.55	40957.03
509.73	40800.22
509.90	40950.01
510.08	40608.29
510.25	41193.43
510.42	41097.47
510.60	41198.11
510.77	41511.74
510.95	41720.05
511.12	41071.72
511.30	41420.46
511.47	41588.98
511.64	41897.93
511.82	41886.23
511.99	42234.97
512.17	42412.85
512.34	41947.08
512.51	42520.51
512.69	43112.67
512.86	42040.70
513.04	42733.50
513.21	42852.87
513.38	42787.33
513.56	42848.19
513.73	43232.04
513.90	42911.38
514.08	43320.98
514.25	43262.46
514.43	43433.32
514.60	43538.65
514.77	43491.83
514.95	43662.69
515.12	43475.45
515.29	44095.69
515.47	43817.17
515.64	44194.00
515.81	44179.95
515.99	44502.95
516.16	45069.36
516.33	44699.55
516.51	44800.19
516.68	44432.73
516.85	44332.09
517.03	44863.39
517.20	45041.27
517.37	44816.58
517.54	45483.63
517.72	45310.43
517.89	45134.89
518.06	45160.64
518.24	45443.84
518.41	45237.87
518.58	45621.72
518.75	45212.13
518.93	45930.67
519.10	45755.13
519.27	46059.40
519.45	45500.01
519.62	45860.46
519.79	46295.80
519.96	46052.38
520.14	46389.42
520.31	46335.59
520.48	46457.29
520.65	46440.91
520.83	46546.23
521.00	46377.72
521.17	46511.13
521.34	46726.46
521.52	47035.41
521.69	46918.38
521.86	47433.30
522.03	47459.04
522.20	47164.14
522.38	47496.49
522.55	47515.22
522.72	47213.29
522.89	47915.45
523.07	48027.79
523.24	47735.23
523.41	48222.06
523.58	47557.35
523.75	47784.38
523.92	47957.58
524.10	48196.31
524.27	48123.75
524.44	48224.40
524.61	48456.11
524.78	48603.56
524.96	48470.15
525.13	48605.91
525.30	48701.87
525.47	48238.44
525.64	48280.57
525.81	48882.09
525.98	48928.90
526.16	49352.54
526.33	49078.69
526.50	49317.43
526.67	49226.15
526.84	49404.03
527.01	49177.00
527.18	49106.78
527.36	49399.35
527.53	49792.56
527.70	50014.91
527.87	49853.41
528.04	49801.92
528.21	49750.43
528.38	49734.04
528.55	49766.81
528.72	49696.59
528.89	50277.05
529.07	50110.87
529.24	50082.78
529.41	50391.73
529.58	50054.70
529.75	49780.85
529.92	50251.30
530.09	50475.99
530.26	50033.63
530.43	50213.85
530.60	50314.50
530.77	50239.60
530.94	50590.68
531.11	50834.10
531.28	50773.24
531.46	50574.30
531.63	50883.25
531.80	50726.43
531.97	50862.18
532.14	50625.79
532.31	50997.93
532.48	50859.84
532.65	50997.93
532.82	50946.44
532.99	50995.59
533.16	51229.65
533.33	51459.02
533.50	51484.76
533.67	51292.84
533.84	51332.63
534.01	51166.45
534.18	51327.95
534.35	51573.70
534.52	51639.24
534.69	51767.97
534.86	51758.61
535.03	51587.75
535.20	52006.70
535.37	51800.74
535.54	51899.04
535.71	51309.22
535.88	51730.52
536.05	51880.31
536.22	52107.35
536.38	52303.95
536.55	52336.72
536.72	52184.58
536.89	52018.41
537.06	52336.72
537.23	52109.69
537.40	52102.67
537.57	52142.45
537.74	52357.78
537.91	52643.33
538.08	52776.74
538.25	52142.45
538.42	52598.86
538.59	52369.49
538.75	52250.12
538.92	52505.24
539.09	52769.72
539.26	52498.22
539.43	52736.95
539.60	52556.73
539.77	52800.15
539.94	52921.85
540.11	52711.20
540.28	52910.15
540.44	52645.67
540.61	52882.06
540.78	52814.19
540.95	52896.11
541.12	53113.78
541.29	52903.13
541.46	53050.58
541.62	52858.66
541.79	53497.62
541.96	53059.94
542.13	53076.33
542.30	53303.36
542.47	53631.04
542.63	53233.14
542.80	53516.35
542.97	53640.40
543.14	53696.57
543.31	53396.98
543.48	53506.99
543.64	53701.25
543.81	53745.72
543.98	53467.20
544.15	53932.96
544.32	53993.82
544.48	54136.59
544.65	53858.07
544.82	53956.37
544.99	53642.74
545.16	53722.32
545.32	53888.49
545.49	54321.49
545.66	54340.22
545.83	54342.56
546.00	54344.90
546.16	54333.20
546.33	54052.33
546.50	53621.67
546.67	54258.30
546.83	53783.17
547.00	54401.07
547.17	54351.92
547.34	54452.56
547.50	54309.79
547.67	54789.60
547.84	54529.80
548.00	54511.08
548.17	54686.62
548.34	54501.71
548.51	54906.63
548.67	54834.07
548.84	54698.32
549.01	54419.80
549.18	54607.04
549.34	54688.96
549.51	54691.30
549.68	55105.57
549.84	54693.64
550.01	54859.82
550.18	54813.01
550.34	54857.48
550.51	54986.21
550.68	55014.29
550.84	54763.85
551.01	54974.50
551.18	54834.07
551.34	54784.92
551.51	54817.69
551.68	54983.86
551.84	54946.42
552.01	54871.52
552.18	55386.44
552.34	54951.10
552.51	55210.90
552.68	54930.03
552.84	55299.84
553.01	55566.66
553.18	55236.64
553.34	55236.64
553.51	55295.16
553.67	55487.08
553.84	55655.60
554.01	55313.88
554.17	55583.04
554.34	55540.91
554.51	55522.19
554.67	55430.91
554.84	55473.04
555.00	55622.83
555.17	55412.18
555.33	55676.66
555.50	55592.40
555.67	55372.39
555.83	55466.02
556.00	55606.45
556.16	56339.04
556.33	55608.79
556.50	55372.39
556.66	55737.52
556.83	55634.53
556.99	55711.77
557.16	55875.61
557.32	56044.13
557.49	55966.89
557.65	55480.06
557.82	56011.36
557.98	55758.58
558.15	55945.83
558.32	55992.64
558.48	56023.06
558.65	55901.36
558.81	56069.87
558.98	56081.58
559.14	56048.81
559.31	56011.36
559.47	55948.17
559.64	55877.95
559.80	55880.29
559.97	56076.90
560.13	55910.72
560.30	56009.02
560.46	56222.01
560.63	56310.95
560.79	55920.08
560.96	56130.73
561.12	56055.83
561.29	56018.38
561.45	56095.62
561.61	56502.87
561.78	56142.43
561.94	56322.65
562.11	56313.29
562.27	55985.61
562.44	56123.71
562.60	56116.68
562.77	56266.48
562.93	56278.18
563.10	56364.78
563.26	56205.62
563.42	56704.16
563.59	56310.95
563.75	56339.04
563.92	56369.46
564.08	56413.93
564.24	56336.69
564.41	56236.05
564.57	56442.02
564.74	56320.31
564.90	56357.76
565.07	56502.87
565.23	56470.11
565.39	56435.00
565.56	56392.87
565.72	56245.41
565.88	56505.21
566.05	56442.02
566.21	56516.92
566.38	56484.15
566.54	56411.59
566.70	56725.22
566.87	56757.99
567.03	56465.42
567.19	56697.14
567.36	56610.54
567.52	56320.31
567.68	56680.75
567.85	56245.41
568.01	56570.75
568.17	56472.45
568.34	56647.99
568.50	56774.37
568.66	56769.69
568.83	56465.42
568.99	56353.08
569.15	56456.06
569.32	56598.83
569.48	56252.44
569.64	56713.52
569.81	56535.64
569.97	56697.14
570.13	56720.54
570.30	56762.67
570.46	56776.72
570.62	56755.65
570.78	56659.69
570.95	56310.95
571.11	56692.46
571.27	56477.13
571.43	56598.83
571.60	56533.30
571.76	56395.21
571.92	56989.70
572.09	56907.79
572.25	56788.42
572.41	56767.35
572.57	56575.43
572.74	56830.55
572.90	56556.70
573.06	56650.33
573.22	56657.35
573.38	56858.63
573.55	56729.90
573.71	57113.75
573.87	56940.55
574.03	56690.12
574.20	56851.61
574.36	56755.65
574.52	56846.93
574.68	56769.69
574.84	56736.93
575.01	56622.24
575.17	56891.40
575.33	56947.57
575.49	56582.45
575.65	57013.11
575.82	57083.33
575.98	56582.45
576.14	56952.26
576.30	56797.78
576.46	56467.76
576.62	56619.90
576.79	56781.40
576.95	56699.48
577.11	56823.53
577.27	56774.37
577.43	56877.36
577.59	56706.50
577.75	56535.64
577.92	56699.48
578.08	56849.27
578.24	56659.69
578.40	56842.25
578.56	56750.97
578.72	56673.73
578.88	57017.79
579.04	56985.02
579.21	56860.97
579.37	56846.93
579.53	56931.19
579.69	56575.43
579.85	56647.99
580.01	56765.01
580.17	56968.64
580.33	56732.25
580.49	56875.02
580.65	56896.08
580.82	57097.37
580.98	56814.16
581.14	56905.44
581.30	56795.44
581.46	56896.08
581.62	56659.69
581.78	56631.60
581.94	56870.34
582.10	56666.71
582.26	56905.44
582.42	57036.51
582.58	57015.45
582.74	56727.56
582.90	57006.09
583.06	56938.21
583.22	56786.08
583.38	56765.01
583.54	56816.50
583.70	56886.72
583.86	56837.57
584.02	56697.14
584.18	57153.54
584.34	57097.37
584.50	57076.30
584.66	57022.47
584.82	56858.63
584.98	56690.12
585.14	56994.39
585.30	56727.56
585.46	56865.66
585.62	56837.57
585.78	57010.77
585.94	56844.59
586.10	56994.39
586.26	57155.88
586.42	57118.43
586.58	56903.10
586.74	56790.76
586.90	56921.83
587.06	56921.83
587.22	56966.30
587.38	57010.77
587.54	57233.12
587.70	57134.82
587.86	57078.64
588.02	57029.49
588.18	57176.95
588.34	57013.11
588.49	56924.17
588.65	56975.66
588.81	56891.40
588.97	57078.64
589.13	57013.11
589.29	57261.21
589.45	57151.20
589.61	57153.54
589.77	57169.93
589.93	57130.14
590.08	57120.77
590.24	57258.87
590.40	57254.18
590.56	57301.00
590.72	57130.14
590.88	57024.81
591.04	57083.33
591.20	57345.47
591.35	57268.23
591.51	57518.67
591.67	57499.94
591.83	57333.76
591.99	57282.27
592.15	57088.01
592.31	57296.31
592.46	57293.97
592.62	56959.28
592.78	57230.78
592.94	56985.02
593.10	56985.02
593.26	57350.15
593.41	57041.20
593.57	57296.31
593.73	57298.65
593.89	57181.63
594.05	57326.74
594.20	57183.97
594.36	57188.65
594.52	57235.46
594.68	57057.58
594.84	57006.09
594.99	57221.42
595.15	57303.34
595.31	57645.05
595.47	57392.28
595.62	57408.66
595.78	57048.22
595.94	57375.89
596.10	57036.51
596.25	57092.69
596.41	57015.45
596.57	56928.85
596.73	57286.95
596.88	56980.34
597.04	57506.96
597.20	57038.86
597.36	57572.50
597.51	57378.23
597.67	56982.68
597.83	57298.65
597.99	57305.68
598.14	57284.61
598.30	57331.42
598.46	57371.21
598.61	57284.61
598.77	57169.93
598.93	57446.11
599.09	57296.31
599.24	57804.21
599.40	57293.97
599.56	57516.32
599.71	57223.76
599.87	57415.68
600.03	57411.00
600.18	57228.44
600.34	57118.43
600.50	57261.21
600.65	57181.63
600.81	57684.84
600.97	57291.63
601.12	57523.35
601.28	57333.76
601.44	57380.57
601.59	57455.47
601.75	57396.96
601.91	57352.49
602.06	57020.13
602.22	57448.45
602.37	57062.26
602.53	57375.89
602.69	57261.21
602.84	57188.65
603.00	57368.87
603.16	57319.72
603.31	57411.00
603.47	57352.49
603.62	57097.37
603.78	57324.40
603.94	57120.77
604.09	57120.77
604.25	57104.39
604.40	57095.03
604.56	57228.44
604.71	57570.16
604.87	57219.08
605.03	57212.06
605.18	57193.33
605.34	57333.76
605.49	57045.88
605.65	57148.86
605.80	56961.62
605.96	57237.80
606.12	57326.74
606.27	57141.84
606.43	57073.96
606.58	56992.04
606.74	57134.82
606.89	57132.48
607.05	57034.17
607.20	57237.80
607.36	57071.62
607.51	57190.99
607.67	56823.53
607.82	56966.30
607.98	57118.43
608.13	56921.83
608.29	57095.03
608.44	57010.77
608.60	56942.89
608.75	57174.61
608.91	57237.80
609.06	56790.76
609.22	57015.45
609.37	56694.80
609.53	56584.79
609.68	56856.29
609.84	57020.13
609.99	56837.57
610.15	56757.99
610.30	57029.49
610.46	56790.76
610.61	57090.35
610.76	56917.15
610.92	56992.04
611.07	56870.34
611.23	56975.66
611.38	56886.72
611.54	57109.07
611.69	56732.25
611.84	56629.26
612.00	56502.87
612.15	56617.56
612.31	56809.48
612.46	56542.66
612.62	56886.72
612.77	56807.14
612.92	56985.02
613.08	56432.66
613.23	56975.66
613.39	56636.28
613.54	56631.60
613.69	56697.14
613.85	56486.49
614.00	56521.60
614.15	56949.92
614.31	56769.69
614.46	56678.41
614.62	56786.08
614.77	56802.46
614.92	56636.28
615.08	56837.57
615.23	56530.96
615.38	56446.70
615.54	56416.27
615.69	56444.36
615.84	56282.86
616.00	56486.49
616.15	56456.06
616.30	56552.02
616.46	56502.87
616.61	56425.64
616.76	56612.88
616.92	56629.26
617.07	56463.08
617.22	56404.57
617.37	56348.40
617.53	56236.05
617.68	56250.09
617.83	56065.19
617.99	56193.92
618.14	56243.07
618.29	56435.00
618.45	56207.97
618.60	56530.96
618.75	56243.07
618.90	56095.62
619.06	56207.97
619.21	56404.57
619.36	56222.01
619.51	55847.52
619.67	55770.28
619.82	56109.66
619.97	56069.87
620.12	55868.59
620.28	55931.78
620.43	56018.38
620.58	56025.40
620.73	55868.59
620.89	56172.86
621.04	56058.17
621.19	56140.09
621.34	55835.82
621.49	55884.97
621.65	55463.67
621.80	55877.95
621.95	55561.98
622.10	55833.48
622.25	55917.74
622.41	55723.47
622.56	55749.22
622.71	55894.33
622.86	55636.87
623.01	55922.42
623.16	55681.34
623.32	55597.09
623.47	55697.73
623.62	55620.49
623.77	55636.87
623.92	55735.18
624.07	55613.47
624.23	55758.58
624.38	55351.33
624.53	55594.74
624.68	55576.02
624.83	55964.55
624.98	55501.12
625.13	55519.85
625.29	55583.04
625.44	55437.93
625.59	55393.46
625.74	55213.24
625.89	55124.30
626.04	55255.37
626.19	54983.86
626.34	55082.17
626.49	55049.40
626.65	55075.15
626.80	55079.83
626.95	55105.57
627.10	55126.64
627.25	55257.71
627.40	55049.40
627.55	55370.05
627.70	55068.12
627.85	55009.61
628.00	54822.37
628.15	54988.55
628.30	54834.07
628.45	54906.63
628.60	54955.78
628.76	55056.42
628.91	55136.00
629.06	54836.41
629.21	54967.48
629.36	55126.64
629.51	54937.05
629.66	54855.14
629.81	54747.47
629.96	54714.70
630.11	54504.06
630.26	54649.17
630.41	54625.76
630.56	54368.30
630.71	54829.39
630.86	54892.58
631.01	54560.23
631.16	54705.34
631.31	54784.92
631.46	54478.31
631.61	54927.69
631.76	54499.37
631.91	54564.91
632.06	54314.47
632.21	54522.78
632.36	54365.96
632.51	54305.11
632.66	54389.37
632.81	54274.68
632.96	54578.95
633.10	54583.63
633.25	54419.80
633.40	54277.02
633.55	54382.35
633.70	54347.24
633.85	54316.81
634.00	54291.07
634.15	54010.20
634.30	54047.65
634.45	54192.76
634.60	53914.24
634.75	54183.40
634.90	54199.79
635.05	54457.24
635.19	54232.55
635.34	54277.02
635.49	54284.04
635.64	54363.62
635.79	53954.03
635.94	53991.48
636.09	53937.65
636.24	53890.83
636.39	54024.25
636.53	54045.31
636.68	53858.07
636.83	53937.65
636.98	53979.78
637.13	53820.62
637.28	53900.20
637.43	53961.05
637.57	53996.16
637.72	53563.16
637.87	53930.62
638.02	53806.58
638.17	53729.34
638.32	53743.38
638.46	53366.55
638.61	53464.86
638.76	53336.13
638.91	53614.65
639.06	53476.56
639.20	53467.20
639.35	53420.39
639.50	53514.01
639.65	53464.86
639.80	53586.57
639.94	53207.40
640.09	53530.39
640.24	53134.84
640.39	53535.07
640.54	53179.31
640.68	53333.79
640.83	53097.39
640.98	52842.27
641.13	52907.81
641.27	53193.36
641.42	53167.61
641.57	53102.07
641.72	53347.83
641.86	52858.66
642.01	53097.39
642.16	53097.39
642.31	52853.98
642.45	53179.31
642.60	52968.66
642.75	52736.95
642.90	52774.40
643.04	52692.48
643.19	53015.47
643.34	52802.49
643.48	52640.99
643.63	52828.23
643.78	52912.49
643.93	52736.95
644.07	52790.78
644.22	52701.84
644.37	52907.81
644.51	52811.85
644.66	52683.12
644.81	52680.78
644.95	52800.15
645.10	52619.92
645.25	52629.29
645.39	52467.79
645.54	52643.33
645.69	52334.38
645.83	52835.25
645.98	52568.43
646.13	52460.77
646.27	52580.13
646.42	52435.02
646.57	52303.95
646.71	52458.43
646.86	52547.37
647.00	52460.77
647.15	52364.81
647.30	52362.46
647.44	52336.72
647.59	52200.97
647.74	52273.52
647.88	52418.64
648.03	52172.88
648.17	52385.87
648.32	52329.70
648.47	52243.10
648.61	52025.43
648.76	52271.18
648.90	51985.64
649.05	52088.62
649.20	51669.67
649.34	52313.31
649.49	51896.70
649.63	51571.36
649.78	52161.18
649.92	51971.60
650.07	52299.27
650.21	52313.31
650.36	51889.68
650.51	51842.87
650.65	52172.88
650.80	51929.47
650.94	51875.63
651.09	51866.27
651.23	51608.81
651.38	51756.27
651.52	51786.69
651.67	51922.44
651.81	51636.90
651.96	51611.15
652.10	51334.97
652.25	51910.74
652.39	51718.82
652.54	51803.08
652.68	51821.80
652.83	51695.41
652.97	51807.76
653.12	51877.97
653.26	51409.87
653.41	51353.69
653.55	51313.90
653.70	51168.79
653.84	51632.22
653.99	51327.95
654.13	51529.23
654.27	51269.43
654.42	51416.89
654.56	51269.43
654.71	51681.37
654.85	51063.47
655.00	51334.97
655.14	51124.32
655.29	51054.11
655.43	51203.90
655.57	51014.32
655.72	50822.39
655.86	51040.06
656.01	50574.30
656.15	50773.24
656.30	50843.46
656.44	50679.62
656.58	50726.43
656.73	50506.42
656.87	50843.46
657.01	50714.73
657.16	51033.04
657.30	50925.38
657.45	51002.61
657.59	51086.87
657.73	50658.56
657.88	50660.90
658.02	50396.42
658.16	50281.73
658.31	50490.04
658.45	50164.70
658.60	50035.97
658.74	50461.95
658.88	50475.99
659.03	50108.53
659.17	50344.92
659.31	50253.64
659.46	50071.08
659.60	50508.76
659.74	50323.86
659.89	50349.60
660.03	50361.31
660.17	50464.29
660.32	50075.76
660.46	49890.86
660.60	49663.83
660.74	50328.54
660.89	49502.33
661.03	50005.55
661.17	49516.37
661.32	49619.36
661.46	49638.08
661.60	49397.01
661.74	49525.74
661.89	49483.61
662.03	49624.04
662.17	49645.10
662.31	48905.49
662.46	49312.75
662.60	49378.28
662.74	49294.02
662.88	49031.88
663.03	48882.09
663.17	49092.74
663.31	48582.50
663.45	48744.00
663.60	48739.32
663.74	48868.05
663.88	48568.46
664.02	48692.50
664.17	48954.64
664.31	48498.24
664.45	48802.51
664.59	48582.50
664.73	48271.21
664.88	48488.88
665.02	47540.96
665.16	47882.68
665.30	48203.33
665.44	47985.66
665.59	47814.80
665.73	47980.98
665.87	48095.67
666.01	48086.31
666.15	48037.16
666.29	47751.61
666.44	48048.86
666.58	47381.80
666.72	47716.50
666.86	47880.34
667.00	47585.43
667.14	47468.40
667.28	47477.77
667.43	47550.32
667.57	47643.94
667.71	46960.51
667.85	47311.59
667.99	47187.54
668.13	46859.87
668.27	46740.50
668.41	47079.88
668.56	46571.98
668.70	47089.24
668.84	47077.54
668.98	46801.35
669.12	46705.39
669.26	46794.33
669.40	47058.81
669.54	46829.44
669.68	46394.10
669.82	46230.26
669.96	46216.22
670.10	45895.56
670.25	46047.70
670.39	45752.79
670.53	45544.48
670.67	45701.30
670.81	45811.31
670.95	45902.59
671.09	45738.75
671.23	45605.34
671.37	45846.41
671.51	45949.40
671.65	45462.57
671.79	45434.48
671.93	45415.76
672.07	45577.25
672.21	45467.25
672.35	44999.14
672.49	44877.43
672.63	45415.76
672.77	44580.18
672.91	44748.70
673.05	44718.28
673.19	44821.26
673.33	44830.62
673.47	44739.34
673.61	44898.50
673.75	44858.71
673.89	44790.83
674.03	44282.94
674.17	44247.83
674.31	44381.24
674.45	43763.34
674.59	43782.06
674.73	43901.43
674.87	43625.25
675.01	43531.62
675.15	43407.58
675.29	43627.59
675.43	43409.92
675.56	43117.35
675.70	43531.62
675.84	43199.27
675.98	42244.33
676.12	43349.06
676.26	43154.80
676.40	42927.77
676.54	42799.04
676.68	42873.93
676.82	41769.20
676.96	42155.39
677.10	41890.91
677.23	41972.83
677.37	41930.70
677.51	41874.52
677.65	41766.86
677.79	41132.57
677.93	41247.26
678.07	41081.08
678.21	41022.57
678.34	41144.28
678.48	41092.79
678.62	40994.48
678.76	40762.77
678.90	40648.08
679.04	40432.75
679.18	40456.16
679.31	40079.33
679.45	39800.81
679.59	40060.61
679.73	39861.66
679.87	39894.43
680.00	39477.82
680.14	39557.39
680.28	39264.83
680.42	39278.87
680.56	39557.39
680.70	39215.68
680.83	39374.83
680.97	39562.08
681.11	39058.86
681.25	38906.73
681.39	38766.29
681.52	38885.66
681.66	38770.97
681.80	37956.47
681.94	38230.31
682.07	38183.50
682.21	37684.97
682.35	37507.08
682.49	37677.94
682.62	37439.21
682.76	37329.20
682.90	37249.63
683.04	37158.34
683.17	37385.38
683.31	37235.58
683.45	37471.98
683.59	36966.42
683.72	36753.43
683.86	36081.70
684.00	36577.89
684.13	36180.00
684.27	36266.60
684.41	35885.09
684.55	35899.14
684.68	35929.56
684.82	35887.43
684.96	35957.65
685.09	35379.54
685.23	35147.82
685.37	35550.40
685.50	35346.77
685.64	35587.85
685.78	35370.18
685.91	35089.31
686.05	35000.37
686.19	34916.11
686.32	34426.94
686.46	34323.96
686.60	34148.42
686.73	34176.50
686.87	34029.05
687.01	33837.12
687.14	33439.23
687.28	33411.15
687.42	34103.95
687.55	33134.96
687.69	33160.71
687.82	33336.25
687.96	33729.46
688.10	33167.73
688.23	33163.05
688.37	33191.14
688.50	32912.61
688.64	33088.15
688.78	32573.24
688.91	31864.05
689.05	32189.39
689.18	32231.52
689.32	32053.64
689.46	31763.41
689.59	31690.85
689.73	32084.06
689.86	32065.34
690.00	31468.50
690.13	31725.96
690.27	31332.75
690.41	31405.31
690.54	30993.37
690.68	31161.89
690.81	31227.43
690.95	30916.14
691.08	31438.08
691.22	30881.03
691.35	30569.74
691.49	30492.50
691.62	29970.56
691.76	30195.25
691.89	29795.02
692.03	29961.20
692.16	29649.91
692.30	29298.83
692.43	29649.91
692.57	29408.83
692.70	29046.05
692.84	29593.73
692.97	29216.91
693.11	29177.12
693.24	29333.93
693.38	28989.88
693.51	29015.62
693.65	28758.16
693.78	28744.12
693.92	28631.77
694.05	28685.61
694.19	28563.90
694.32	28250.27
694.45	28453.89
694.59	28074.73
694.72	27716.62
694.86	27630.02
694.99	27124.47
695.13	27398.31
695.26	27307.03
695.39	27009.78
695.53	27426.40
695.66	27229.79
695.80	27222.77
695.93	27030.85
696.07	26759.34
696.20	27063.61
696.33	26719.56
696.47	26639.98
696.60	26434.01
696.73	26214.00
696.87	26291.24
697.00	26316.98
697.14	25645.25
697.27	25195.87
697.40	25308.21
697.54	25139.69
697.67	25132.67
697.80	25172.46
697.94	25432.26
698.07	24760.53
698.21	24716.06
698.34	25116.29
698.47	24774.57
698.61	24727.76
698.74	24566.26
698.87	24968.84
699.01	24425.83
699.14	24472.64
699.27	24409.45
699.40	24372.00
699.54	24133.26
699.67	23660.48
699.80	23351.52
699.94	23463.87
700.07	23405.36
700.20	23318.76
700.34	23133.86
700.47	23545.79
700.60	23218.11
700.73	23349.18
700.87	23335.14
701.00	23255.56
701.13	23178.33
701.26	22867.03
701.40	22766.39
701.53	22628.30
701.66	22405.95
701.79	22625.96
701.93	22459.78
702.06	21935.50
702.19	21986.99
702.32	22223.39
702.46	21820.81
702.59	21687.40
702.72	21371.43
702.85	21120.99
702.99	21088.23
703.12	21172.49
703.25	21479.10
703.38	21106.95
703.51	21099.93
703.65	21006.31
703.78	20922.05
703.91	20666.93
704.04	20779.28
704.17	20758.21
704.31	20592.03
704.44	20404.79
704.57	20334.57
704.70	20023.28
704.83	20009.24
704.96	19985.83
705.10	19882.85
705.23	19679.22
>>>>>End Processed Spectral Data<<<<<
