SpectraSuite Data File
++++++++++++++++++++++++++++++++++++
Date: Fri Oct 18 13:55:28 GMT-05:00 2013
User: bianchi
Dark Spectrum Present: No
Reference Spectrum Present: No
Number of Sampled Component Spectra: 1
Spectrometers: USB2+H05261
Integration Time (usec): 100000 (USB2+H05261)
Spectra Averaged: 1 (USB2+H05261)
Boxcar Smoothing: 0 (USB2+H05261)
Correct for Electrical Dark: No (USB2+H05261)
Strobe/Lamp Enabled: No (USB2+H05261)
Correct for Detector Non-linearity: No (USB2+H05261)
Correct for Stray Light: No (USB2+H05261)
Number of Pixels in Processed Spectrum: 2048
>>>>>Begin Processed Spectral Data<<<<<
365.73	0.00
365.92	0.00
366.12	0.00
366.32	0.00
366.52	0.00
366.72	0.00
366.91	0.00
367.11	0.00
367.31	0.00
367.51	0.00
367.70	0.00
367.90	0.00
368.10	0.00
368.30	0.00
368.49	0.00
368.69	0.00
368.89	0.00
369.09	0.00
369.28	0.00
369.48	0.00
369.68	0.00
369.87	0.00
370.07	0.00
370.27	0.00
370.47	0.00
370.66	283.20
370.86	283.20
371.06	243.42
371.25	337.04
371.45	285.55
371.65	355.76
371.84	344.06
372.04	376.83
372.24	351.08
372.44	327.68
372.63	416.62
372.83	447.04
373.03	341.72
373.22	372.15
373.42	395.55
373.62	468.11
373.81	500.87
374.01	423.64
374.21	538.32
374.40	519.60
374.60	557.05
374.79	505.56
374.99	454.06
375.19	486.83
375.38	545.34
375.58	554.71
375.78	580.45
375.97	461.09
376.17	491.51
376.37	482.15
376.56	554.71
376.76	528.96
376.95	472.79
377.15	564.07
377.35	531.30
377.54	589.82
377.74	566.41
377.93	571.09
378.13	596.84
378.33	695.14
378.52	617.90
378.72	477.47
378.91	615.56
379.11	543.00
379.31	610.88
379.50	561.73
379.70	704.50
379.89	681.10
380.09	606.20
380.28	645.99
380.48	662.37
380.68	620.24
380.87	599.18
381.07	641.31
381.26	606.20
381.46	615.56
381.65	660.03
381.85	655.35
382.04	601.52
382.24	725.57
382.43	709.18
382.63	758.33
382.83	784.08
383.02	720.88
383.22	779.40
383.41	695.14
383.61	765.36
383.80	753.65
384.00	739.61
384.19	770.04
384.39	774.72
384.58	739.61
384.78	795.78
384.97	732.59
385.17	746.63
385.36	805.14
385.56	880.04
385.75	833.23
385.95	748.97
386.14	774.72
386.34	774.72
386.53	915.15
386.72	791.10
386.92	821.53
387.11	828.55
387.31	814.51
387.50	835.57
387.70	931.53
387.89	868.34
388.09	889.40
388.28	887.06
388.48	868.34
388.67	929.19
388.86	952.60
389.06	884.72
389.25	889.40
389.45	964.30
389.64	936.21
389.84	891.74
390.03	1008.77
390.22	931.53
390.42	1022.81
390.61	875.36
390.81	903.45
391.00	933.87
391.19	1011.11
391.39	1025.15
391.58	999.41
391.78	1086.01
391.97	1146.86
392.16	997.07
392.36	1181.97
392.55	1095.37
392.75	1034.52
392.94	1118.78
393.13	1144.52
393.33	1102.39
393.52	1095.37
393.71	1247.51
393.91	1233.46
394.10	1296.66
394.29	1226.44
394.49	1165.59
394.68	1249.85
394.88	1172.61
395.07	1373.89
395.26	1219.42
395.46	1294.32
395.65	1390.28
395.84	1366.87
396.04	1345.81
396.23	1380.92
396.42	1394.96
396.62	1416.02
396.81	1331.76
397.00	1376.24
397.19	1336.45
397.39	1385.60
397.58	1446.45
397.77	1289.64
397.97	1362.19
398.16	1500.28
398.35	1413.68
398.55	1465.18
398.74	1488.58
398.93	1570.50
399.12	1467.52
399.32	1455.81
399.51	1483.90
399.70	1668.80
399.90	1624.33
400.09	1544.75
400.28	1612.63
400.47	1579.86
400.67	1584.54
400.86	1619.65
401.05	1650.08
401.24	1535.39
401.44	1659.44
401.63	1671.14
401.82	1685.19
402.01	1806.89
402.21	1750.72
402.40	1734.34
402.59	1729.66
402.78	1881.79
402.97	1788.17
403.17	1846.68
403.36	1769.44
403.55	1916.90
403.74	1956.69
403.93	1898.17
404.13	1827.96
404.32	1834.98
404.51	1926.26
404.70	2015.20
404.89	1928.60
405.09	2038.61
405.28	1947.33
405.47	1874.77
405.66	2113.50
405.85	2106.48
406.05	2076.06
406.24	2115.84
406.43	2078.40
406.62	2099.46
406.81	2132.23
407.00	1949.67
407.20	2059.67
407.39	2267.98
407.58	2303.09
407.77	2307.77
407.96	2317.13
408.15	2396.71
408.34	2403.73
408.54	2373.30
408.73	2310.11
408.92	2345.22
409.11	2385.01
409.30	2455.22
409.49	2511.39
409.68	2490.33
409.87	2373.30
410.07	2609.70
410.26	2569.91
410.45	2523.10
410.64	2553.52
410.83	2572.25
411.02	2623.74
411.21	2506.71
411.40	2590.97
411.59	2700.98
411.78	2869.50
411.98	2794.60
412.17	2869.50
412.36	2740.77
412.55	2825.03
412.74	2923.33
412.93	2892.90
413.12	2984.18
413.31	3049.72
413.50	3035.67
413.69	3101.21
413.88	3126.96
414.07	3028.65
414.26	3103.55
414.45	3180.79
414.64	3199.51
414.83	3199.51
415.02	3234.62
415.22	3361.01
415.41	3442.93
415.60	3379.73
415.79	3389.10
415.98	3435.91
416.17	3499.10
416.36	3513.14
416.55	3562.30
416.74	3616.13
416.93	3522.51
417.12	3655.92
417.31	3538.89
417.50	3749.54
417.69	3838.48
417.88	3712.09
418.07	3712.09
418.26	3702.73
418.45	3889.97
418.64	3925.08
418.83	3920.40
419.02	3840.82
419.21	3969.55
419.39	4039.76
419.58	3939.12
419.77	4021.04
419.96	3988.27
420.15	3960.19
420.34	4063.17
420.53	4037.42
420.72	4250.41
420.91	4250.41
421.10	4269.14
421.29	4231.69
421.48	4105.30
421.67	4313.61
421.86	4320.63
422.05	4308.93
422.24	4227.01
422.43	4372.12
422.61	4353.40
422.80	4463.40
422.99	4505.53
423.18	4470.42
423.37	4564.04
423.56	4416.59
423.75	4358.08
423.94	4482.13
424.13	4107.64
424.32	4311.27
424.50	4538.30
424.69	4627.24
424.88	4528.94
425.07	4535.96
425.26	4468.08
425.45	4571.07
425.64	4596.81
425.83	4531.28
426.01	4589.79
426.20	4561.70
426.39	4587.45
426.58	4475.10
426.77	4578.09
426.96	4690.43
427.15	4652.98
427.33	4720.86
427.52	4676.39
427.71	4631.92
427.90	4788.74
428.09	4844.91
428.28	4683.41
428.46	4762.99
428.65	4919.81
428.84	4823.84
429.03	4882.36
429.22	4814.48
429.40	5076.62
429.59	5015.77
429.78	4908.10
429.97	4737.24
430.16	4959.60
430.34	4968.96
430.53	5170.24
430.72	5165.56
430.91	5020.45
431.10	5046.20
431.28	5254.50
431.47	5301.31
431.66	5364.51
431.85	5252.16
432.03	5476.85
432.22	5551.75
432.41	5509.62
432.60	5369.19
432.79	5320.04
432.97	5476.85
433.16	5497.92
433.35	5533.03
433.54	5486.22
433.72	5570.48
433.91	5530.69
434.10	5610.26
434.28	5598.56
434.47	5729.63
434.66	5643.03
434.85	5685.16
435.03	5729.63
435.22	5738.99
435.41	5987.09
435.59	5757.72
435.78	5898.15
435.97	5865.38
436.16	5980.07
436.34	5954.32
436.53	5898.15
436.72	6076.03
436.90	5902.83
437.09	6017.52
437.28	6066.67
437.46	6132.20
437.65	6069.01
437.84	6179.01
438.02	6207.10
438.21	6225.82
438.40	6153.27
438.58	6300.72
438.77	6331.15
438.96	6333.49
439.14	6541.80
439.33	6565.20
439.52	6616.69
439.70	6579.25
439.89	6806.28
440.08	6806.28
440.26	6986.50
440.45	6670.53
440.63	6988.84
440.82	6946.71
441.01	6984.16
441.19	6986.50
441.38	7148.00
441.57	7215.87
441.75	7248.64
441.94	7370.35
442.12	7222.89
442.31	7468.65
442.50	7456.95
442.68	7445.24
442.87	7316.51
443.05	7431.20
443.24	7660.57
443.43	7625.47
443.61	7478.01
443.80	7583.34
443.98	7360.98
444.17	7133.95
444.35	7552.91
444.54	7730.79
444.73	7674.62
444.91	7735.47
445.10	7581.00
445.28	7606.74
445.47	7562.27
445.65	7742.49
445.84	7845.48
446.02	7716.75
446.21	7700.36
446.39	7735.47
446.58	7985.91
446.77	7742.49
446.95	7489.71
447.14	7705.04
447.32	7604.40
447.51	7709.72
447.69	7777.60
447.88	7840.79
448.06	7896.97
448.25	7674.62
448.43	7747.17
448.62	7997.61
448.80	7985.91
448.99	8131.02
449.17	7967.18
449.36	8067.83
449.54	8189.53
449.73	8201.24
449.91	8409.54
450.10	8156.77
450.28	8294.86
450.46	8344.01
450.65	8278.47
450.83	8564.02
451.02	8297.20
451.20	8411.89
451.39	8547.64
451.57	8407.20
451.76	8376.78
451.94	8428.27
452.13	8596.79
452.31	8575.72
452.49	8519.55
452.68	8688.07
452.86	8439.97
453.05	8718.50
453.23	8762.97
453.42	8451.67
453.60	8659.98
453.78	8631.90
453.97	8613.17
454.15	8645.94
454.34	8685.73
454.52	9008.72
454.70	9034.47
454.89	8882.33
455.07	9158.52
455.26	8947.87
455.44	9149.15
455.62	9226.39
455.81	9116.39
455.99	9217.03
456.17	9214.69
456.36	9331.72
456.54	9291.93
456.73	9172.56
456.91	9551.73
457.09	9673.43
457.28	9584.49
457.46	9350.44
457.64	9643.01
457.83	9617.26
458.01	9523.64
458.19	9827.91
458.38	9736.63
458.56	10017.49
458.74	9926.21
458.93	9724.93
459.11	9867.70
459.29	9748.33
459.48	9839.61
459.66	9771.74
459.84	9837.27
460.03	10085.37
460.21	9879.40
460.39	10136.86
460.57	9907.49
460.76	9940.26
460.94	10373.25
461.12	10253.89
461.31	10256.23
461.49	10291.34
461.67	10216.44
461.85	10305.38
462.04	10225.80
462.22	10824.98
462.40	10576.88
462.59	10384.96
462.77	10499.64
462.95	10506.66
463.13	10766.46
463.32	10401.34
463.50	10677.52
463.68	10799.23
463.86	10590.92
464.05	10619.01
464.23	10572.20
464.41	10864.77
464.59	10822.64
464.78	11035.63
464.96	10895.19
465.14	10588.58
465.32	10729.02
465.50	11044.99
465.69	11133.93
465.87	11063.71
466.05	10813.28
466.23	10925.62
466.41	11122.23
466.60	11358.62
466.78	11044.99
466.96	11145.63
467.14	11068.39
467.32	11477.99
467.51	11499.05
467.69	11028.60
467.87	11250.96
468.05	11346.92
468.23	11232.23
468.41	11475.65
468.60	11459.26
468.78	11829.07
468.96	11501.39
469.14	11625.44
469.32	11557.57
469.50	11396.07
469.69	11679.27
469.87	12035.03
470.05	11882.90
470.23	11899.28
470.41	11803.32
470.59	12077.16
470.77	11946.09
470.95	11964.82
471.14	12294.83
471.32	12107.59
471.50	12491.44
471.68	12484.42
471.86	12208.23
472.04	12594.42
472.22	12711.45
472.40	12498.46
472.58	12559.31
472.77	12762.94
472.95	12685.70
473.13	13121.04
473.31	12791.03
473.49	12737.20
473.67	12737.20
473.85	12898.69
474.03	13160.83
474.21	13422.97
474.39	13406.59
474.57	13345.73
474.75	13486.17
474.93	13729.58
475.12	13469.78
475.30	13598.51
475.48	13610.22
475.66	13841.93
475.84	13961.30
476.02	14022.15
476.20	13886.40
476.38	14363.87
476.56	14553.45
476.74	14501.96
476.92	14623.67
477.10	14525.36
477.28	14434.08
477.46	14616.65
477.64	14930.28
477.82	15143.27
478.00	15515.41
478.18	15314.13
478.36	15522.43
478.54	15449.88
478.72	15459.24
478.90	15548.18
479.08	15800.96
479.26	15756.49
479.44	16049.05
479.62	16135.65
479.80	16507.80
479.98	16369.71
480.16	16453.97
480.34	16468.01
480.52	16610.78
480.70	16901.01
480.88	16643.55
481.06	16886.97
481.24	16980.59
481.41	17467.42
481.59	17453.37
481.77	17722.54
481.95	17879.35
482.13	17921.48
482.31	18118.09
482.49	18272.56
482.67	17954.25
482.85	18317.03
483.03	18668.11
483.21	19061.32
483.39	19068.34
483.57	19159.63
483.74	19157.28
483.92	19477.94
484.10	19197.07
484.28	19878.17
484.46	20189.46
484.64	20229.25
484.82	20060.73
485.00	20554.58
485.18	20545.22
485.35	20830.77
485.53	20903.32
485.71	20762.89
485.89	21261.43
486.07	21231.00
486.25	21099.93
486.43	20999.29
486.61	21525.91
486.78	21556.33
486.96	22005.72
487.14	22305.31
487.32	22298.28
487.50	23014.49
487.68	22396.59
487.85	22946.61
488.03	23314.08
488.21	23381.95
488.39	23384.29
488.57	23840.70
488.75	23927.30
488.92	24180.07
489.10	24222.20
489.28	24210.50
489.46	24393.06
489.64	24507.75
489.81	24989.90
489.99	25055.43
490.17	25226.29
490.35	25380.77
490.53	25387.79
490.70	25472.05
490.88	25738.87
491.06	26478.48
491.24	25951.86
491.41	26054.84
491.59	26515.93
491.77	26436.35
491.95	26635.30
492.13	26904.46
492.30	26932.54
492.48	27253.20
492.66	27257.88
492.84	27391.29
493.01	28060.68
493.19	27618.32
493.37	28009.19
493.54	28116.86
493.72	28355.59
493.90	28460.91
494.08	28723.05
494.25	29057.75
494.43	28966.47
494.61	29301.17
494.79	29359.68
494.96	29867.58
495.14	29818.42
495.32	29743.53
495.49	29827.79
495.67	30232.70
495.85	30558.03
496.02	30813.15
496.20	31005.08
496.38	30864.64
496.55	30981.67
496.73	31236.79
496.91	31250.83
497.09	31730.64
497.26	31796.18
497.44	31569.15
497.62	31892.14
497.79	32123.85
497.97	32149.60
498.14	32304.07
498.32	32430.46
498.50	32844.74
498.67	32931.34
498.85	32954.74
499.03	33584.35
499.20	33202.84
499.38	33336.25
499.56	33640.52
499.73	33745.84
499.91	33680.31
500.08	34050.11
500.26	33567.96
500.44	33975.22
500.61	34071.18
500.79	34274.80
500.97	34548.65
501.14	34653.97
501.32	34866.96
501.49	34902.07
501.67	34546.31
501.84	34820.15
502.02	35552.74
502.20	35370.18
502.37	35754.02
502.55	35695.51
502.72	35583.16
502.90	35459.12
503.07	35421.67
503.25	35899.14
503.43	35452.09
503.60	36517.04
503.78	36613.00
503.95	36147.23
504.13	36158.94
504.30	36531.08
504.48	36313.41
504.65	36776.84
504.83	37177.07
505.01	37144.30
505.18	37223.88
505.36	37378.36
505.53	37181.75
505.71	37558.58
505.88	37502.40
506.06	37167.71
506.23	38209.25
506.41	37778.59
506.58	38082.86
506.76	38024.34
506.93	38293.50
507.11	37923.70
507.28	38546.28
507.46	38415.21
507.63	38342.66
507.81	38794.38
507.98	38213.93
508.16	38958.22
508.33	39026.09
508.50	39309.30
508.68	39461.43
508.85	39498.88
509.03	39852.30
509.20	39386.54
509.38	40322.75
509.55	40325.09
509.73	40009.12
509.90	40119.12
510.08	40079.33
510.25	40238.49
510.42	40540.42
510.60	40804.90
510.77	40697.24
510.95	40893.84
511.12	40699.58
511.30	40835.33
511.47	41031.93
511.64	41015.55
511.82	41530.47
511.99	41270.67
512.17	41553.87
512.34	41556.21
512.51	41801.97
512.69	41879.21
512.86	42059.43
513.04	42265.39
513.21	42054.75
513.38	42597.75
513.56	42656.26
513.73	42188.16
513.90	42864.57
514.08	42382.42
514.25	42511.15
514.43	42930.11
514.60	43009.68
514.77	43241.40
514.95	43445.02
515.12	43112.67
515.29	42845.85
515.47	43772.70
515.64	43304.59
515.81	43697.80
515.99	43711.84
516.16	44327.41
516.33	44767.43
516.51	44182.29
516.68	43639.29
516.85	43810.15
517.03	44076.97
517.20	44685.51
517.37	44591.89
517.54	43971.64
517.72	44713.59
517.89	44790.83
518.06	44509.97
518.24	44596.57
518.41	44725.30
518.58	44814.24
518.75	44797.85
518.93	45085.74
519.10	45249.58
519.27	45375.97
519.45	44898.50
519.62	45305.75
519.79	45287.03
519.96	45347.88
520.14	45734.07
520.31	45862.80
520.48	45813.65
520.65	45951.74
520.83	46293.46
521.00	45787.90
521.17	45698.96
521.34	46225.58
521.52	46263.03
521.69	46358.99
521.86	46672.62
522.03	46911.36
522.20	46749.86
522.38	46480.70
522.55	46447.93
522.72	46831.78
522.89	47014.34
523.07	47283.50
523.24	47229.67
523.41	47360.74
523.58	47086.90
523.75	47592.45
523.92	47171.16
524.10	47409.89
524.27	47636.92
524.44	47686.07
524.61	47999.71
524.78	47969.28
524.96	48123.75
525.13	47641.60
525.30	48149.50
525.47	48189.29
525.64	47824.17
525.81	48112.05
525.98	48397.60
526.16	48200.99
526.33	48512.28
526.50	48432.71
526.67	48268.87
526.84	48580.16
527.01	48409.30
527.18	48622.29
527.36	48811.87
527.53	49045.93
527.70	48849.32
527.87	49476.58
528.04	49092.74
528.21	49048.27
528.38	49036.56
528.55	49134.87
528.72	49308.07
528.89	49418.07
529.07	49361.90
529.24	49235.51
529.41	49258.91
529.58	49031.88
529.75	49649.78
529.92	49516.37
530.09	49258.91
530.26	49560.84
530.43	49986.82
530.60	49762.13
530.77	49659.15
530.94	50042.99
531.11	49654.47
531.28	49937.67
531.46	49968.10
531.63	50452.59
531.80	50190.45
531.97	50590.68
532.14	50483.01
532.31	50157.68
532.48	50693.66
532.65	50670.26
532.82	50340.24
532.99	50445.57
533.16	50506.42
533.33	50698.34
533.50	50827.07
533.67	50866.86
533.84	50806.01
534.01	50773.24
534.18	50513.44
534.35	51030.70
534.52	50906.65
534.69	51136.02
534.86	51320.93
535.03	51208.58
535.20	51206.24
535.37	51208.58
535.54	51182.84
535.71	51124.32
535.88	51171.13
536.05	51313.90
536.22	51447.32
536.38	51531.57
536.55	51655.62
536.72	51774.99
536.89	51395.82
537.06	51725.84
537.23	51604.13
537.40	51388.80
537.57	51632.22
537.74	51650.94
537.91	52261.82
538.08	51910.74
538.25	51569.02
538.42	51805.42
538.59	52151.82
538.75	51945.85
538.92	52006.70
539.09	52055.85
539.26	52119.05
539.43	52207.99
539.60	52196.29
539.77	52196.29
539.94	52451.41
540.11	52198.63
540.28	52308.63
540.44	52313.31
540.61	52177.56
540.78	52577.79
540.95	52568.43
541.12	52392.89
541.29	52495.88
541.46	52650.35
541.62	52292.25
541.79	52545.03
541.96	52163.52
542.13	52530.98
542.30	52905.47
542.47	52996.75
542.63	52954.62
542.80	52856.32
542.97	53153.57
543.14	53010.79
543.31	52891.43
543.48	52774.40
543.64	53392.30
543.81	53343.15
543.98	53535.07
544.15	53483.58
544.32	53502.31
544.48	53528.05
544.65	53516.35
544.82	53373.58
544.99	53207.40
545.16	53312.72
545.32	53385.28
545.49	53890.83
545.66	53773.81
545.83	53656.78
546.00	53799.55
546.16	53748.06
546.33	53347.83
546.50	53420.39
546.67	53698.91
546.83	53181.65
547.00	53808.92
547.17	53642.74
547.34	53851.05
547.50	53986.80
547.67	54347.24
547.84	53787.85
548.00	53979.78
548.17	54443.20
548.34	54298.09
548.51	54251.28
548.67	54115.53
548.84	54293.41
549.01	54064.03
549.18	54326.17
549.34	54066.38
549.51	54113.19
549.68	54337.88
549.84	53993.82
550.01	54108.50
550.18	54183.40
550.34	54508.74
550.51	54717.04
550.68	54492.35
550.84	54162.34
551.01	54906.63
551.18	54356.60
551.34	54120.21
551.51	54305.11
551.68	54686.62
551.84	54539.16
552.01	54529.80
552.18	54714.70
552.34	54513.42
552.51	54602.36
552.68	54550.87
552.84	54602.36
553.01	54864.50
553.18	54726.41
553.34	55124.30
553.51	54831.73
553.67	54969.82
553.84	55166.43
554.01	54866.84
554.17	54808.32
554.34	54937.05
554.51	54738.11
554.67	54934.71
554.84	55075.15
555.00	55171.11
555.17	54923.01
555.33	54859.82
555.50	55002.59
555.67	54908.97
555.83	55037.70
556.00	55063.44
556.16	55201.53
556.33	55136.00
556.50	55105.57
556.66	55274.09
556.83	55281.11
556.99	55447.29
557.16	55531.55
557.32	55409.84
557.49	55302.18
557.65	55164.09
557.82	55253.03
557.98	55501.12
558.15	55430.91
558.32	55365.37
558.48	55381.76
558.65	55660.28
558.81	55620.49
558.98	55526.87
559.14	55358.35
559.31	55391.12
559.47	55505.80
559.64	55674.32
559.80	55423.89
559.97	55660.28
560.13	55451.97
560.30	55573.68
560.46	55580.70
560.63	55613.47
560.79	55351.33
560.96	55774.97
561.12	55702.41
561.29	55796.03
561.45	55760.92
561.61	55920.08
561.78	55758.58
561.94	55800.71
562.11	55805.39
562.27	55852.20
562.44	55686.03
562.60	55793.69
562.77	55826.46
562.93	55756.24
563.10	55948.17
563.26	55732.84
563.42	55962.21
563.59	55915.40
563.75	56119.02
563.92	55969.23
564.08	55969.23
564.24	55828.80
564.41	55655.60
564.57	55700.07
564.74	55730.50
564.90	56060.51
565.07	56023.06
565.23	56011.36
565.39	56037.11
565.56	55980.93
565.72	55758.58
565.88	55985.61
566.05	56037.11
566.21	55735.18
566.38	56109.66
566.54	55831.14
566.70	56301.59
566.87	56278.18
567.03	55950.51
567.19	56156.47
567.36	56006.68
567.52	56018.38
567.68	55966.89
567.85	55662.62
568.01	56261.80
568.17	56109.66
568.34	56310.95
568.50	56137.75
568.66	56154.13
568.83	56324.99
568.99	56126.05
569.15	56154.13
569.32	56142.43
569.48	55917.74
569.64	56247.75
569.81	56104.98
569.97	55793.69
570.13	56268.82
570.30	56102.64
570.46	56425.64
570.62	56168.18
570.78	55971.57
570.95	56252.44
571.11	55980.93
571.27	55817.10
571.43	56123.71
571.60	56147.11
571.76	56229.03
571.92	56219.67
572.09	56336.69
572.25	56493.51
572.41	56240.73
572.57	56245.41
572.74	56378.82
572.90	56119.02
573.06	55906.04
573.22	56025.40
573.38	56409.25
573.55	56303.93
573.71	56465.42
573.87	56446.70
574.03	56198.60
574.20	56418.61
574.36	55952.85
574.52	56521.60
574.68	55901.36
574.84	56310.95
575.01	56198.60
575.17	56289.88
575.33	56086.26
575.49	56299.25
575.65	56257.12
575.82	56425.64
575.98	56243.07
576.14	56175.20
576.30	56516.92
576.46	56062.85
576.62	56039.45
576.79	56140.09
576.95	56259.46
577.11	56266.48
577.27	56355.42
577.43	56315.63
577.59	56388.19
577.75	56320.31
577.92	56133.07
578.08	56198.60
578.24	56144.77
578.40	56102.64
578.56	56383.51
578.72	56381.16
578.88	56650.33
579.04	56348.40
579.21	56214.99
579.37	56636.28
579.53	56549.68
579.69	56294.56
579.85	56395.21
580.01	56362.44
580.17	56306.27
580.33	56317.97
580.49	56346.06
580.65	56383.51
580.82	56233.71
580.98	56392.87
581.14	56385.85
581.30	56182.22
581.46	56500.53
581.62	56100.30
581.78	56212.65
581.94	56310.95
582.10	56299.25
582.26	56310.95
582.42	56650.33
582.58	56334.35
582.74	56392.87
582.90	56385.85
583.06	56587.13
583.22	56280.52
583.38	56341.38
583.54	56477.13
583.70	56439.68
583.86	56346.06
584.02	56348.40
584.18	56533.30
584.34	56505.21
584.50	56708.84
584.66	56413.93
584.82	56306.27
584.98	56521.60
585.14	56306.27
585.30	56149.45
585.46	56704.16
585.62	56456.06
585.78	56411.59
585.94	56385.85
586.10	56395.21
586.26	56549.68
586.42	56673.73
586.58	56526.28
586.74	56591.81
586.90	56409.25
587.06	56289.88
587.22	56324.99
587.38	56226.69
587.54	56573.09
587.70	56629.26
587.86	56449.04
588.02	56750.97
588.18	56617.56
588.34	56617.56
588.49	56568.41
588.65	56346.06
588.81	56357.76
588.97	56495.85
589.13	56577.77
589.29	56484.15
589.45	56741.61
589.61	56713.52
589.77	56872.68
589.93	56849.27
590.08	56598.83
590.24	56650.33
590.40	56704.16
590.56	56736.93
590.72	56474.79
590.88	56378.82
591.04	56587.13
591.20	56633.94
591.35	57038.86
591.51	56947.57
591.67	56811.82
591.83	56947.57
591.99	56743.95
592.15	56748.63
592.31	56699.48
592.46	56706.50
592.62	56694.80
592.78	56411.59
592.94	56816.50
593.10	56535.64
593.26	56835.23
593.41	56680.75
593.57	56844.59
593.73	56577.77
593.89	56952.26
594.05	56690.12
594.20	56760.33
594.36	56748.63
594.52	56795.44
594.68	56563.73
594.84	56463.08
594.99	56839.91
595.15	56896.08
595.31	56912.47
595.47	56903.10
595.62	56795.44
595.78	56839.91
595.94	56830.55
596.10	56507.55
596.25	56720.54
596.41	56783.74
596.57	56505.21
596.73	56907.79
596.88	56633.94
597.04	56851.61
597.20	56968.64
597.36	56601.18
597.51	56846.93
597.67	56666.71
597.83	56666.71
597.99	56779.06
598.14	56652.67
598.30	56767.35
598.46	56596.49
598.61	56732.25
598.77	56603.52
598.93	56725.22
599.09	56814.16
599.24	56886.72
599.40	56865.66
599.56	56832.89
599.71	57020.13
599.87	56853.95
600.03	56933.53
600.18	56741.61
600.34	56690.12
600.50	56795.44
600.65	56757.99
600.81	56753.31
600.97	56963.96
601.12	56973.32
601.28	56917.15
601.44	56802.46
601.59	56853.95
601.75	56846.93
601.91	56825.87
602.06	56587.13
602.22	56795.44
602.37	56802.46
602.53	56687.78
602.69	56872.68
602.84	56750.97
603.00	57045.88
603.16	56896.08
603.31	56987.36
603.47	56893.74
603.62	56949.92
603.78	56566.07
603.94	56694.80
604.09	56790.76
604.25	56769.69
604.40	56765.01
604.56	56748.63
604.71	56851.61
604.87	56772.03
605.03	56757.99
605.18	56617.56
605.34	56725.22
605.49	56460.74
605.65	56582.45
605.80	56636.28
605.96	56596.49
606.12	56477.13
606.27	56868.00
606.43	56568.41
606.58	56589.47
606.74	56549.68
606.89	56640.96
607.05	56650.33
607.20	56849.27
607.36	56432.66
607.51	56453.72
607.67	56591.81
607.82	56697.14
607.98	56362.44
608.13	56320.31
608.29	56530.96
608.44	56678.41
608.60	56638.62
608.75	56657.35
608.91	56582.45
609.06	56184.56
609.22	56533.30
609.37	56332.01
609.53	56655.01
609.68	56343.72
609.84	56252.44
609.99	56353.08
610.15	56264.14
610.30	56236.05
610.46	56219.67
610.61	56484.15
610.76	56238.39
610.92	56390.53
611.07	56280.52
611.23	56203.28
611.38	56222.01
611.54	56385.85
611.69	56163.50
611.84	56282.86
612.00	56266.48
612.15	56268.82
612.31	56212.65
612.46	56292.22
612.62	56130.73
612.77	56409.25
612.92	56273.50
613.08	56313.29
613.23	56273.50
613.39	56034.77
613.54	56224.35
613.69	55980.93
613.85	56170.52
614.00	55929.44
614.15	56200.94
614.31	55990.30
614.46	56205.62
614.62	56121.37
614.77	56154.13
614.92	56144.77
615.08	56147.11
615.23	56257.12
615.38	55934.12
615.54	55840.50
615.69	55817.10
615.84	55831.14
616.00	55896.67
616.15	55929.44
616.30	56287.54
616.46	55917.74
616.61	55842.84
616.76	55976.25
616.92	55812.41
617.07	56016.04
617.22	55880.29
617.37	55344.31
617.53	55707.09
617.68	55601.77
617.83	55714.11
617.99	55526.87
618.14	55749.22
618.29	55704.75
618.45	55515.17
618.60	55753.90
618.75	55777.31
618.90	55789.01
619.06	55671.98
619.21	55578.36
619.36	55571.34
619.51	55388.78
619.67	55295.16
619.82	55269.41
619.97	55196.85
620.12	55468.36
620.28	55159.41
620.43	55512.83
620.58	55627.51
620.73	55519.85
620.89	55597.09
621.04	55618.15
621.19	55358.35
621.34	55253.03
621.49	55267.07
621.65	55203.88
621.80	55295.16
621.95	55498.78
622.10	55384.10
622.25	55468.36
622.41	55320.90
622.56	55171.11
622.71	55234.30
622.86	55220.26
623.01	55234.30
623.16	55014.29
623.32	55145.36
623.47	55330.26
623.62	54944.08
623.77	55004.93
623.92	55119.62
624.07	54904.29
624.23	54939.39
624.38	55075.15
624.53	55014.29
624.68	55018.97
624.83	55150.04
624.98	55295.16
625.13	54885.56
625.29	55192.17
625.44	54770.88
625.59	54731.09
625.74	54639.81
625.89	54628.10
626.04	54588.31
626.19	54508.74
626.34	54670.23
626.49	54693.64
626.65	54581.29
626.80	54831.73
626.95	54733.43
627.10	54780.24
627.25	54649.17
627.40	54635.13
627.55	54789.60
627.70	54284.04
627.85	54195.10
628.00	54286.39
628.15	54426.82
628.30	54382.35
628.45	54553.21
628.60	54363.62
628.76	54525.12
628.91	54611.72
629.06	54218.51
629.21	54286.39
629.36	54342.56
629.51	54405.75
629.66	54335.54
629.81	54007.86
629.96	53939.99
630.11	53993.82
630.26	53932.96
630.41	53801.89
630.56	54033.61
630.71	54040.63
630.86	54019.56
631.01	54181.06
631.16	54110.85
631.31	54000.84
631.46	54141.27
631.61	54241.92
631.76	54075.74
631.91	53839.34
632.06	53907.22
632.21	53675.51
632.36	53811.26
632.51	53422.73
632.66	53712.95
632.81	53705.93
632.96	53787.85
633.10	53909.56
633.25	54038.29
633.40	53851.05
633.55	53790.19
633.70	53586.57
633.85	53553.80
634.00	53460.18
634.15	53696.57
634.30	53652.10
634.45	53532.73
634.60	53539.75
634.75	53682.53
634.90	53361.87
635.05	53628.69
635.19	53640.40
635.34	53609.97
635.49	53460.18
635.64	53415.71
635.79	53392.30
635.94	53420.39
636.09	53310.38
636.24	53418.05
636.39	53401.66
636.53	53291.66
636.68	53240.17
636.83	53045.90
636.98	53270.59
637.13	53329.11
637.28	53118.46
637.43	53169.95
637.57	53282.30
637.72	53165.27
637.87	53038.88
638.02	53404.00
638.17	53148.88
638.32	52917.17
638.46	52858.66
638.61	52741.63
638.76	52762.70
638.91	53036.54
639.06	52678.44
639.20	52949.94
639.35	52669.08
639.50	53277.61
639.65	53041.22
639.80	52980.37
639.94	52713.55
640.09	52542.69
640.24	52722.91
640.39	52509.92
640.54	52605.88
640.68	52449.06
640.83	52633.97
640.98	52041.81
641.13	52154.16
641.27	52636.31
641.42	52341.40
641.57	52425.66
641.72	52664.39
641.86	52313.31
642.01	52402.25
642.16	52556.73
642.31	52322.68
642.45	52416.30
642.60	52126.07
642.75	51987.98
642.90	52371.83
643.04	52004.36
643.19	52020.75
643.34	52334.38
643.48	52179.90
643.63	52105.01
643.78	52170.54
643.93	52102.67
644.07	52215.01
644.22	52411.62
644.37	52310.97
644.51	52158.84
644.66	52275.87
644.81	52296.93
644.95	52006.70
645.10	51952.87
645.25	52048.83
645.39	52175.22
645.54	52224.37
645.69	51962.23
645.83	52069.90
645.98	51929.47
646.13	51955.21
646.27	52158.84
646.42	52039.47
646.57	51962.23
646.71	51875.63
646.86	51845.21
647.00	51625.20
647.15	51372.42
647.30	51847.55
647.44	51498.81
647.59	51423.91
647.74	51564.34
647.88	51772.65
648.03	51739.88
648.17	51639.24
648.32	52105.01
648.47	51620.52
648.61	51276.46
648.76	51587.75
648.90	51498.81
649.05	51456.68
649.20	51409.87
649.34	51267.09
649.49	51126.66
649.63	51388.80
649.78	51227.31
649.92	51292.84
650.07	51489.45
650.21	51096.24
650.36	51283.48
650.51	51627.54
650.65	51573.70
650.80	51452.00
650.94	51114.96
651.09	51187.52
651.23	50794.31
651.38	51594.77
651.52	50836.44
651.67	51014.32
651.81	51047.08
651.96	51033.04
652.10	50806.01
652.25	50728.77
652.39	51098.58
652.54	51121.98
652.68	50878.57
652.83	50953.46
652.97	50927.72
653.12	50747.50
653.26	50775.58
653.41	50536.85
653.55	50632.81
653.70	50637.49
653.84	50604.72
653.99	50555.57
654.13	50719.41
654.27	50541.53
654.42	50742.81
654.56	50356.63
654.71	50784.94
654.85	50829.41
655.00	50557.91
655.14	50908.99
655.29	50160.02
655.43	50674.94
655.57	50349.60
655.72	50508.76
655.86	50377.69
656.01	49876.82
656.15	49825.32
656.30	50110.87
656.44	50129.59
656.58	49734.04
656.73	50038.31
656.87	49944.69
657.01	50122.57
657.16	50461.95
657.30	50475.99
657.45	50445.57
657.59	49951.71
657.73	50162.36
657.88	49827.66
658.02	49886.18
658.16	49937.67
658.31	49673.19
658.45	49638.08
658.60	49441.48
658.74	49420.41
658.88	49373.60
659.03	49359.56
659.17	49490.63
659.31	49453.18
659.46	49551.48
659.60	49879.16
659.74	49705.96
659.89	49404.03
660.03	49654.47
660.17	49207.42
660.32	49270.62
660.46	49317.43
660.60	48797.83
660.74	48842.30
660.89	49275.30
661.03	48643.35
661.17	48935.92
661.32	48669.10
661.46	48823.58
661.60	48580.16
661.74	48509.94
661.89	48956.99
662.03	48807.19
662.17	48828.26
662.31	48406.96
662.46	48879.75
662.60	48371.85
662.74	48009.07
662.88	48006.73
663.03	48238.44
663.17	48088.65
663.31	47856.93
663.45	47969.28
663.60	47924.81
663.74	47938.85
663.88	48030.13
664.02	48137.80
664.17	48318.02
664.31	47716.50
664.45	47463.72
664.59	47810.12
664.73	47966.94
664.88	47805.44
665.02	47152.43
665.16	47049.45
665.30	47423.93
665.44	47072.85
665.59	46735.82
665.73	46955.83
665.87	46822.42
666.01	47414.57
666.15	46815.40
666.29	47028.38
666.44	46789.65
666.58	46894.97
666.72	47309.25
666.86	47019.02
667.00	46869.23
667.14	46876.25
667.28	47192.22
667.43	46698.37
667.57	46705.39
667.71	46534.53
667.85	46366.01
667.99	46281.75
668.13	46230.26
668.27	45937.69
668.41	46309.84
668.56	45783.22
668.70	46036.00
668.84	45820.67
668.98	46143.66
669.12	46031.32
669.26	45982.16
669.40	45750.45
669.54	45507.04
669.68	45408.73
669.82	45415.76
669.96	45542.14
670.10	45102.12
670.25	45188.72
670.39	45305.75
670.53	45088.08
670.67	44783.81
670.81	45359.58
670.95	45436.82
671.09	44940.63
671.23	45174.68
671.37	45216.81
671.51	45188.72
671.65	44713.59
671.79	45041.27
671.93	44287.62
672.07	44711.25
672.21	44472.52
672.35	44128.46
672.49	44278.25
672.63	44285.28
672.77	43924.83
672.91	43641.63
673.05	43938.88
673.19	43627.59
673.33	43978.67
673.47	43601.84
673.61	43646.31
673.75	43723.55
673.89	43962.28
674.03	43873.34
674.17	43625.25
674.31	43498.86
674.45	42712.44
674.59	43061.18
674.73	42902.02
674.87	42862.23
675.01	42843.51
675.15	42536.90
675.29	42691.37
675.43	42611.79
675.56	42480.72
675.70	42813.08
675.84	42689.03
675.98	41247.26
676.12	42794.36
676.26	42469.02
676.40	42459.66
676.54	41970.49
676.68	41907.29
676.82	40788.52
676.96	41535.15
677.10	40978.10
677.23	40835.33
677.37	40697.24
677.51	40568.51
677.65	40877.46
677.79	40554.46
677.93	40891.50
678.07	40444.46
678.21	40238.49
678.34	40404.67
678.48	40205.72
678.62	40311.05
678.76	40339.13
678.90	40027.84
679.04	39730.59
679.18	39491.86
679.31	39086.95
679.45	39147.80
679.59	39079.92
679.73	39173.55
679.87	38590.75
680.00	38782.68
680.14	38373.08
680.28	38815.44
680.42	38260.74
680.56	38412.87
680.70	38866.94
680.83	38557.99
680.97	38892.68
681.11	38382.45
681.25	38562.67
681.39	38424.57
681.52	37858.17
681.66	37624.11
681.80	37439.21
681.94	37254.31
682.07	37343.25
682.21	37193.45
682.35	36917.27
682.49	36966.42
682.62	36809.61
682.76	36566.19
682.90	36594.28
683.04	36491.29
683.17	36137.87
683.31	36385.97
683.45	36636.41
683.59	36407.03
683.72	36287.67
683.86	35585.50
684.00	35681.47
684.13	35587.85
684.27	35569.12
684.41	35227.40
684.55	35325.71
684.68	35168.89
684.82	35463.80
684.96	34710.14
685.09	34660.99
685.23	34733.55
685.37	34623.54
685.50	34686.74
685.64	34604.82
685.78	34614.18
685.91	34469.07
686.05	34267.78
686.19	33923.72
686.32	34078.20
686.46	33530.51
686.60	33427.53
686.73	33869.89
686.87	33308.16
687.01	33221.56
687.14	33214.54
687.28	32800.27
687.42	32769.84
687.55	32655.15
687.69	32758.14
687.82	32760.48
687.96	32720.69
688.10	32472.59
688.23	32470.25
688.37	32538.13
688.50	32334.50
688.64	32133.21
688.78	31948.31
688.91	31580.85
689.05	31931.93
689.18	31690.85
689.32	31044.87
689.46	31054.23
689.59	31370.20
689.73	31232.11
689.86	31110.40
690.00	31040.18
690.13	30878.69
690.27	30693.79
690.41	30532.29
690.54	30764.00
690.68	30745.28
690.81	30080.56
690.95	30281.85
691.08	30513.56
691.22	30391.86
691.35	30031.41
691.49	29912.05
691.62	29500.11
691.76	29336.27
691.89	29553.94
692.03	29055.41
692.16	29067.11
692.30	29083.50
692.43	29429.90
692.57	28699.65
692.70	28809.65
692.84	28723.05
692.97	28540.49
693.11	28591.98
693.24	28503.04
693.38	28332.18
693.51	28311.12
693.65	28334.53
693.78	27882.80
693.92	28538.15
694.05	27967.06
694.19	28217.50
694.32	27578.53
694.45	27555.13
694.59	26906.80
694.72	27206.39
694.86	27101.06
694.99	26644.66
695.13	26721.90
695.26	26778.07
695.39	26525.29
695.53	26803.82
695.66	26728.92
695.80	26639.98
695.93	26639.98
696.07	26162.51
696.20	26473.80
696.33	26312.30
696.47	25998.67
696.60	26099.31
696.73	25914.41
696.87	25064.80
697.00	25301.19
697.14	25034.37
697.27	24975.86
697.40	24718.40
697.54	24723.08
697.67	24781.59
697.80	24737.12
697.94	24617.75
698.07	24383.70
698.21	24184.76
698.34	24482.00
698.47	24446.90
698.61	23805.59
698.74	24273.70
698.87	24065.39
699.01	24023.26
699.14	24013.90
699.27	23630.05
699.40	23257.90
699.54	23508.34
699.67	23166.62
699.80	23475.57
699.94	22899.80
700.07	22616.60
700.20	22991.08
700.34	22520.63
700.47	22380.20
700.60	22843.63
700.73	22618.94
700.87	22459.78
701.00	22183.60
701.13	22342.75
701.26	22469.14
701.40	22326.37
701.53	21933.16
701.66	22097.00
701.79	21561.02
701.93	21479.10
702.06	21469.73
702.19	21223.98
702.32	21472.07
702.46	20898.64
702.59	20816.72
702.72	20631.82
702.85	20819.07
702.99	20549.90
703.12	20680.97
703.25	20734.81
703.38	20699.70
703.51	20931.41
703.65	20521.82
703.78	20393.09
703.91	20266.70
704.04	20322.87
704.17	20006.90
704.31	20180.10
704.44	19737.74
704.57	20290.10
704.70	19536.45
704.83	19501.34
704.96	19711.99
705.10	19419.42
705.23	19049.62
>>>>>End Processed Spectral Data<<<<<
