SpectraSuite Data File
++++++++++++++++++++++++++++++++++++
Date: Fri Oct 18 13:55:27 GMT-05:00 2013
User: bianchi
Dark Spectrum Present: No
Reference Spectrum Present: No
Number of Sampled Component Spectra: 1
Spectrometers: USB2+H05261
Integration Time (usec): 100000 (USB2+H05261)
Spectra Averaged: 1 (USB2+H05261)
Boxcar Smoothing: 0 (USB2+H05261)
Correct for Electrical Dark: No (USB2+H05261)
Strobe/Lamp Enabled: No (USB2+H05261)
Correct for Detector Non-linearity: No (USB2+H05261)
Correct for Stray Light: No (USB2+H05261)
Number of Pixels in Processed Spectrum: 2048
>>>>>Begin Processed Spectral Data<<<<<
365.73	0.00
365.92	0.00
366.12	0.00
366.32	0.00
366.52	0.00
366.72	0.00
366.91	0.00
367.11	0.00
367.31	0.00
367.51	0.00
367.70	0.00
367.90	0.00
368.10	0.00
368.30	0.00
368.49	0.00
368.69	0.00
368.89	0.00
369.09	0.00
369.28	0.00
369.48	0.00
369.68	0.00
369.87	0.00
370.07	0.00
370.27	21.06
370.47	18.72
370.66	238.73
370.86	278.52
371.06	428.32
371.25	294.91
371.45	325.33
371.65	313.63
371.84	344.06
372.04	369.80
372.24	360.44
372.44	458.74
372.63	444.70
372.83	449.38
373.03	297.25
373.22	346.40
373.42	411.93
373.62	393.21
373.81	498.53
374.01	491.51
374.21	416.62
374.40	461.09
374.60	454.06
374.79	435.34
374.99	486.83
375.19	512.58
375.38	451.72
375.58	547.69
375.78	454.06
375.97	526.62
376.17	512.58
376.37	517.26
376.56	561.73
376.76	505.56
376.95	498.53
377.15	540.66
377.35	592.16
377.54	596.84
377.74	594.50
377.93	524.28
378.13	521.94
378.33	484.49
378.52	517.26
378.72	571.09
378.91	608.54
379.11	547.69
379.31	617.90
379.50	573.43
379.70	648.33
379.89	582.79
380.09	603.86
380.28	580.45
380.48	645.99
380.68	683.44
380.87	613.22
381.07	592.16
381.26	599.18
381.46	674.07
381.65	582.79
381.85	634.29
382.04	617.90
382.24	678.76
382.43	667.05
382.63	685.78
382.83	713.86
383.02	763.01
383.22	760.67
383.41	823.87
383.61	774.72
383.80	744.29
384.00	805.14
384.19	725.57
384.39	688.12
384.58	739.61
384.78	807.48
384.97	767.70
385.17	727.91
385.36	779.40
385.56	777.06
385.75	814.51
385.95	788.76
386.14	809.83
386.34	856.64
386.53	800.46
386.72	746.63
386.92	849.61
387.11	880.04
387.31	870.68
387.50	840.25
387.70	887.06
387.89	910.47
388.09	791.10
388.28	870.68
388.48	894.08
388.67	922.17
388.86	992.39
389.06	844.93
389.25	912.81
389.45	1025.15
389.64	924.51
389.84	938.55
390.03	943.24
390.22	987.71
390.42	971.32
390.61	987.71
390.81	1018.13
391.00	1011.11
391.19	1181.97
391.39	980.68
391.58	1109.41
391.78	1060.26
391.97	1071.97
392.16	1043.88
392.36	1053.24
392.55	1029.84
392.75	1076.65
392.94	1046.22
393.13	1179.63
393.33	1064.94
393.52	1139.84
393.71	1123.46
393.91	1095.37
394.10	1144.52
394.29	1163.25
394.49	1118.78
394.68	1181.97
394.88	1228.78
395.07	1345.81
395.26	1224.10
395.46	1291.98
395.65	1310.70
395.84	1268.57
396.04	1366.87
396.23	1376.24
396.42	1303.68
396.62	1315.38
396.81	1397.30
397.00	1394.96
397.19	1385.60
397.39	1439.43
397.58	1331.76
397.77	1427.73
397.97	1427.73
398.16	1418.36
398.35	1551.78
398.55	1507.30
398.74	1404.32
398.93	1481.56
399.12	1568.16
399.32	1439.43
399.51	1537.73
399.70	1556.46
399.90	1577.52
400.09	1589.22
400.28	1652.42
400.47	1542.41
400.67	1671.14
400.86	1619.65
401.05	1689.87
401.24	1696.89
401.44	1727.32
401.63	1722.63
401.82	1682.85
402.01	1685.19
402.21	1657.10
402.40	1830.30
402.59	1774.13
402.78	1673.48
402.97	1729.66
403.17	1708.59
403.36	1771.79
403.55	1825.62
403.74	1856.04
403.93	1912.22
404.13	1956.69
404.32	1916.90
404.51	1937.96
404.70	2005.84
404.89	1881.79
405.09	1973.07
405.28	2022.22
405.47	1942.64
405.66	2029.24
405.85	2090.10
406.05	2026.90
406.24	2019.88
406.43	2150.95
406.62	2120.53
406.81	2179.04
407.00	2071.37
407.20	2026.90
407.39	2129.89
407.58	2167.34
407.77	2282.02
407.96	2193.08
408.15	2333.51
408.34	2260.96
408.54	2331.17
408.73	2385.01
408.92	2305.43
409.11	2455.22
409.30	2408.41
409.49	2424.80
409.68	2403.73
409.87	2385.01
410.07	2499.69
410.26	2551.18
410.45	2616.72
410.64	2560.55
410.83	2614.38
411.02	2572.25
411.21	2595.65
411.40	2661.19
411.59	2677.57
411.78	2792.26
411.98	2712.68
412.17	2780.56
412.36	2794.60
412.55	2942.05
412.74	2897.58
412.93	2944.39
413.12	2864.82
413.31	3023.97
413.50	2878.86
413.69	3105.89
413.88	3152.70
414.07	3119.93
414.26	3002.91
414.45	2951.42
414.64	3075.46
414.83	3246.32
415.02	3232.28
415.22	3255.69
415.41	3344.63
415.60	3426.54
415.79	3475.70
415.98	3456.97
416.17	3499.10
416.36	3581.02
416.55	3466.33
416.74	3613.79
416.93	3590.38
417.12	3630.17
417.31	3756.56
417.50	3548.25
417.69	3831.46
417.88	3894.65
418.07	3845.50
418.26	3852.52
418.45	3843.16
418.64	4152.11
418.83	3899.33
419.02	3964.87
419.21	4056.15
419.39	4126.36
419.58	3992.95
419.77	3936.78
419.96	4095.94
420.15	4100.62
420.34	4081.89
420.53	4227.01
420.72	4243.39
420.91	4283.18
421.10	4236.37
421.29	4299.56
421.48	4229.35
421.67	4306.59
421.86	4112.32
422.05	4322.97
422.24	4276.16
422.43	4292.54
422.61	4404.89
422.80	4376.80
422.99	4280.84
423.18	4564.04
423.37	4493.83
423.56	4346.37
423.75	4456.38
423.94	4500.85
424.13	4039.76
424.32	4210.62
424.50	4559.36
424.69	4594.47
424.88	4725.54
425.07	4440.00
425.26	4381.48
425.45	4500.85
425.64	4568.73
425.83	4578.09
426.01	4550.00
426.20	4578.09
426.39	4610.86
426.58	4421.27
426.77	4573.41
426.96	4706.82
427.15	4585.11
427.33	4781.71
427.52	4842.57
427.71	4622.56
427.90	4863.63
428.09	4873.00
428.28	4755.97
428.46	4842.57
428.65	4898.74
428.84	4844.91
429.03	4858.95
429.22	4798.10
429.40	5032.15
429.59	4926.83
429.78	4926.83
429.97	4755.97
430.16	4938.53
430.34	5069.60
430.53	5273.23
430.72	5128.11
430.91	5083.64
431.10	5032.15
431.28	5188.97
431.47	5231.10
431.66	5359.83
431.85	5268.55
432.03	5313.02
432.22	5603.24
432.41	5397.28
432.60	5418.34
432.79	5472.17
432.97	5558.77
433.16	5455.79
433.35	5514.30
433.54	5425.36
433.72	5556.43
433.91	5490.90
434.10	5451.11
434.28	5727.29
434.47	5448.77
434.66	5699.20
434.85	5792.83
435.03	5659.42
435.22	5844.32
435.41	5853.68
435.59	5806.87
435.78	5755.38
435.97	5713.25
436.16	6019.86
436.34	6010.50
436.53	6003.47
436.72	6169.65
436.90	5930.92
437.09	5949.64
437.28	5916.87
437.46	5991.77
437.65	6080.71
437.84	6181.35
438.02	6047.94
438.21	6286.68
438.40	6026.88
438.58	6424.77
438.77	6368.60
438.96	6228.17
439.14	6480.94
439.33	6382.64
439.52	6548.82
439.70	6480.94
439.89	6670.53
440.08	6616.69
440.26	6743.08
440.45	6796.92
440.63	6780.53
440.82	6897.56
441.01	6883.52
441.19	6909.26
441.38	7082.46
441.57	7066.08
441.75	6946.71
441.94	7157.36
442.12	7155.02
442.31	7543.55
442.50	7314.17
442.68	7157.36
442.87	7138.63
443.05	7283.75
443.24	7442.90
443.43	7454.61
443.61	7566.95
443.80	7688.66
443.98	7419.50
444.17	7332.90
444.35	7597.38
444.54	7470.99
444.73	7592.70
444.91	7550.57
445.10	7840.79
445.28	7440.56
445.47	7667.60
445.65	7639.51
445.84	7527.16
446.02	7674.62
446.21	7611.42
446.39	7480.35
446.58	7915.69
446.77	7597.38
446.95	7538.87
447.14	7541.21
447.32	7861.86
447.51	7770.58
447.69	7908.67
447.88	7740.15
448.06	7892.29
448.25	7723.77
448.43	8053.78
448.62	7793.98
448.80	7840.79
448.99	7852.50
449.17	8051.44
449.36	7831.43
449.54	8116.98
449.73	8149.75
449.91	8248.05
450.10	8072.51
450.28	8170.81
450.46	8198.90
450.65	8021.02
450.83	8201.24
451.02	8248.05
451.20	8414.23
451.39	8423.59
451.57	8374.44
451.76	8170.81
451.94	8535.93
452.13	8465.72
452.31	8374.44
452.49	8358.05
452.68	8589.77
452.86	8655.30
453.05	8503.17
453.23	8699.77
453.42	8425.93
453.60	8470.40
453.78	8681.05
453.97	8358.05
454.15	8758.28
454.34	8760.63
454.52	8826.16
454.70	8805.10
454.89	8990.00
455.07	9057.87
455.26	8961.91
455.44	9116.39
455.62	9046.17
455.81	9081.28
455.99	9137.45
456.17	9149.15
456.36	9298.95
456.54	9261.50
456.73	9207.67
456.91	9570.45
457.09	9423.00
457.28	9806.84
457.46	9210.01
457.64	9542.36
457.83	9558.75
458.01	9582.15
458.19	9671.09
458.38	9621.94
458.56	9603.22
458.74	9713.22
458.93	9832.59
459.11	9792.80
459.29	9963.66
459.48	10026.86
459.66	9797.48
459.84	10094.73
460.03	10214.10
460.21	10157.92
460.39	10024.51
460.57	9977.70
460.76	10368.57
460.94	10038.56
461.12	10061.96
461.31	10181.33
461.49	10045.58
461.67	10043.24
461.85	10324.10
462.04	10569.86
462.22	11035.63
462.40	10441.13
462.59	10450.49
462.77	10466.88
462.95	10647.10
463.13	10569.86
463.32	10527.73
463.50	10768.80
463.68	10867.11
463.86	10853.06
464.05	10480.92
464.23	10693.91
464.41	10883.49
464.59	10562.84
464.78	11037.97
464.96	10925.62
465.14	10689.23
465.32	10834.34
465.50	11108.18
465.69	11108.18
465.87	11073.07
466.05	10965.41
466.23	10820.30
466.41	10953.71
466.60	11220.53
466.78	10949.03
466.96	10874.13
467.14	11176.06
467.32	11169.04
467.51	11241.59
467.69	11096.48
467.87	11293.08
468.05	11475.65
468.23	11367.98
468.41	11243.93
468.60	11407.77
468.78	11506.07
468.96	11356.28
469.14	11669.91
469.32	11705.02
469.50	11445.22
469.69	11737.79
469.87	12020.99
470.05	12039.72
470.23	12095.89
470.41	11859.49
470.59	12210.57
470.77	12077.16
470.95	12016.31
471.14	12264.41
471.32	12107.59
471.50	12241.00
471.68	12182.49
471.86	12491.44
472.04	12365.05
472.22	12823.80
472.40	12301.86
472.58	12671.66
472.77	12526.55
472.95	12791.03
473.13	13107.00
473.31	12659.96
473.49	12613.15
473.67	12674.00
473.85	12945.50
474.03	13069.55
474.21	13160.83
474.39	13261.48
474.57	13476.80
474.75	13474.46
474.93	13579.79
475.12	13680.43
475.30	13776.39
475.48	13568.09
475.66	13612.56
475.84	13846.61
476.02	13975.34
476.20	13621.92
476.38	14111.09
476.56	14497.28
476.74	14356.85
476.92	14403.66
477.10	14363.87
477.28	14429.40
477.46	14480.89
477.64	14740.69
477.82	14934.96
478.00	15330.51
478.18	15288.38
478.36	15260.29
478.54	15515.41
478.72	15609.03
478.90	15826.70
479.08	15770.53
479.26	16070.12
479.44	16049.05
479.62	15868.83
479.80	16198.85
479.98	16226.93
480.16	16931.44
480.34	16615.46
480.52	17020.38
480.70	16786.32
480.88	16627.17
481.06	17139.74
481.24	16975.91
481.41	17310.60
481.59	17638.28
481.77	17743.60
481.95	17572.74
482.13	17493.16
482.31	17846.58
482.49	18230.43
482.67	18101.70
482.85	18583.85
483.03	18691.52
483.21	18712.58
483.39	19037.92
483.57	18948.98
483.74	19171.33
483.92	19084.73
484.10	19168.99
484.28	19576.24
484.46	19864.13
484.64	20365.00
484.82	20046.69
485.00	20086.48
485.18	20357.98
485.35	20730.12
485.53	20835.45
485.71	21018.01
485.89	20940.77
486.07	21006.31
486.25	21298.88
486.43	21336.32
486.61	21598.46
486.78	21982.31
486.96	22075.93
487.14	22312.33
487.32	22249.13
487.50	22434.03
487.68	22457.44
487.85	22860.01
488.03	23145.56
488.21	23220.45
488.39	23367.91
488.57	23723.67
488.75	23548.13
488.92	24161.35
489.10	24130.92
489.28	24030.28
489.46	24549.88
489.64	24369.66
489.81	25188.85
489.99	24737.12
490.17	25109.27
490.35	25390.13
490.53	25308.21
490.70	25663.97
490.88	25628.87
491.06	25855.90
491.24	25795.04
491.41	26087.61
491.59	26328.69
491.77	26562.74
491.95	26979.36
492.13	26801.47
492.30	27103.40
492.48	26679.77
492.66	26675.09
492.84	27330.44
493.01	26998.08
493.19	27831.31
493.37	27880.46
493.54	28198.77
493.72	28257.29
493.90	28032.60
494.08	28418.78
494.25	28627.09
494.43	28933.70
494.61	29158.39
494.79	29139.67
494.96	28989.88
495.14	29680.33
495.32	29752.89
495.49	30052.48
495.67	29940.13
495.85	30476.12
496.02	30562.72
496.20	30455.05
496.38	30211.64
496.55	30822.51
496.73	31260.20
496.91	31220.41
497.09	31632.34
497.26	31559.78
497.44	31779.79
497.62	31779.79
497.79	31952.99
497.97	31976.40
498.14	32762.82
498.32	32716.01
498.50	33022.62
498.67	32678.56
498.85	32790.91
499.03	33317.53
499.20	32989.85
499.38	32692.60
499.56	33642.86
499.73	33603.07
499.91	33993.94
500.08	33956.49
500.26	33518.81
500.44	33853.51
500.61	34218.63
500.79	33837.12
500.97	34047.77
501.14	34623.54
501.32	34630.57
501.49	34590.78
501.67	34595.46
501.84	34735.89
502.02	35023.78
502.20	35012.07
502.37	35292.94
502.55	35206.34
502.72	35644.02
502.90	35473.16
503.07	35264.85
503.25	35690.83
503.43	35791.47
503.60	35861.69
503.78	36266.60
503.95	36095.74
504.13	36217.45
504.30	36460.87
504.48	36364.90
504.65	36144.89
504.83	37233.24
505.01	37284.73
505.18	37361.97
505.36	37177.07
505.53	36935.99
505.71	37340.91
505.88	37251.97
506.06	37132.60
506.23	37881.57
506.41	38092.22
506.58	37897.95
506.76	37874.55
506.93	38354.36
507.11	37823.06
507.28	38511.17
507.46	38267.76
507.63	38888.00
507.81	39182.91
507.98	38672.67
508.16	38602.46
508.33	38590.75
508.50	39213.34
508.68	39145.46
508.85	39246.10
509.03	39129.08
509.20	39264.83
509.38	39807.83
509.55	39955.29
509.73	39658.04
509.90	40217.43
510.08	40098.06
510.25	40182.32
510.42	40282.96
510.60	40683.19
510.77	40444.46
510.95	40505.31
511.12	40842.35
511.30	40779.15
511.47	40566.16
511.64	41476.63
511.82	41167.68
511.99	41174.70
512.17	41507.06
512.34	41174.70
512.51	41930.70
512.69	41666.22
512.86	41722.39
513.04	42260.71
513.21	42232.63
513.38	42244.33
513.56	42579.03
513.73	42106.24
513.90	42440.93
514.08	42274.76
514.25	42646.90
514.43	42602.43
514.60	43096.28
514.77	42974.58
514.95	42866.91
515.12	42932.45
515.29	42674.99
515.47	43288.21
515.64	43491.83
515.81	43529.28
515.99	43529.28
516.16	44048.88
516.33	43913.13
516.51	43992.71
516.68	43491.83
516.85	43718.87
517.03	44058.24
517.20	44306.34
517.37	44282.94
517.54	44238.47
517.72	44390.60
517.89	44371.88
518.06	44334.43
518.24	44411.67
518.41	44294.64
518.58	44662.10
518.75	44987.44
518.93	45373.63
519.10	45062.33
519.27	45659.17
519.45	45118.51
519.62	45324.47
519.79	44779.13
519.96	45610.02
520.14	45909.61
520.31	45139.57
520.48	45820.67
520.65	45546.82
520.83	45970.46
521.00	45717.68
521.17	45834.71
521.34	45574.91
521.52	45902.59
521.69	45895.56
521.86	46351.97
522.03	46181.11
522.20	46630.49
522.38	46878.59
522.55	46677.30
522.72	46689.01
522.89	46656.24
523.07	47105.62
523.24	47014.34
523.41	46855.18
523.58	46649.22
523.75	47442.66
523.92	47180.52
524.10	47129.03
524.27	47379.46
524.44	47562.03
524.61	47613.52
524.78	47777.36
524.96	48046.52
525.13	47400.53
525.30	47770.33
525.47	47861.61
525.64	47573.73
525.81	48083.97
525.98	47990.34
526.16	48123.75
526.33	48439.73
526.50	48690.16
526.67	48282.91
526.84	48198.65
527.01	48481.86
527.18	48474.84
527.36	48865.70
527.53	48816.55
527.70	48982.73
527.87	49076.35
528.04	48917.20
528.21	49052.95
528.38	48942.94
528.55	49062.31
528.72	48947.62
528.89	48844.64
529.07	48830.60
529.24	48851.66
529.41	49612.34
529.58	49017.84
529.75	49127.84
529.92	49357.22
530.09	49921.29
530.26	49441.48
530.43	49844.05
530.60	49607.65
530.77	49862.77
530.94	49780.85
531.11	49357.22
531.28	49776.17
531.46	49841.71
531.63	49607.65
531.80	50078.10
531.97	50361.31
532.14	50073.42
532.31	50342.58
532.48	50452.59
532.65	50293.43
532.82	49963.42
532.99	50527.48
533.16	50183.43
533.33	50424.50
533.50	50578.98
533.67	50983.89
533.84	50705.37
534.01	50618.77
534.18	50391.73
534.35	50731.11
534.52	50728.77
534.69	50923.04
534.86	51290.50
535.03	51276.46
535.20	51105.60
535.37	51054.11
535.54	51091.55
535.71	50890.27
535.88	51145.39
536.05	51288.16
536.22	51475.40
536.38	51646.26
536.55	51772.65
536.72	51622.86
536.89	51611.15
537.06	51203.90
537.23	51648.60
537.40	51239.01
537.57	51288.16
537.74	51887.34
537.91	51913.08
538.08	51672.01
538.25	51828.82
538.42	51807.76
538.59	51765.63
538.75	51753.93
538.92	52069.90
539.09	52163.52
539.26	52016.07
539.43	52109.69
539.60	52109.69
539.77	51908.40
539.94	52135.43
540.11	52165.86
540.28	52095.64
540.44	52327.36
540.61	52055.85
540.78	52207.99
540.95	52449.06
541.12	52292.25
541.29	52430.34
541.46	52175.22
541.62	52163.52
541.79	52460.77
541.96	52362.46
542.13	52123.73
542.30	52315.65
542.47	52622.26
542.63	52692.48
542.80	52814.19
542.97	53282.30
543.14	53069.31
543.31	52858.66
543.48	52928.87
543.64	53303.36
543.81	53191.01
543.98	53514.01
544.15	53471.88
544.32	53221.44
544.48	53516.35
544.65	53338.47
544.82	53188.67
544.99	53034.20
545.16	53361.87
545.32	53263.57
545.49	53727.00
545.66	53815.94
545.83	53322.08
546.00	53691.89
546.16	53591.25
546.33	53401.66
546.50	53095.05
546.67	53514.01
546.83	53202.72
547.00	53853.39
547.17	53532.73
547.34	53523.37
547.50	53757.42
547.67	54007.86
547.84	53698.91
548.00	53832.32
548.17	54033.61
548.34	53939.99
548.51	54061.69
548.67	54120.21
548.84	54000.84
549.01	53982.12
549.18	54096.80
549.34	54241.92
549.51	53982.12
549.68	54270.00
549.84	54024.25
550.01	54277.02
550.18	54110.85
550.34	54319.15
550.51	54457.24
550.68	54433.84
550.84	54106.16
551.01	54342.56
551.18	54291.07
551.34	54197.44
551.51	54012.54
551.68	54319.15
551.84	54719.38
552.01	54321.49
552.18	54700.66
552.34	54351.92
552.51	54506.40
552.68	54424.48
552.84	54578.95
553.01	54604.70
553.18	54588.31
553.34	54665.55
553.51	54609.38
553.67	54848.11
553.84	54852.80
554.01	54864.50
554.17	54693.64
554.34	54557.89
554.51	54548.53
554.67	54773.22
554.84	54894.92
555.00	54871.52
555.17	54834.07
555.33	54836.41
555.50	54871.52
555.67	55086.85
555.83	54948.76
556.00	54988.55
556.16	55154.72
556.33	55173.45
556.50	55065.78
556.66	55138.34
556.83	55089.19
556.99	55337.29
557.16	55442.61
557.32	55313.88
557.49	55260.05
557.65	55128.98
557.82	54990.89
557.98	55185.15
558.15	55143.02
558.32	55466.02
558.48	55086.85
558.65	55414.52
558.81	55426.23
558.98	55377.08
559.14	55489.42
559.31	55250.69
559.47	55370.05
559.64	55473.04
559.80	55723.47
559.97	55557.30
560.13	55468.36
560.30	55435.59
560.46	55393.46
560.63	55327.92
560.79	55473.04
560.96	55655.60
561.12	55374.73
561.29	55723.47
561.45	55538.57
561.61	55533.89
561.78	55660.28
561.94	55737.52
562.11	55899.01
562.27	55618.15
562.44	55484.74
562.60	55365.37
562.77	55615.81
562.93	55641.56
563.10	55842.84
563.26	55540.91
563.42	55880.29
563.59	55861.57
563.75	55828.80
563.92	55728.16
564.08	55807.73
564.24	55529.21
564.41	55704.75
564.57	55709.43
564.74	55760.92
564.90	55793.69
565.07	56081.58
565.23	55969.23
565.39	55884.97
565.56	56013.70
565.72	55557.30
565.88	55810.07
566.05	55681.34
566.21	55646.24
566.38	55812.41
566.54	55611.13
566.70	56095.62
566.87	56100.30
567.03	55877.95
567.19	56126.05
567.36	56037.11
567.52	55735.18
567.68	56069.87
567.85	55805.39
568.01	55920.08
568.17	55964.55
568.34	55959.87
568.50	56006.68
568.66	56144.77
568.83	56032.42
568.99	55906.04
569.15	55753.90
569.32	55765.60
569.48	55805.39
569.64	56294.56
569.81	56072.21
569.97	55870.93
570.13	56172.86
570.30	56119.02
570.46	56154.13
570.62	55983.27
570.78	55934.12
570.95	55978.59
571.11	56011.36
571.27	55793.69
571.43	55826.46
571.60	56156.47
571.76	56032.42
571.92	56238.39
572.09	56123.71
572.25	56259.46
572.41	56243.07
572.57	55856.88
572.74	56320.31
572.90	56210.31
573.06	56168.18
573.22	56030.08
573.38	56090.94
573.55	56348.40
573.71	56488.83
573.87	56310.95
574.03	56046.47
574.20	56168.18
574.36	56130.73
574.52	56046.47
574.68	55786.67
574.84	56175.20
575.01	56285.20
575.17	56360.10
575.33	56172.86
575.49	56177.54
575.65	56530.96
575.82	56458.40
575.98	56217.33
576.14	56488.83
576.30	56207.97
576.46	56006.68
576.62	55901.36
576.79	56271.16
576.95	55821.78
577.11	56147.11
577.27	56062.85
577.43	56144.77
577.59	56013.70
577.75	56093.28
577.92	56086.26
578.08	56142.43
578.24	56186.90
578.40	56168.18
578.56	56367.12
578.72	56493.51
578.88	56348.40
579.04	56383.51
579.21	56095.62
579.37	56247.75
579.53	56427.98
579.69	55938.80
579.85	56133.07
580.01	56217.33
580.17	56193.92
580.33	56158.81
580.49	56121.37
580.65	56224.35
580.82	56402.23
580.98	56289.88
581.14	56334.35
581.30	56507.55
581.46	56062.85
581.62	56257.12
581.78	56126.05
581.94	56390.53
582.10	56107.32
582.26	56154.13
582.42	56252.44
582.58	56250.09
582.74	56509.89
582.90	56432.66
583.06	56369.46
583.22	56189.24
583.38	56212.65
583.54	55943.48
583.70	56196.26
583.86	56416.27
584.02	56067.53
584.18	56423.29
584.34	56231.37
584.50	56624.58
584.66	56374.14
584.82	56191.58
584.98	56172.86
585.14	56343.72
585.30	56023.06
585.46	56196.26
585.62	56296.91
585.78	56048.81
585.94	56357.76
586.10	56626.92
586.26	56360.10
586.42	56533.30
586.58	56774.37
586.74	56231.37
586.90	56170.52
587.06	56280.52
587.22	56395.21
587.38	56287.54
587.54	56659.69
587.70	56587.13
587.86	56509.89
588.02	56633.94
588.18	56610.54
588.34	56580.11
588.49	56474.79
588.65	56416.27
588.81	56392.87
588.97	56453.72
589.13	56327.33
589.29	56392.87
589.45	56626.92
589.61	56409.25
589.77	56676.07
589.93	56640.96
590.08	56540.32
590.24	56427.98
590.40	56650.33
590.56	56690.12
590.72	56406.91
590.88	56418.61
591.04	56413.93
591.20	56545.00
591.35	56619.90
591.51	57015.45
591.67	57090.35
591.83	56690.12
591.99	56444.36
592.15	56587.13
592.31	56736.93
592.46	56545.00
592.62	56460.74
592.78	56364.78
592.94	56549.68
593.10	56570.75
593.26	56638.62
593.41	56509.89
593.57	56905.44
593.73	56575.43
593.89	56690.12
594.05	56610.54
594.20	56442.02
594.36	56699.48
594.52	56807.14
594.68	56584.79
594.84	56584.79
594.99	56605.86
595.15	56720.54
595.31	56877.36
595.47	56828.21
595.62	56727.56
595.78	56772.03
595.94	56666.71
596.10	56247.75
596.25	56612.88
596.41	56463.08
596.57	56470.11
596.73	56549.68
596.88	56343.72
597.04	56640.96
597.20	56708.84
597.36	56636.28
597.51	57151.20
597.67	56367.12
597.83	56540.32
597.99	56650.33
598.14	56502.87
598.30	56732.25
598.46	56566.07
598.61	56647.99
598.77	56561.39
598.93	56699.48
599.09	56697.14
599.24	56671.39
599.40	56760.33
599.56	56828.21
599.71	56545.00
599.87	56633.94
600.03	56739.27
600.18	56678.41
600.34	56711.18
600.50	56552.02
600.65	56727.56
600.81	56685.43
600.97	57130.14
601.12	56568.41
601.28	56973.32
601.44	56687.78
601.59	56734.59
601.75	56491.17
601.91	56853.95
602.06	56519.26
602.22	56797.78
602.37	56779.06
602.53	56652.67
602.69	56783.74
602.84	56556.70
603.00	56858.63
603.16	56603.52
603.31	56596.49
603.47	56617.56
603.62	56530.96
603.78	56638.62
603.94	56631.60
604.09	56612.88
604.25	56402.23
604.40	56252.44
604.56	56664.37
604.71	56666.71
604.87	56542.66
605.03	56760.33
605.18	56804.80
605.34	56750.97
605.49	56287.54
605.65	56619.90
605.80	56252.44
605.96	56502.87
606.12	56474.79
606.27	56594.15
606.43	56463.08
606.58	56568.41
606.74	56523.94
606.89	56561.39
607.05	56619.90
607.20	56425.64
607.36	56446.70
607.51	56360.10
607.67	56203.28
607.82	56233.71
607.98	56065.19
608.13	56432.66
608.29	56449.04
608.44	56594.15
608.60	56226.69
608.75	56491.17
608.91	56371.80
609.06	56301.59
609.22	56179.88
609.37	56086.26
609.53	56107.32
609.68	56402.23
609.84	56083.92
609.99	56280.52
610.15	56303.93
610.30	56339.04
610.46	56142.43
610.61	56477.13
610.76	56341.38
610.92	56205.62
611.07	56198.60
611.23	56196.26
611.38	56308.61
611.54	56179.88
611.69	56055.83
611.84	55842.84
612.00	56100.30
612.15	55866.25
612.31	56264.14
612.46	55987.95
612.62	56184.56
612.77	56193.92
612.92	56341.38
613.08	56196.26
613.23	56369.46
613.39	56165.84
613.54	55917.74
613.69	55959.87
613.85	55985.61
614.00	55845.18
614.15	55884.97
614.31	56016.04
614.46	56093.28
614.62	55973.91
614.77	56163.50
614.92	56123.71
615.08	56027.74
615.23	55732.84
615.38	56030.08
615.54	55702.41
615.69	55611.13
615.84	55590.06
616.00	55859.23
616.15	55693.05
616.30	56039.45
616.46	55796.03
616.61	55906.04
616.76	55955.19
616.92	55547.93
617.07	55707.09
617.22	55737.52
617.37	55454.31
617.53	55580.70
617.68	55646.24
617.83	55480.06
617.99	55604.11
618.14	55627.51
618.29	55618.15
618.45	55838.16
618.60	55587.72
618.75	55711.77
618.90	55669.64
619.06	55622.83
619.21	55365.37
619.36	55545.59
619.51	55208.56
619.67	55047.06
619.82	55182.81
619.97	55257.71
620.12	55370.05
620.28	55063.44
620.43	55339.63
620.58	55330.26
620.73	55370.05
620.89	55405.16
621.04	55571.34
621.19	55512.83
621.34	55313.88
621.49	55086.85
621.65	54960.46
621.80	55189.83
621.95	55213.24
622.10	55079.83
622.25	55100.89
622.41	54946.42
622.56	55126.64
622.71	55325.58
622.86	54915.99
623.01	55119.62
623.16	55243.66
623.32	54728.75
623.47	55084.51
623.62	55033.02
623.77	54843.43
623.92	54946.42
624.07	54843.43
624.23	54822.37
624.38	54953.44
624.53	54653.85
624.68	54698.32
624.83	54967.48
624.98	54993.23
625.13	54815.35
625.29	54663.21
625.44	54820.03
625.59	54719.38
625.74	54703.00
625.89	54534.48
626.04	54342.56
626.19	54609.38
626.34	54471.29
626.49	54384.69
626.65	54766.20
626.80	54693.64
626.95	54635.13
627.10	54372.99
627.25	54300.43
627.40	54480.65
627.55	54527.46
627.70	54438.52
627.85	54354.26
628.00	54204.47
628.15	54309.79
628.30	54309.79
628.45	54279.36
628.60	54094.46
628.76	54401.07
628.91	54384.69
629.06	54372.99
629.21	54141.27
629.36	54445.54
629.51	54106.16
629.66	54117.87
629.81	53984.46
629.96	53902.54
630.11	54124.89
630.26	53790.19
630.41	53935.30
630.56	53867.43
630.71	53829.98
630.86	53734.02
631.01	53872.11
631.16	53923.60
631.31	54103.82
631.46	53684.87
631.61	54075.74
631.76	54059.35
631.91	53729.34
632.06	53773.81
632.21	53542.10
632.36	53478.90
632.51	53607.63
632.66	53572.52
632.81	53476.56
632.96	53851.05
633.10	53399.32
633.25	53715.29
633.40	53581.88
633.55	53565.50
633.70	53684.87
633.85	53633.38
634.00	53439.11
634.15	53560.82
634.30	53359.53
634.45	53710.61
634.60	53261.23
634.75	53602.95
634.90	53387.62
635.05	53420.39
635.19	53401.66
635.34	53612.31
635.49	53364.21
635.64	53446.13
635.79	53036.54
635.94	53436.77
636.09	53401.66
636.24	53193.36
636.39	53081.01
636.53	53303.36
636.68	53130.16
636.83	53240.17
636.98	53193.36
637.13	53153.57
637.28	53116.12
637.43	53160.59
637.57	53174.63
637.72	53071.65
637.87	52694.82
638.02	53050.58
638.17	52928.87
638.32	52999.09
638.46	52608.22
638.61	52556.73
638.76	52561.41
638.91	52320.34
639.06	52678.44
639.20	52715.89
639.35	52722.91
639.50	52980.37
639.65	52795.46
639.80	52804.83
639.94	52402.25
640.09	52184.58
640.24	52554.39
640.39	52626.95
640.54	52009.04
640.68	52261.82
640.83	52486.51
640.98	52048.83
641.13	52346.08
641.27	52442.04
641.42	52453.75
641.57	52292.25
641.72	52444.38
641.86	52580.13
642.01	52346.08
642.16	52545.03
642.31	52130.75
642.45	52107.35
642.60	52161.18
642.75	51756.27
642.90	52189.27
643.04	52051.17
643.19	51936.49
643.34	52191.61
643.48	52051.17
643.63	52193.95
643.78	52299.27
643.93	52477.15
644.07	51973.94
644.22	52317.99
644.37	51924.78
644.51	51964.57
644.66	52062.88
644.81	51569.02
644.95	51793.71
645.10	51770.31
645.25	51681.37
645.39	52037.13
645.54	51753.93
645.69	51976.28
645.83	52076.92
645.98	52032.45
646.13	51812.44
646.27	51770.31
646.42	51283.48
646.57	51494.13
646.71	51817.12
646.86	51749.24
647.00	51414.55
647.15	51606.47
647.30	51241.35
647.44	51597.11
647.59	51409.87
647.74	51054.11
647.88	51625.20
648.03	51522.21
648.17	51444.98
648.32	51735.20
648.47	51428.59
648.61	51250.71
648.76	51714.14
648.90	51175.81
649.05	50960.48
649.20	51105.60
649.34	50939.42
649.49	50803.67
649.63	51112.62
649.78	51117.30
649.92	51199.22
650.07	51356.03
650.21	51143.05
650.36	51189.86
650.51	51372.42
650.65	51164.11
650.80	51105.60
650.94	51011.98
651.09	51019.00
651.23	51030.70
651.38	51016.66
651.52	50829.41
651.67	50691.32
651.81	50478.33
651.96	50536.85
652.10	50454.93
652.25	50738.13
652.39	50756.86
652.54	51119.64
652.68	50679.62
652.83	50653.87
652.97	51349.01
653.12	50981.55
653.26	50504.08
653.41	50672.60
653.55	50890.27
653.70	50452.59
653.84	50574.30
653.99	50164.70
654.13	50801.33
654.27	50160.02
654.42	50431.52
654.56	50335.56
654.71	50520.46
654.85	50270.03
655.00	50637.49
655.14	50553.23
655.29	50433.86
655.43	50557.91
655.57	50337.90
655.72	50115.55
655.86	49776.17
656.01	49909.58
656.15	49703.62
656.30	49956.39
656.44	49928.31
656.58	50209.17
656.73	49846.39
656.87	49858.09
657.01	49865.11
657.16	49764.47
657.30	50244.28
657.45	49818.30
657.59	50323.86
657.73	49509.35
657.88	50141.30
658.02	49893.20
658.16	49148.91
658.31	49748.09
658.45	50026.61
658.60	49305.73
658.74	49382.96
658.88	49399.35
659.03	49233.17
659.17	49439.14
659.31	49474.24
659.46	49062.31
659.60	49455.52
659.74	49181.68
659.89	49429.77
660.03	49499.99
660.17	49539.78
660.32	48788.47
660.46	49055.29
660.60	49219.13
660.74	49022.52
660.89	48348.45
661.03	48488.88
661.17	48514.62
661.32	48421.00
661.46	48002.05
661.60	48655.06
661.74	48552.07
661.89	48727.61
662.03	48673.78
662.17	48369.51
662.31	48463.13
662.46	48722.93
662.60	48381.21
662.74	47973.96
662.88	47737.57
663.03	47641.60
663.17	48109.71
663.31	47657.99
663.45	47707.14
663.60	47522.24
663.74	47894.38
663.88	47709.48
664.02	47693.10
664.17	48172.91
664.31	47723.52
664.45	47732.89
664.59	47477.77
664.73	47423.93
664.88	47849.91
665.02	46508.79
665.16	46827.10
665.30	47082.22
665.44	47157.11
665.59	46405.80
665.73	47105.62
665.87	46461.97
666.01	47084.56
666.15	47267.12
666.29	47002.64
666.44	47084.56
666.58	46672.62
666.72	46358.99
666.86	46464.32
667.00	46927.74
667.14	46965.19
667.28	46532.19
667.43	46368.35
667.57	46618.79
667.71	46518.15
667.85	46157.70
667.99	45808.96
668.13	46026.63
668.27	45881.52
668.41	45844.07
668.56	45560.87
668.70	45509.38
668.84	46089.83
668.98	45469.59
669.12	45509.38
669.26	45804.28
669.40	45607.68
669.54	45600.66
669.68	45546.82
669.82	45102.12
669.96	45186.38
670.10	45020.20
670.25	45184.04
670.39	44842.32
670.53	44861.05
670.67	44940.63
670.81	45076.38
670.95	44992.12
671.09	44634.02
671.23	44734.66
671.37	44868.07
671.51	45095.10
671.65	44662.10
671.79	44676.15
671.93	44013.77
672.07	44460.82
672.21	44325.07
672.35	44236.12
672.49	43957.60
672.63	44034.84
672.77	43248.42
672.91	43723.55
673.05	43533.96
673.19	43475.45
673.33	43672.06
673.47	43416.94
673.61	44107.40
673.75	43566.73
673.89	43484.81
674.03	42969.90
674.17	43098.62
674.31	43400.55
674.45	43047.13
674.59	42689.03
674.73	42941.81
674.87	42686.69
675.01	42497.11
675.15	42323.91
675.29	42213.90
675.43	42305.18
675.56	42150.71
675.70	42368.38
675.84	42635.20
675.98	41130.23
676.12	41844.10
676.26	41930.70
676.40	42029.00
676.54	41787.92
676.68	41507.06
676.82	40402.33
676.96	41170.02
677.10	40968.74
677.23	40678.51
677.37	40561.48
677.51	40601.27
677.65	40561.48
677.79	40292.32
677.93	39938.90
678.07	40521.69
678.21	40098.06
678.34	40474.88
678.48	40055.93
678.62	39658.04
678.76	39889.75
678.90	40046.57
679.04	39641.65
679.18	39611.23
679.31	38967.58
679.45	39145.46
679.59	39302.28
679.73	38932.47
679.87	38742.89
680.00	38497.13
680.14	38244.35
680.28	38246.69
680.42	38637.56
680.56	38677.35
680.70	38291.16
680.83	38415.21
680.97	38462.02
681.11	38651.61
681.25	38249.03
681.39	38298.19
681.52	38029.02
681.66	38092.22
681.80	37205.16
681.94	37528.15
682.07	37240.26
682.21	37090.47
682.35	36641.09
682.49	36767.48
682.62	36456.18
682.76	36495.97
682.90	36418.74
683.04	36566.19
683.17	36023.19
683.31	36121.49
683.45	36563.85
683.59	36095.74
683.72	35906.16
683.86	35739.98
684.00	35772.75
684.13	35669.76
684.27	35690.83
684.41	34902.07
684.55	35061.22
684.68	34960.58
684.82	34803.77
684.96	34588.44
685.09	34305.23
685.23	34574.39
685.37	34560.35
685.50	34600.14
685.64	34220.97
685.78	34515.88
685.91	34359.06
686.05	34085.22
686.19	33968.19
686.32	33745.84
686.46	33539.88
686.60	33766.91
686.73	33460.30
686.87	33097.52
687.01	32598.98
687.14	33027.30
687.28	32835.38
687.42	32751.12
687.55	32662.18
687.69	32540.47
687.82	32254.92
687.96	32313.44
688.10	32201.09
688.23	32620.05
688.37	32442.17
688.50	32156.62
688.64	31487.23
688.78	31850.01
688.91	31253.17
689.05	31697.88
689.18	31454.46
689.32	30897.41
689.46	31016.78
689.59	30710.17
689.73	31213.38
689.86	31009.76
690.00	30525.27
690.13	30749.96
690.27	30473.78
690.41	30553.35
690.54	30551.01
690.68	30361.43
690.81	30593.14
690.95	30277.17
691.08	30155.46
691.22	29888.64
691.35	29727.14
691.49	29689.70
691.62	29631.18
691.76	29441.60
691.89	29191.16
692.03	28847.10
692.16	29226.27
692.30	28828.38
692.43	28917.32
692.57	28676.24
692.70	28493.68
692.84	28744.12
692.97	28561.56
693.11	28414.10
693.24	28189.41
693.38	28577.94
693.51	28285.37
693.65	28386.02
693.78	28547.51
693.92	28161.33
694.05	27896.85
694.19	27470.87
694.32	27468.53
694.45	27288.31
694.59	27503.64
694.72	27002.76
694.86	27175.96
694.99	26855.31
695.13	26731.26
695.26	26492.52
695.39	26185.91
695.53	26658.70
695.66	26476.14
695.80	26342.73
695.93	26562.74
696.07	26017.40
696.20	26192.94
696.33	26204.64
696.47	25935.48
696.60	25797.38
696.73	25542.27
696.87	25439.28
697.00	25261.40
697.14	24765.21
697.27	25032.03
697.40	24753.51
697.54	24570.94
697.67	24493.71
697.80	24531.15
697.94	24379.02
698.07	24149.65
698.21	24222.20
698.34	24025.60
698.47	24126.24
698.61	24039.64
698.74	24128.58
698.87	23866.44
699.01	23896.87
699.14	23892.19
699.27	23758.78
699.40	23309.40
699.54	23269.61
699.67	23274.29
699.80	22773.41
699.94	22899.80
700.07	22948.95
700.20	22473.82
700.34	22534.68
700.47	22277.22
700.60	22640.00
700.73	22288.92
700.87	22391.91
701.00	22537.02
701.13	22363.82
701.26	22157.85
701.40	22080.61
701.53	21956.57
701.66	22305.31
701.79	21715.49
701.93	21432.29
702.06	21296.53
702.19	21282.49
702.32	21722.51
702.46	21270.79
702.59	20992.26
702.72	21071.84
702.85	20610.76
702.99	20788.64
703.12	21069.50
703.25	20737.15
703.38	20383.73
703.51	20435.22
703.65	20643.52
703.78	20308.83
703.91	20135.63
704.04	20294.79
704.17	20177.76
704.31	19859.45
704.44	19943.70
704.57	19962.43
704.70	19524.75
704.83	19625.39
704.96	19435.81
705.10	19260.27
705.23	19147.92
>>>>>End Processed Spectral Data<<<<<
