SpectraSuite Data File
++++++++++++++++++++++++++++++++++++
Date: Fri Oct 18 13:55:24 GMT-05:00 2013
User: bianchi
Dark Spectrum Present: No
Reference Spectrum Present: No
Number of Sampled Component Spectra: 1
Spectrometers: USB2+H05261
Integration Time (usec): 100000 (USB2+H05261)
Spectra Averaged: 1 (USB2+H05261)
Boxcar Smoothing: 0 (USB2+H05261)
Correct for Electrical Dark: No (USB2+H05261)
Strobe/Lamp Enabled: No (USB2+H05261)
Correct for Detector Non-linearity: No (USB2+H05261)
Correct for Stray Light: No (USB2+H05261)
Number of Pixels in Processed Spectrum: 2048
>>>>>Begin Processed Spectral Data<<<<<
365.73	0.00
365.92	0.00
366.12	0.00
366.32	0.00
366.52	0.00
366.72	0.00
366.91	0.00
367.11	0.00
367.31	0.00
367.51	0.00
367.70	0.00
367.90	0.00
368.10	0.00
368.30	0.00
368.49	0.00
368.69	0.00
368.89	0.00
369.09	0.00
369.28	0.00
369.48	0.00
369.68	0.00
369.87	0.00
370.07	0.00
370.27	0.00
370.47	46.81
370.66	220.01
370.86	297.25
371.06	337.04
371.25	367.46
371.45	315.97
371.65	411.93
371.84	341.72
372.04	374.49
372.24	320.65
372.44	381.51
372.63	447.04
372.83	477.47
373.03	440.02
373.22	402.57
373.42	440.02
373.62	535.98
373.81	475.13
374.01	491.51
374.21	475.13
374.40	451.72
374.60	543.00
374.79	491.51
374.99	540.66
375.19	512.58
375.38	538.32
375.58	491.51
375.78	601.52
375.97	524.28
376.17	592.16
376.37	470.45
376.56	552.37
376.76	528.96
376.95	613.22
377.15	489.17
377.35	554.71
377.54	571.09
377.74	559.39
377.93	596.84
378.13	613.22
378.33	620.24
378.52	585.13
378.72	589.82
378.91	606.20
379.11	543.00
379.31	669.39
379.50	580.45
379.70	643.65
379.89	627.26
380.09	669.39
380.28	653.01
380.48	678.76
380.68	627.26
380.87	653.01
381.07	727.91
381.26	725.57
381.46	648.33
381.65	634.29
381.85	653.01
382.04	645.99
382.24	716.20
382.43	709.18
382.63	699.82
382.83	784.08
383.02	849.61
383.22	741.95
383.41	765.36
383.61	744.29
383.80	727.91
384.00	737.27
384.19	767.70
384.39	805.14
384.58	814.51
384.78	744.29
384.97	837.91
385.17	760.67
385.36	805.14
385.56	772.38
385.75	823.87
385.95	833.23
386.14	858.98
386.34	835.57
386.53	849.61
386.72	856.64
386.92	931.53
387.11	908.13
387.31	884.72
387.50	798.12
387.70	849.61
387.89	866.00
388.09	957.28
388.28	805.14
388.48	966.64
388.67	1013.45
388.86	926.85
389.06	983.02
389.25	973.66
389.45	985.37
389.64	926.85
389.84	1060.26
390.03	954.94
390.22	1046.22
390.42	959.62
390.61	1034.52
390.81	1060.26
391.00	1018.13
391.19	1076.65
391.39	1062.60
391.58	1008.77
391.78	1123.46
391.97	1050.90
392.16	1029.84
392.36	1240.48
392.55	1188.99
392.75	1067.28
392.94	1053.24
393.13	1109.41
393.33	1104.73
393.52	1146.86
393.71	1130.48
393.91	1191.33
394.10	1130.48
394.29	1303.68
394.49	1118.78
394.68	1177.29
394.88	1228.78
395.07	1177.29
395.26	1277.93
395.46	1284.95
395.65	1348.15
395.84	1224.10
396.04	1516.67
396.23	1331.76
396.42	1245.16
396.62	1427.73
396.81	1357.51
397.00	1364.53
397.19	1350.49
397.39	1341.13
397.58	1390.28
397.77	1385.60
397.97	1334.11
398.16	1413.68
398.35	1434.75
398.55	1315.38
398.74	1486.24
398.93	1488.58
399.12	1554.12
399.32	1458.15
399.51	1500.28
399.70	1528.37
399.90	1535.39
400.09	1647.74
400.28	1701.57
400.47	1558.80
400.67	1593.90
400.86	1636.03
401.05	1717.95
401.24	1806.89
401.44	1710.93
401.63	1724.97
401.82	1778.81
402.01	1717.95
402.21	1732.00
402.40	1696.89
402.59	1710.93
402.78	1746.04
402.97	1792.85
403.17	1809.23
403.36	1877.11
403.55	1832.64
403.74	1874.77
403.93	1881.79
404.13	1952.01
404.32	1860.73
404.51	1966.05
404.70	1867.75
404.89	1959.03
405.09	1919.24
405.28	1942.64
405.47	1914.56
405.66	2197.76
405.85	2127.55
406.05	2085.42
406.24	2195.42
406.43	2129.89
406.62	2174.36
406.81	2239.89
407.00	2221.17
407.20	2183.72
407.39	2165.00
407.58	2331.17
407.77	2279.68
407.96	2307.77
408.15	2303.09
408.34	2246.91
408.54	2408.41
408.73	2328.83
408.92	2300.75
409.11	2478.63
409.30	2551.18
409.49	2469.27
409.68	2480.97
409.87	2499.69
410.07	2555.86
410.26	2539.48
410.45	2520.76
410.64	2647.15
410.83	2644.81
411.02	2626.08
411.21	2654.17
411.40	2698.64
411.59	2574.59
411.78	2745.45
411.98	2621.40
412.17	2857.79
412.36	2855.45
412.55	2942.05
412.74	2867.16
412.93	2890.56
413.12	2820.35
413.31	3101.21
413.50	3066.10
413.69	3063.76
413.88	3208.87
414.07	3136.32
414.26	3260.37
414.45	3211.22
414.64	3265.05
414.83	3365.69
415.02	3412.50
415.22	3365.69
415.41	3426.54
415.60	3445.27
415.79	3461.65
415.98	3508.46
416.17	3545.91
416.36	3522.51
416.55	3644.21
416.74	3578.68
416.93	3548.25
417.12	3576.34
417.31	3761.24
417.50	3723.79
417.69	3908.69
417.88	3840.82
418.07	3735.50
418.26	3712.09
418.45	3889.97
418.64	4009.34
418.83	4049.13
419.02	4138.07
419.21	4147.43
419.39	4077.21
419.58	3997.64
419.77	4100.62
419.96	4308.93
420.15	4140.41
420.34	4142.75
420.53	4114.66
420.72	4194.24
420.91	4287.86
421.10	4315.95
421.29	4423.61
421.48	4257.43
421.67	4437.66
421.86	4219.99
422.05	4259.78
422.24	4360.42
422.43	4264.46
422.61	4432.97
422.80	4512.55
422.99	4407.23
423.18	4545.32
423.37	4484.47
423.56	4451.70
423.75	4444.68
423.94	4503.19
424.13	4166.15
424.32	4344.03
424.50	4601.49
424.69	4650.64
424.88	4568.73
425.07	4557.02
425.26	4430.63
425.45	4489.15
425.64	4608.51
425.83	4568.73
426.01	4629.58
426.20	4627.24
426.39	4725.54
426.58	4702.14
426.77	4662.35
426.96	4690.43
427.15	4709.16
427.33	4784.06
427.52	4788.74
427.71	5027.47
427.90	4755.97
428.09	4781.71
428.28	4887.04
428.46	5188.97
428.65	4833.21
428.84	4980.66
429.03	5203.01
429.22	5095.35
429.40	5111.73
429.59	5153.86
429.78	4922.15
429.97	4837.89
430.16	4865.97
430.34	5198.33
430.53	5268.55
430.72	5224.08
430.91	5039.17
431.10	5165.56
431.28	5313.02
431.47	5235.78
431.66	5378.55
431.85	5315.36
432.03	5455.79
432.22	5526.00
432.41	5437.06
432.60	5584.52
432.79	5425.36
432.97	5535.37
433.16	5425.36
433.35	5430.04
433.54	5591.54
433.72	5614.95
433.91	5570.48
434.10	5603.24
434.28	5825.59
434.47	5799.85
434.66	5762.40
434.85	5760.06
435.03	5827.93
435.22	5830.27
435.41	5975.39
435.59	5860.70
435.78	5895.81
435.97	5881.77
436.16	5804.53
436.34	5937.94
436.53	5891.13
436.72	6256.25
436.90	5916.87
437.09	6125.18
437.28	5975.39
437.46	6078.37
437.65	6160.29
437.84	6408.39
438.02	6253.91
438.21	6155.61
438.40	6218.80
438.58	6485.62
438.77	6520.73
438.96	6370.94
439.14	6537.12
439.33	6513.71
439.52	6588.61
439.70	6710.32
439.89	6920.96
440.08	6670.53
440.26	6785.21
440.45	6895.22
440.63	6817.98
440.82	7077.78
441.01	7066.08
441.19	7145.66
441.38	7225.23
441.57	7279.07
441.75	7241.62
441.94	7311.83
442.12	7314.17
442.31	7417.16
442.50	7459.29
442.68	7461.63
442.87	7335.24
443.05	7552.91
443.24	7578.65
443.43	7644.19
443.61	7604.40
443.80	7847.82
443.98	7344.60
444.17	7396.09
444.35	7620.78
444.54	7831.43
444.73	7604.40
444.91	7742.49
445.10	7801.01
445.28	7971.86
445.47	7702.70
445.65	7641.85
445.84	7831.43
446.02	7721.43
446.21	7751.85
446.39	7789.30
446.58	7903.99
446.77	7927.39
446.95	7740.15
447.14	7744.83
447.32	7918.03
447.51	7906.33
447.69	8023.36
447.88	7775.26
448.06	7906.33
448.25	7908.67
448.43	7978.89
448.62	7896.97
448.80	8018.68
448.99	7967.18
449.17	8189.53
449.36	7929.74
449.54	8334.65
449.73	8224.64
449.91	8355.71
450.10	8095.91
450.28	8404.86
450.46	8585.08
450.65	8388.48
450.83	8407.20
451.02	8559.34
451.20	8425.93
451.39	8589.77
451.57	8582.74
451.76	8547.64
451.94	8423.59
452.13	8791.05
452.31	8582.74
452.49	8407.20
452.68	8514.87
452.86	8753.60
453.05	8779.35
453.23	8730.20
453.42	8823.82
453.60	8599.13
453.78	8755.94
453.97	8755.94
454.15	8809.78
454.34	8652.96
454.52	9032.13
454.70	8814.46
454.89	8926.80
455.07	8999.36
455.26	9076.60
455.44	9308.31
455.62	9242.78
455.81	9291.93
455.99	9015.74
456.17	9320.01
456.36	9263.84
456.54	9441.72
456.73	9451.08
456.91	9776.42
457.09	9603.22
457.28	9921.53
457.46	9554.07
457.64	9937.91
457.83	9699.18
458.01	9748.33
458.19	9975.36
458.38	9652.37
458.56	10036.22
458.74	10031.54
458.93	9844.29
459.11	9975.36
459.29	9949.62
459.48	10160.27
459.66	9942.60
459.84	10181.33
460.03	10333.47
460.21	10001.11
460.39	10244.52
460.57	10047.92
460.76	10321.76
460.94	10218.78
461.12	10310.06
461.31	10345.17
461.49	10373.25
461.67	10253.89
461.85	10583.90
462.04	10464.54
462.22	10696.25
462.40	10633.05
462.59	10417.72
462.77	10635.39
462.95	10623.69
463.13	10726.68
463.32	10773.49
463.50	10892.85
463.68	10899.87
463.86	11014.56
464.05	10473.90
464.23	11012.22
464.41	11026.26
464.59	10771.15
464.78	11002.86
464.96	10974.77
465.14	11047.33
465.32	11201.80
465.50	11283.72
465.69	11316.49
465.87	10913.92
466.05	10920.94
466.23	11265.00
466.41	11206.48
466.60	11531.82
466.78	11353.94
466.96	11197.12
467.14	11321.17
467.32	11365.64
467.51	11557.57
467.69	11461.60
467.87	11501.39
468.05	11489.69
468.23	11300.11
468.41	11534.16
468.60	11669.91
468.78	11793.96
468.96	11651.19
469.14	11700.34
469.32	11880.56
469.50	11719.06
469.69	11974.18
469.87	12002.27
470.05	12086.53
470.23	12070.14
470.41	11974.18
470.59	12128.66
470.77	11999.93
470.95	12458.67
471.14	12278.45
471.32	12231.64
471.50	12765.28
471.68	12315.90
471.86	12533.57
472.04	12622.51
472.22	13177.22
472.40	12437.61
472.58	12821.45
472.77	12882.31
472.95	12919.76
473.13	13366.80
473.31	13193.60
473.49	12961.89
473.67	13064.87
473.85	13160.83
474.03	13226.37
474.21	13462.76
474.39	13528.30
474.57	13334.03
474.75	13446.38
474.93	13757.67
475.12	13502.55
475.30	13980.02
475.48	13937.89
475.66	14071.30
475.84	13792.78
476.02	14101.73
476.20	14253.86
476.38	14541.75
476.56	14576.86
476.74	14590.90
476.92	14719.63
477.10	14537.07
477.28	14764.10
477.46	14883.47
477.64	14808.57
477.82	15136.24
478.00	15330.51
478.18	15604.35
478.36	15597.33
478.54	15777.55
478.72	16025.65
478.90	15840.75
479.08	16006.92
479.26	15969.48
479.44	16435.24
479.62	16652.91
479.80	16327.58
479.98	16727.81
480.16	17137.40
480.34	16643.55
480.52	16917.39
480.70	17216.98
480.88	16776.96
481.06	17128.04
481.24	17216.98
481.41	17366.78
481.59	18038.51
481.77	18174.26
481.95	18092.34
482.13	18106.38
482.31	18092.34
482.49	18396.61
482.67	18476.19
482.85	18801.52
483.03	19152.60
483.21	18970.04
483.39	18920.89
483.57	19250.91
483.74	19250.91
483.92	19325.80
484.10	19152.60
484.28	19901.58
484.46	20212.87
484.64	20402.45
484.82	19871.15
485.00	20655.23
485.18	20875.24
485.35	21095.25
485.53	20957.16
485.71	21673.36
485.89	21589.10
486.07	21317.60
486.25	21523.57
486.43	21853.58
486.61	21825.50
486.78	22139.13
486.96	22424.67
487.14	22616.60
487.32	22668.09
487.50	22705.54
487.68	23021.51
487.85	23285.99
488.03	23585.58
488.21	23625.37
488.39	23686.22
488.57	24060.71
488.75	23854.74
488.92	24393.06
489.10	24577.97
489.28	24680.95
489.46	24980.54
489.64	25146.72
489.81	25422.90
489.99	25298.85
490.17	25575.03
490.35	25867.60
490.53	25806.75
490.70	26389.54
490.88	26197.62
491.06	26522.95
491.24	26403.58
491.41	26604.87
491.59	26700.83
491.77	26742.96
491.95	27580.87
492.13	27716.62
492.30	27400.65
492.48	27538.74
492.66	27948.34
492.84	27714.28
493.01	28231.54
493.19	28095.79
493.37	28837.74
493.54	28744.12
493.72	28762.84
493.90	28760.50
494.08	29104.56
494.25	29315.21
494.43	29727.14
494.61	30059.50
494.79	30445.69
494.96	29640.54
495.14	30328.66
495.32	30338.02
495.49	30668.04
495.67	31072.95
495.85	30991.03
496.02	31311.69
496.20	31220.41
496.38	30869.33
496.55	31321.05
496.73	32126.19
496.91	31576.17
497.09	32039.59
497.26	32210.45
497.44	32140.24
497.62	32388.33
497.79	32540.47
497.97	32484.30
498.14	32978.15
498.32	32821.33
498.50	33102.20
498.67	33537.54
498.85	33275.40
499.03	33701.37
499.20	33373.70
499.38	33542.22
499.56	33923.72
499.73	34326.30
499.91	34415.24
500.08	34274.80
500.26	34043.09
500.44	34602.48
500.61	34440.98
500.79	34522.90
500.97	34763.98
501.14	35475.50
501.32	35337.41
501.49	35138.46
501.67	35206.34
501.84	35173.57
502.02	35793.81
502.20	35952.97
502.37	35611.25
502.55	35999.78
502.72	36130.85
502.90	36210.43
503.07	36044.25
503.25	36180.00
503.43	36250.22
503.60	36591.94
503.78	36713.64
503.95	36741.73
504.13	36935.99
504.30	36947.70
504.48	36608.32
504.65	37235.58
504.83	37881.57
505.01	37790.29
505.18	37687.31
505.36	38333.29
505.53	37675.60
505.71	37923.70
505.88	37717.73
506.06	38022.00
506.23	38319.25
506.41	38431.60
506.58	38520.54
506.76	38749.91
506.93	38682.03
507.11	38518.20
507.28	39047.16
507.46	39232.06
507.63	39555.05
507.81	39763.36
507.98	38972.26
508.16	39316.32
508.33	39543.35
508.50	39594.84
508.68	39611.23
508.85	40187.00
509.03	39868.69
509.20	40254.87
509.38	40573.19
509.55	40367.22
509.73	40081.67
509.90	40430.41
510.08	41186.41
510.25	40460.84
510.42	40767.45
510.60	41523.44
510.77	41404.08
510.95	41551.53
511.12	41071.72
511.30	41523.44
511.47	41673.24
511.64	41968.15
511.82	41918.99
511.99	41963.46
512.17	42321.57
512.34	41813.67
512.51	42742.86
512.69	42272.42
512.86	42288.80
513.04	42740.52
513.21	42621.16
513.38	42953.51
513.56	43049.47
513.73	42993.30
513.90	42862.23
514.08	42962.87
514.25	43056.50
514.43	43405.23
514.60	43606.52
514.77	43803.13
514.95	43807.81
515.12	43349.06
515.29	43676.74
515.47	43838.23
515.64	44203.36
515.81	44275.91
515.99	44222.08
516.16	44645.72
516.33	44669.12
516.51	44500.61
516.68	44580.18
516.85	44673.81
517.03	44671.46
517.20	45048.29
517.37	44631.68
517.54	45411.07
517.72	45109.14
517.89	44687.85
518.06	45041.27
518.24	44947.65
518.41	44900.84
518.58	45631.08
518.75	45640.45
518.93	45734.07
519.10	45432.14
519.27	45961.10
519.45	45799.60
519.62	46298.14
519.79	45780.88
519.96	46026.63
520.14	46492.40
520.31	45940.04
520.48	46358.99
520.65	46607.09
520.83	46410.48
521.00	47019.02
521.17	46789.65
521.34	46721.77
521.52	46911.36
521.69	46714.75
521.86	47185.20
522.03	47789.06
522.20	47400.53
522.38	47421.59
522.55	47320.95
522.72	47047.11
522.89	47515.22
523.07	48027.79
523.24	47674.37
523.41	48020.77
523.58	47849.91
523.75	48219.72
523.92	47732.89
524.10	48163.54
524.27	48027.79
524.44	48161.20
524.61	48348.45
524.78	48406.96
524.96	48446.75
525.13	48540.37
525.30	48760.38
525.47	48645.69
525.64	48755.70
525.81	48949.96
525.98	49556.16
526.16	48807.19
526.33	48942.94
526.50	49462.54
526.67	49132.53
526.84	49015.50
527.01	49069.33
527.18	49443.82
527.36	49275.30
527.53	49666.17
527.70	49661.49
527.87	49822.98
528.04	49249.55
528.21	49340.83
528.38	49275.30
528.55	49745.75
528.72	49516.37
528.89	49958.73
529.07	49785.54
529.24	49724.68
529.41	49865.11
529.58	49731.70
529.75	49895.54
529.92	50153.00
530.09	49888.52
530.26	50300.45
530.43	50202.15
530.60	50244.28
530.77	50454.93
530.94	50590.68
531.11	50197.47
531.28	50475.99
531.46	50515.78
531.63	50543.87
531.80	50829.41
531.97	50930.06
532.14	50965.17
532.31	50883.25
532.48	51075.17
532.65	50801.33
532.82	50747.50
532.99	50838.78
533.16	50775.58
533.33	50960.48
533.50	51468.38
533.67	51299.86
533.84	51299.86
534.01	51398.16
534.18	50932.40
534.35	51304.54
534.52	51388.80
534.69	51601.79
534.86	51756.27
535.03	51562.00
535.20	51791.37
535.37	51934.15
535.54	51573.70
535.71	51391.14
535.88	51650.94
536.05	51887.34
536.22	51985.64
536.38	51995.00
536.55	51924.78
536.72	52423.32
536.89	51501.15
537.06	51894.36
537.23	52097.98
537.40	51828.82
537.57	52062.88
537.74	52172.88
537.91	52425.66
538.08	52289.91
538.25	52322.68
538.42	52530.98
538.59	52498.22
538.75	51997.34
538.92	52477.15
539.09	52329.70
539.26	52795.46
539.43	52575.45
539.60	52406.94
539.77	52587.16
539.94	53052.92
540.11	52856.32
540.28	52645.67
540.44	52629.29
540.61	52673.76
540.78	52931.22
540.95	53099.73
541.12	52797.80
541.29	52877.38
541.46	53174.63
541.62	52823.55
541.79	52809.51
541.96	52821.21
542.13	53146.54
542.30	52926.53
542.47	53223.78
542.63	53579.54
542.80	53460.18
542.97	53649.76
543.14	53832.32
543.31	53521.03
543.48	53521.03
543.64	53869.77
543.81	54005.52
543.98	53923.60
544.15	53762.11
544.32	53984.46
544.48	53865.09
544.65	53682.53
544.82	53813.60
544.99	53694.23
545.16	53972.75
545.32	53701.25
545.49	54239.57
545.66	54244.26
545.83	54129.57
546.00	54398.73
546.16	54223.19
546.33	54075.74
546.50	53696.57
546.67	54300.43
546.83	53851.05
547.00	54312.13
547.17	54089.78
547.34	54185.74
547.50	54377.67
547.67	54614.06
547.84	54447.88
548.00	54454.90
548.17	54578.95
548.34	54286.39
548.51	54567.25
548.67	54700.66
548.84	54726.41
549.01	54805.98
549.18	54431.50
549.34	54539.16
549.51	54759.17
549.68	54789.60
549.84	54515.76
550.01	54635.13
550.18	54855.14
550.34	54974.50
550.51	54848.11
550.68	54897.27
550.84	54394.05
551.01	54759.17
551.18	54770.88
551.34	54637.47
551.51	54780.24
551.68	55178.13
551.84	55136.00
552.01	55002.59
552.18	55124.30
552.34	55136.00
552.51	55323.24
552.68	55011.95
552.84	54906.63
553.01	55283.45
553.18	55206.22
553.34	55400.48
553.51	55119.62
553.67	55260.05
553.84	55515.17
554.01	55503.46
554.17	55391.12
554.34	55468.36
554.51	55311.54
554.67	55484.74
554.84	55299.84
555.00	55580.70
555.17	55477.72
555.33	55391.12
555.50	55569.00
555.67	55407.50
555.83	55547.93
556.00	55700.07
556.16	55524.53
556.33	55803.05
556.50	55313.88
556.66	55585.38
556.83	55756.24
556.99	55835.82
557.16	55976.25
557.32	55948.17
557.49	55973.91
557.65	55669.64
557.82	55444.95
557.98	55749.22
558.15	55561.98
558.32	56172.86
558.48	55735.18
558.65	56189.24
558.81	55964.55
558.98	56020.72
559.14	55870.93
559.31	55730.50
559.47	56039.45
559.64	56041.79
559.80	55938.80
559.97	56095.62
560.13	55917.74
560.30	55922.42
560.46	55971.57
560.63	56072.21
560.79	56207.97
560.96	55994.98
561.12	55856.88
561.29	55784.33
561.45	56142.43
561.61	56072.21
561.78	56339.04
561.94	56322.65
562.11	56301.59
562.27	56245.41
562.44	56158.81
562.60	55978.59
562.77	55945.83
562.93	56243.07
563.10	56505.21
563.26	56107.32
563.42	56561.39
563.59	56381.16
563.75	56203.28
563.92	56355.42
564.08	56147.11
564.24	56336.69
564.41	56128.39
564.57	56179.88
564.74	55971.57
564.90	56442.02
565.07	56292.22
565.23	56458.40
565.39	56296.91
565.56	56444.36
565.72	56364.78
565.88	56540.32
566.05	56432.66
566.21	56231.37
566.38	56186.90
566.54	56416.27
566.70	56547.34
566.87	56767.35
567.03	56512.23
567.19	56493.51
567.36	56552.02
567.52	56200.94
567.68	56346.06
567.85	56404.57
568.01	56388.19
568.17	56774.37
568.34	56427.98
568.50	56640.96
568.66	56692.46
568.83	56755.65
568.99	56339.04
569.15	56203.28
569.32	56301.59
569.48	55987.95
569.64	56339.04
569.81	56554.36
569.97	56561.39
570.13	56484.15
570.30	56505.21
570.46	56743.95
570.62	56708.84
570.78	56584.79
570.95	56416.27
571.11	56530.96
571.27	56315.63
571.43	56395.21
571.60	56645.65
571.76	56603.52
571.92	56666.71
572.09	56830.55
572.25	56694.80
572.41	56743.95
572.57	56666.71
572.74	56760.33
572.90	56465.42
573.06	56582.45
573.22	56549.68
573.38	56633.94
573.55	56598.83
573.71	56882.04
573.87	56889.06
574.03	56685.43
574.20	56823.53
574.36	56818.84
574.52	56474.79
574.68	56664.37
574.84	56741.61
575.01	56542.66
575.17	56797.78
575.33	56980.34
575.49	56729.90
575.65	56844.59
575.82	56945.23
575.98	56669.05
576.14	56830.55
576.30	56821.19
576.46	56591.81
576.62	56605.86
576.79	56708.84
576.95	56587.13
577.11	56708.84
577.27	56860.97
577.43	56554.36
577.59	56626.92
577.75	56757.99
577.92	56722.88
578.08	56683.09
578.24	56570.75
578.40	56530.96
578.56	56856.29
578.72	56924.17
578.88	56947.57
579.04	56928.85
579.21	56699.48
579.37	56858.63
579.53	56952.26
579.69	56622.24
579.85	56601.18
580.01	56767.35
580.17	56570.75
580.33	56757.99
580.49	56647.99
580.65	57045.88
580.82	56872.68
580.98	56704.16
581.14	57069.28
581.30	56772.03
581.46	56811.82
581.62	56795.44
581.78	56669.05
581.94	56835.23
582.10	56671.39
582.26	56741.61
582.42	56954.60
582.58	56769.69
582.74	56814.16
582.90	56884.38
583.06	56999.07
583.22	56868.00
583.38	56853.95
583.54	56860.97
583.70	56545.00
583.86	56736.93
584.02	56765.01
584.18	57078.64
584.34	56968.64
584.50	56938.21
584.66	56830.55
584.82	56725.22
584.98	56914.81
585.14	56690.12
585.30	56846.93
585.46	56706.50
585.62	56893.74
585.78	57179.29
585.94	56919.49
586.10	57027.15
586.26	56790.76
586.42	56935.87
586.58	56910.13
586.74	56802.46
586.90	56636.28
587.06	56589.47
587.22	56856.29
587.38	56446.70
587.54	56900.76
587.70	56978.00
587.86	56928.85
588.02	56938.21
588.18	56940.55
588.34	56893.74
588.49	56994.39
588.65	56699.48
588.81	57045.88
588.97	57001.41
589.13	56919.49
589.29	57022.47
589.45	57097.37
589.61	57036.51
589.77	57179.29
589.93	57055.24
590.08	57031.83
590.24	57073.96
590.40	57195.67
590.56	57214.40
590.72	56921.83
590.88	56776.72
591.04	57289.29
591.20	57169.93
591.35	57439.09
591.51	57097.37
591.67	57277.59
591.83	57418.02
591.99	57113.75
592.15	57137.16
592.31	57059.92
592.46	57073.96
592.62	57235.46
592.78	57045.88
592.94	57148.86
593.10	57176.95
593.26	57308.02
593.41	57158.22
593.57	57200.35
593.73	57167.58
593.89	57158.22
594.05	57462.49
594.20	57174.61
594.36	56973.32
594.52	56985.02
594.68	57078.64
594.84	57120.77
594.99	57181.63
595.15	57258.87
595.31	57174.61
595.47	57490.58
595.62	57207.37
595.78	57111.41
595.94	57214.40
596.10	57090.35
596.25	57242.48
596.41	57057.58
596.57	57017.79
596.73	57162.90
596.88	57104.39
597.04	57249.50
597.20	57270.57
597.36	57315.04
597.51	57340.78
597.67	57169.93
597.83	57263.55
597.99	57584.20
598.14	57434.41
598.30	57158.22
598.46	57048.22
598.61	57038.86
598.77	57031.83
598.93	57406.32
599.09	57352.49
599.24	57621.65
599.40	57223.76
599.56	57277.59
599.71	57214.40
599.87	57226.10
600.03	57340.78
600.18	57111.41
600.34	57167.58
600.50	57240.14
600.65	57043.54
600.81	57497.60
600.97	57525.69
601.12	57413.34
601.28	57343.12
601.44	57179.29
601.59	57207.37
601.75	57148.86
601.91	57174.61
602.06	57174.61
602.22	57368.87
602.37	57162.90
602.53	57134.82
602.69	57329.08
602.84	57167.58
603.00	57373.55
603.16	57183.97
603.31	57265.89
603.47	57308.02
603.62	56985.02
603.78	57181.63
603.94	57258.87
604.09	57226.10
604.25	57165.24
604.40	57085.67
604.56	57160.56
604.71	57317.38
604.87	56947.57
605.03	57148.86
605.18	57153.54
605.34	57078.64
605.49	56755.65
605.65	57120.77
605.80	56835.23
605.96	56980.34
606.12	57066.94
606.27	57317.38
606.43	57003.75
606.58	57249.50
606.74	57181.63
606.89	57169.93
607.05	57099.71
607.20	57059.92
607.36	57198.01
607.51	56945.23
607.67	57034.17
607.82	56956.94
607.98	56790.76
608.13	56966.30
608.29	57120.77
608.44	56935.87
608.60	56816.50
608.75	57256.53
608.91	57050.56
609.06	56828.21
609.22	57387.60
609.37	56554.36
609.53	57151.20
609.68	56912.47
609.84	56678.41
609.99	56882.04
610.15	56662.03
610.30	56910.13
610.46	56797.78
610.61	57008.43
610.76	56868.00
610.92	56884.38
611.07	56713.52
611.23	56821.19
611.38	56790.76
611.54	56727.56
611.69	56584.79
611.84	56453.72
612.00	56509.89
612.15	56645.65
612.31	56959.28
612.46	56601.18
612.62	56940.55
612.77	56872.68
612.92	57069.28
613.08	56865.66
613.23	56743.95
613.39	56610.54
613.54	56556.70
613.69	56655.01
613.85	56683.09
614.00	56341.38
614.15	56573.09
614.31	56533.30
614.46	56582.45
614.62	56547.34
614.77	56783.74
614.92	56692.46
615.08	56252.44
615.23	56662.03
615.38	56502.87
615.54	56168.18
615.69	56339.04
615.84	56364.78
616.00	56552.02
616.15	56301.59
616.30	56762.67
616.46	56119.02
616.61	56051.15
616.76	56662.03
616.92	56371.80
617.07	56336.69
617.22	56142.43
617.37	56016.04
617.53	56189.24
617.68	56062.85
617.83	56332.01
617.99	56135.41
618.14	56278.18
618.29	56437.34
618.45	56273.50
618.60	56250.09
618.75	56306.27
618.90	56376.48
619.06	56196.26
619.21	56100.30
619.36	56200.94
619.51	55894.33
619.67	55669.64
619.82	56102.64
619.97	56130.73
620.12	55751.56
620.28	55826.46
620.43	55866.25
620.58	56023.06
620.73	56109.66
620.89	55959.87
621.04	56076.90
621.19	56030.08
621.34	56025.40
621.49	55554.96
621.65	55728.16
621.80	55952.85
621.95	55866.25
622.10	55917.74
622.25	55746.88
622.41	55604.11
622.56	55980.93
622.71	55746.88
622.86	55547.93
623.01	55632.19
623.16	55671.98
623.32	55707.09
623.47	55632.19
623.62	55531.55
623.77	55409.84
623.92	55475.38
624.07	55473.04
624.23	55522.19
624.38	55295.16
624.53	55290.48
624.68	55543.25
624.83	55847.52
624.98	55646.24
625.13	55583.04
625.29	55423.89
625.44	55414.52
625.59	55159.41
625.74	55257.71
625.89	55124.30
626.04	55091.53
626.19	55199.19
626.34	55224.94
626.49	55100.89
626.65	55011.95
626.80	55346.65
626.95	55337.29
627.10	55236.64
627.25	55215.58
627.40	55070.46
627.55	55112.59
627.70	54906.63
627.85	54871.52
628.00	54827.05
628.15	54672.57
628.30	54798.96
628.45	55136.00
628.60	54820.03
628.76	55168.77
628.91	55133.66
629.06	54754.49
629.21	54946.42
629.36	54892.58
629.51	54731.09
629.66	55000.25
629.81	54674.91
629.96	54637.47
630.11	54445.54
630.26	54686.62
630.41	54281.70
630.56	54604.70
630.71	54578.95
630.86	54656.19
631.01	54691.30
631.16	54733.43
631.31	54763.85
631.46	54585.97
631.61	54597.68
631.76	54541.50
631.91	54461.93
632.06	54419.80
632.21	54230.21
632.36	54401.07
632.51	54061.69
632.66	54192.76
632.81	54141.27
632.96	54365.96
633.10	54492.35
633.25	54501.71
633.40	54382.35
633.55	54265.32
633.70	54485.33
633.85	54227.87
634.00	54342.56
634.15	54115.53
634.30	54150.63
634.45	54010.20
634.60	54178.72
634.75	54190.42
634.90	54038.29
635.05	54253.62
635.19	54007.86
635.34	54059.35
635.49	54192.76
635.64	54176.38
635.79	54080.42
635.94	53759.76
636.09	54145.95
636.24	54038.29
636.39	53855.73
636.53	53759.76
636.68	53682.53
636.83	53872.11
636.98	53984.46
637.13	53663.80
637.28	54014.88
637.43	53635.72
637.57	53951.69
637.72	53579.54
637.87	53722.32
638.02	53689.55
638.17	53703.59
638.32	53319.74
638.46	53366.55
638.61	53286.98
638.76	53357.19
638.91	53457.84
639.06	53734.02
639.20	53595.93
639.35	53315.06
639.50	53483.58
639.65	53801.89
639.80	53581.88
639.94	53492.94
640.09	53207.40
640.24	53343.15
640.39	53406.34
640.54	53081.01
640.68	53294.00
640.83	53198.04
640.98	52631.63
641.13	52966.32
641.27	53043.56
641.42	53130.16
641.57	53120.80
641.72	52963.98
641.86	53095.05
642.01	52889.09
642.16	52919.51
642.31	52697.16
642.45	52992.07
642.60	52662.05
642.75	52870.36
642.90	52985.05
643.04	52809.51
643.19	53146.54
643.34	52992.07
643.48	52495.88
643.63	53029.52
643.78	53127.82
643.93	53057.60
644.07	52825.89
644.22	52800.15
644.37	52776.74
644.51	52718.23
644.66	52807.17
644.81	52832.91
644.95	52961.64
645.10	52374.17
645.25	52423.32
645.39	52559.07
645.54	52559.07
645.69	52289.91
645.83	52617.58
645.98	52261.82
646.13	52437.36
646.27	52643.33
646.42	52643.33
646.57	52530.98
646.71	52154.16
646.86	52334.38
647.00	52212.67
647.15	51957.55
647.30	51983.30
647.44	51964.57
647.59	52128.41
647.74	52226.71
647.88	52088.62
648.03	52128.41
648.17	52423.32
648.32	52156.50
648.47	52142.45
648.61	52245.44
648.76	52430.34
648.90	52142.45
649.05	52219.69
649.20	52158.84
649.34	51807.76
649.49	51540.94
649.63	51835.84
649.78	51833.50
649.92	51903.72
650.07	52184.58
650.21	51882.66
650.36	51599.45
650.51	51620.52
650.65	51716.48
650.80	51978.62
650.94	51868.61
651.09	51821.80
651.23	51697.75
651.38	51805.42
651.52	51634.56
651.67	51681.37
651.81	51547.96
651.96	51707.12
652.10	51381.78
652.25	51672.01
652.39	52264.16
652.54	51812.44
652.68	51657.96
652.83	51599.45
652.97	52011.38
653.12	51414.55
653.26	51452.00
653.41	51360.72
653.55	51334.97
653.70	51185.18
653.84	51304.54
653.99	51564.34
654.13	51341.99
654.27	51372.42
654.42	51400.50
654.56	51194.54
654.71	51140.71
654.85	51367.74
655.00	51152.41
655.14	51540.94
655.29	51334.97
655.43	50930.06
655.57	50777.92
655.72	50820.05
655.86	50932.40
656.01	50576.64
656.15	50478.33
656.30	50934.74
656.44	50663.24
656.58	51026.02
656.73	50901.97
656.87	50913.67
657.01	50782.60
657.16	51166.45
657.30	50731.11
657.45	50887.93
657.59	50852.82
657.73	50590.68
657.88	50543.87
658.02	50480.67
658.16	50415.14
658.31	50326.20
658.45	50499.40
658.60	50293.43
658.74	50447.91
658.88	49963.42
659.03	50436.20
659.17	50218.53
659.31	50204.49
659.46	50192.79
659.60	50160.02
659.74	50120.23
659.89	50143.64
660.03	49808.94
660.17	50569.61
660.32	50145.98
660.46	50089.80
660.60	49698.94
660.74	49766.81
660.89	49902.56
661.03	49340.83
661.17	49525.74
661.32	49537.44
661.46	49380.62
661.60	49394.67
661.74	49553.82
661.89	49350.20
662.03	49804.26
662.17	49305.73
662.31	49310.41
662.46	49298.70
662.60	49291.68
662.74	48765.06
662.88	49015.50
663.03	48877.41
663.17	48945.28
663.31	48596.54
663.45	48460.79
663.60	48350.79
663.74	48533.35
663.88	48273.55
664.02	48821.23
664.17	48664.42
664.31	48673.78
664.45	48582.50
664.59	48430.36
664.73	48500.58
664.88	48275.89
665.02	47526.92
665.16	48416.32
665.30	47983.32
665.44	47896.72
665.59	47646.29
665.73	47543.30
665.87	47215.63
666.01	47866.30
666.15	47782.04
666.29	48142.48
666.44	47992.68
666.58	47620.54
666.72	47597.13
666.86	47777.36
667.00	47629.90
667.14	47655.65
667.28	47264.78
667.43	47559.69
667.57	47812.46
667.71	47484.79
667.85	46679.64
667.99	47136.05
668.13	47185.20
668.27	46609.43
668.41	46986.25
668.56	46831.78
668.70	47089.24
668.84	46855.18
668.98	46885.61
669.12	46529.85
669.26	46546.23
669.40	46316.86
669.54	46485.38
669.68	46202.18
669.82	45933.01
669.96	46103.87
670.10	45673.21
670.25	46291.12
670.39	45841.73
670.53	45663.85
670.67	45865.14
670.81	45942.38
670.95	45951.74
671.09	45900.25
671.23	45897.91
671.37	45907.27
671.51	45734.07
671.65	45500.01
671.79	45106.80
671.93	45434.48
672.07	45207.45
672.21	45251.92
672.35	44769.77
672.49	44886.79
672.63	45221.49
672.77	44795.51
672.91	44608.27
673.05	44512.31
673.19	44552.10
673.33	44610.61
673.47	44004.41
673.61	45212.13
673.75	44610.61
673.89	44367.20
674.03	44105.06
674.17	44013.77
674.31	43908.45
674.45	43606.52
674.59	43753.97
674.73	43569.07
674.87	43220.33
675.01	43236.72
675.15	43540.99
675.29	43566.73
675.43	43236.72
675.56	43077.56
675.70	43784.40
675.84	43180.54
675.98	42382.42
676.12	43660.35
676.26	43288.21
676.40	43196.93
676.54	42773.29
676.68	42682.01
676.82	41785.58
676.96	41832.39
677.10	41867.50
677.23	42045.38
677.37	41680.26
677.51	41558.55
677.65	41291.73
677.79	41291.73
677.93	41209.81
678.07	41139.60
678.21	40957.03
678.34	41429.82
678.48	41020.23
678.62	40664.47
678.76	40851.71
678.90	40591.91
679.04	40346.15
679.18	40114.44
679.31	40381.26
679.45	40222.11
679.59	40044.23
679.73	39875.71
679.87	39449.73
680.00	39400.58
680.14	39232.06
680.28	39131.42
680.42	39552.71
680.56	39412.28
680.70	39026.09
680.83	39803.15
680.97	38841.19
681.11	39180.57
681.25	39159.50
681.39	39356.11
681.52	38632.88
681.66	38396.49
681.80	38368.40
681.94	38010.30
682.07	38143.71
682.21	37942.42
682.35	37706.03
682.49	37797.31
682.62	37701.35
682.76	37553.90
682.90	37277.71
683.04	37242.60
683.17	37106.85
683.31	37359.63
683.45	37476.66
683.59	36622.36
683.72	37043.66
683.86	36814.29
684.00	36493.63
684.13	36554.49
684.27	36119.15
684.41	35983.40
684.55	35576.14
684.68	35840.62
684.82	36079.36
684.96	35606.57
685.09	35838.28
685.23	35491.88
685.37	35232.08
685.50	35236.77
685.64	35304.64
685.78	35248.47
685.91	35412.31
686.05	35213.36
686.19	34677.38
686.32	34546.31
686.46	34316.93
686.60	33926.07
686.73	34590.78
686.87	33935.43
687.01	34178.84
687.14	33905.00
687.28	33483.70
687.42	33015.60
687.55	33062.41
687.69	33567.96
687.82	32973.47
687.96	33123.26
688.10	32730.05
688.23	32996.87
688.37	33235.61
688.50	32954.74
688.64	33207.52
688.78	32510.04
688.91	32514.72
689.05	32423.44
689.18	32140.24
689.32	31721.28
689.46	31555.10
689.59	31606.59
689.73	31974.06
689.86	31175.94
690.00	31515.31
690.13	31566.81
690.27	31358.50
690.41	31351.48
690.54	31117.42
690.68	31030.82
690.81	31222.75
690.95	30810.81
691.08	31026.14
691.22	30848.26
691.35	30806.13
691.49	30099.29
691.62	30312.28
691.76	30005.67
691.89	30026.73
692.03	30071.20
692.16	29862.90
692.30	29722.46
692.43	29378.40
692.57	29156.05
692.70	29542.24
692.84	29303.51
692.97	28896.25
693.11	29256.70
693.24	29406.49
693.38	29146.69
693.51	28666.88
693.65	28800.29
693.78	28713.69
693.92	28643.48
694.05	28446.87
694.19	28458.57
694.32	27962.38
694.45	28027.92
694.59	27920.25
694.72	27688.54
694.86	27309.37
694.99	26909.14
695.13	27524.70
695.26	27599.60
695.39	27248.52
695.53	27695.56
695.66	27435.76
695.80	26988.72
695.93	27321.07
696.07	26923.18
696.20	26682.11
696.33	26529.97
696.47	26504.23
696.60	26558.06
696.73	26471.46
696.87	26108.68
697.00	25951.86
697.14	25582.06
697.27	25317.57
697.40	25535.24
697.54	25467.37
697.67	24905.64
697.80	25111.61
697.94	25357.36
698.07	24858.83
698.21	24903.30
698.34	24985.22
698.47	24912.66
698.61	24463.28
698.74	24779.25
698.87	24589.67
699.01	24748.82
699.14	24538.18
699.27	24194.12
699.40	24142.63
699.54	23985.81
699.67	23520.04
699.80	23709.63
699.94	23527.06
700.07	23365.57
700.20	23241.52
700.34	23264.92
700.47	22817.88
700.60	23014.49
700.73	22881.08
700.87	23051.94
701.00	22946.61
701.13	23070.66
701.26	22958.31
701.40	22794.48
701.53	23026.19
701.66	22560.42
701.79	22394.25
701.93	21968.27
702.06	22169.55
702.19	21881.67
702.32	21809.11
702.46	21523.57
702.59	21413.56
702.72	21343.35
702.85	21436.97
702.99	21235.68
703.12	21259.09
703.25	21401.86
703.38	21212.28
703.51	20837.79
703.65	20966.52
703.78	20641.18
703.91	20629.48
704.04	20706.72
704.17	20695.02
704.31	20634.16
704.44	20102.86
704.57	20177.76
704.70	19861.79
704.83	19805.61
704.96	20205.84
705.10	19381.98
705.23	19522.41
>>>>>End Processed Spectral Data<<<<<
