SpectraSuite Data File
++++++++++++++++++++++++++++++++++++
Date: Fri Oct 18 13:55:48 GMT-05:00 2013
User: bianchi
Dark Spectrum Present: No
Reference Spectrum Present: No
Number of Sampled Component Spectra: 1
Spectrometers: USB2+H05261
Integration Time (usec): 100000 (USB2+H05261)
Spectra Averaged: 1 (USB2+H05261)
Boxcar Smoothing: 0 (USB2+H05261)
Correct for Electrical Dark: No (USB2+H05261)
Strobe/Lamp Enabled: No (USB2+H05261)
Correct for Detector Non-linearity: No (USB2+H05261)
Correct for Stray Light: No (USB2+H05261)
Number of Pixels in Processed Spectrum: 2048
>>>>>Begin Processed Spectral Data<<<<<
365.73	0.00
365.92	0.00
366.12	0.00
366.32	0.00
366.52	0.00
366.72	0.00
366.91	0.00
367.11	0.00
367.31	0.00
367.51	0.00
367.70	0.00
367.90	0.00
368.10	0.00
368.30	0.00
368.49	0.00
368.69	0.00
368.89	0.00
369.09	0.00
369.28	0.00
369.48	0.00
369.68	0.00
369.87	0.00
370.07	0.00
370.27	0.00
370.47	0.00
370.66	304.27
370.86	196.60
371.06	252.78
371.25	404.91
371.45	262.14
371.65	344.06
371.84	264.48
372.04	332.36
372.24	348.74
372.44	325.33
372.63	372.15
372.83	365.12
373.03	348.74
373.22	341.72
373.42	332.36
373.62	461.09
373.81	365.12
374.01	435.34
374.21	430.66
374.40	437.68
374.60	458.74
374.79	409.59
374.99	437.68
375.19	379.17
375.38	360.44
375.58	404.91
375.78	524.28
375.97	414.27
376.17	489.17
376.37	472.79
376.56	465.77
376.76	433.00
376.95	447.04
377.15	482.15
377.35	400.23
377.54	514.92
377.74	440.02
377.93	435.34
378.13	535.98
378.33	505.56
378.52	592.16
378.72	547.69
378.91	589.82
379.11	521.94
379.31	493.85
379.50	442.36
379.70	585.13
379.89	589.82
380.09	575.77
380.28	540.66
380.48	512.58
380.68	559.39
380.87	528.96
381.07	566.41
381.26	620.24
381.46	514.92
381.65	566.41
381.85	557.05
382.04	545.34
382.24	615.56
382.43	648.33
382.63	582.79
382.83	589.82
383.02	608.54
383.22	638.97
383.41	617.90
383.61	622.58
383.80	662.37
384.00	664.71
384.19	620.24
384.39	645.99
384.58	613.22
384.78	704.50
384.97	702.16
385.17	617.90
385.36	627.26
385.56	688.12
385.75	695.14
385.95	716.20
386.14	758.33
386.34	744.29
386.53	755.99
386.72	629.60
386.92	711.52
387.11	765.36
387.31	725.57
387.50	702.16
387.70	763.01
387.89	753.65
388.09	786.42
388.28	819.19
388.48	737.27
388.67	821.53
388.86	772.38
389.06	746.63
389.25	798.12
389.45	938.55
389.64	854.30
389.84	884.72
390.03	887.06
390.22	800.46
390.42	781.74
390.61	868.34
390.81	901.11
391.00	861.32
391.19	868.34
391.39	938.55
391.58	887.06
391.78	978.34
391.97	877.70
392.16	924.51
392.36	973.66
392.55	973.66
392.75	966.64
392.94	945.58
393.13	1018.13
393.33	922.17
393.52	978.34
393.71	1027.50
393.91	978.34
394.10	1071.97
394.29	1048.56
394.49	1116.44
394.68	1107.07
394.88	1034.52
395.07	1205.38
395.26	1074.31
395.46	1093.03
395.65	1184.31
395.84	1095.37
396.04	1282.61
396.23	1130.48
396.42	1247.51
396.62	1205.38
396.81	1214.74
397.00	1191.33
397.19	1212.40
397.39	1217.08
397.58	1268.57
397.77	1291.98
397.97	1277.93
398.16	1280.27
398.35	1317.72
398.55	1181.97
398.74	1299.00
398.93	1380.92
399.12	1352.83
399.32	1249.85
399.51	1275.59
399.70	1331.76
399.90	1301.34
400.09	1495.60
400.28	1413.68
400.47	1345.81
400.67	1465.18
400.86	1444.11
401.05	1425.39
401.24	1476.88
401.44	1511.99
401.63	1497.94
401.82	1476.88
402.01	1516.67
402.21	1563.48
402.40	1488.58
402.59	1444.11
402.78	1605.61
402.97	1598.59
403.17	1636.03
403.36	1633.69
403.55	1621.99
403.74	1614.97
403.93	1701.57
404.13	1666.46
404.32	1710.93
404.51	1689.87
404.70	1757.74
404.89	1685.19
405.09	1732.00
405.28	1799.87
405.47	1767.10
405.66	1706.25
405.85	1792.85
406.05	1809.23
406.24	1898.17
406.43	1907.54
406.62	1923.92
406.81	1933.28
407.00	1949.67
407.20	1944.99
407.39	1984.77
407.58	2003.50
407.77	1902.86
407.96	2085.42
408.15	2101.80
408.34	2064.35
408.54	2050.31
408.73	2108.82
408.92	2172.02
409.11	2186.06
409.30	2087.76
409.49	2097.12
409.68	2172.02
409.87	2211.81
410.07	2289.04
410.26	2321.81
410.45	2333.51
410.64	2244.57
410.83	2345.22
411.02	2310.11
411.21	2413.09
411.40	2382.67
411.59	2455.22
411.78	2492.67
411.98	2562.89
412.17	2415.43
412.36	2579.27
412.55	2656.51
412.74	2640.12
412.93	2670.55
413.12	2628.42
413.31	2785.24
413.50	2684.59
413.69	2860.13
413.88	2799.28
414.07	2935.03
414.26	2789.92
414.45	2998.23
414.64	2787.58
414.83	2930.35
415.02	2944.39
415.22	3056.74
415.41	3194.83
415.60	3084.83
415.79	3117.59
415.98	3124.62
416.17	3204.19
416.36	3164.40
416.55	3311.86
416.74	3375.05
416.93	3133.98
417.12	3304.84
417.31	3412.50
417.50	3318.88
417.69	3466.33
417.88	3536.55
418.07	3417.18
418.26	3461.65
418.45	3424.20
418.64	3803.37
418.83	3543.57
419.02	3569.32
419.21	3604.42
419.39	3627.83
419.58	3667.62
419.77	3665.28
419.96	3758.90
420.15	3948.48
420.34	3716.77
420.53	3779.97
420.72	3887.63
420.91	3861.88
421.10	3880.61
421.29	3985.93
421.48	3786.99
421.67	3913.38
421.86	4004.66
422.05	4063.17
422.24	3934.44
422.43	3896.99
422.61	3999.98
422.80	4138.07
422.99	4205.94
423.18	4098.28
423.37	4095.94
423.56	4053.81
423.75	4067.85
423.94	3950.82
424.13	3838.48
424.32	3939.12
424.50	4156.79
424.69	4248.07
424.88	4217.65
425.07	4095.94
425.26	4074.87
425.45	4117.00
425.64	4072.53
425.83	4138.07
426.01	4217.65
426.20	4229.35
426.39	4175.52
426.58	4084.23
426.77	4175.52
426.96	4358.08
427.15	4131.05
427.33	4318.29
427.52	4234.03
427.71	4234.03
427.90	4348.72
428.09	4454.04
428.28	4456.38
428.46	4493.83
428.65	4510.21
428.84	4648.30
429.03	4664.69
429.22	4348.72
429.40	4624.90
429.59	4641.28
429.78	4484.47
429.97	4299.56
430.16	4519.57
430.34	4596.81
430.53	4774.69
430.72	4660.01
430.91	4594.47
431.10	4739.58
431.28	4711.50
431.47	4784.06
431.66	4992.36
431.85	4781.71
432.03	4957.25
432.22	4924.49
432.41	4908.10
432.60	4964.28
432.79	4926.83
432.97	4940.87
433.16	4990.02
433.35	4894.06
433.54	5034.49
433.72	5163.22
433.91	5107.05
434.10	5111.73
434.28	5067.26
434.47	5294.29
434.66	5165.56
434.85	5430.04
435.03	5303.65
435.22	5156.20
435.41	5453.45
435.59	5378.55
435.78	5479.19
435.97	5336.42
436.16	5554.09
436.34	5378.55
436.53	5453.45
436.72	5762.40
436.90	5500.26
437.09	5619.63
437.28	5483.88
437.46	5568.13
437.65	5479.19
437.84	5584.52
438.02	5689.84
438.21	5734.31
438.40	5614.95
438.58	5942.62
438.77	5984.75
438.96	5769.42
439.14	5914.53
439.33	6043.26
439.52	6160.29
439.70	6101.78
439.89	6139.23
440.08	6239.87
440.26	6118.16
440.45	6204.76
440.63	6246.89
440.82	6354.55
441.01	6314.77
441.19	6312.42
441.38	6677.55
441.57	6373.28
441.75	6555.84
441.94	6635.42
442.12	6759.47
442.31	6747.76
442.50	6698.61
442.68	6930.33
442.87	6754.79
443.05	6890.54
443.24	6913.94
443.43	6846.07
443.61	6920.96
443.80	7094.16
443.98	6775.85
444.17	6532.44
444.35	6874.15
444.54	7052.03
444.73	6911.60
444.91	6951.39
445.10	6923.30
445.28	6993.52
445.47	7059.06
445.65	7026.29
445.84	6913.94
446.02	7045.01
446.21	6993.52
446.39	7138.63
446.58	6981.82
446.77	6981.82
446.95	6974.80
447.14	7096.50
447.32	7332.90
447.51	7073.10
447.69	7148.00
447.88	6998.20
448.06	6937.35
448.25	6960.75
448.43	7243.96
448.62	7206.51
448.80	7236.94
448.99	7206.51
449.17	7304.81
449.36	7197.15
449.54	7279.07
449.73	7368.01
449.91	7405.46
450.10	7442.90
450.28	7742.49
450.46	7702.70
450.65	7721.43
450.83	7662.91
451.02	7618.44
451.20	7808.03
451.39	7618.44
451.57	7585.68
451.76	7660.57
451.94	7751.85
452.13	7850.16
452.31	7913.35
452.49	7606.74
452.68	7815.05
452.86	7508.44
453.05	7885.26
453.23	8203.58
453.42	7824.41
453.60	7740.15
453.78	7903.99
453.97	8067.83
454.15	7920.37
454.34	7894.63
454.52	8145.06
454.70	8105.28
454.89	8049.10
455.07	8112.30
455.26	8292.52
455.44	8292.52
455.62	8344.01
455.81	8271.45
455.99	8439.97
456.17	8348.69
456.36	8374.44
456.54	8645.94
456.73	8505.51
456.91	8833.18
457.09	8669.34
457.28	8798.07
457.46	8718.50
457.64	8791.05
457.83	8826.16
458.01	8861.27
458.19	8922.12
458.38	8685.73
458.56	8851.91
458.74	8851.91
458.93	9050.85
459.11	9128.09
459.29	8875.31
459.48	9174.90
459.66	9055.53
459.84	9090.64
460.03	9242.78
460.21	9060.21
460.39	9282.56
460.57	9310.65
460.76	9415.98
460.94	9296.61
461.12	9483.85
461.31	9275.54
461.49	9474.49
461.67	9371.50
461.85	9554.07
462.04	9366.82
462.22	9916.85
462.40	9837.27
462.59	9490.87
462.77	9406.61
462.95	9437.04
463.13	9914.51
463.32	9633.64
463.50	9643.01
463.68	9720.24
463.86	9816.21
464.05	9764.72
464.23	9591.52
464.41	9888.76
464.59	9722.59
464.78	10174.31
464.96	9839.61
465.14	10029.20
465.32	9940.26
465.50	10029.20
465.69	10083.03
465.87	10106.43
466.05	10036.22
466.23	10040.90
466.41	10003.45
466.60	10438.79
466.78	10153.24
466.96	10033.88
467.14	10068.98
467.32	10459.85
467.51	10178.99
467.69	9914.51
467.87	10363.89
468.05	10567.52
468.23	10310.06
468.41	10427.09
468.60	10157.92
468.78	10537.09
468.96	10349.85
469.14	10551.14
469.32	10523.05
469.50	10422.41
469.69	10602.63
469.87	11028.60
470.05	10801.57
470.23	10944.34
470.41	10925.62
470.59	11052.01
470.77	10855.40
470.95	10904.56
471.14	11122.23
471.32	10864.77
471.50	11276.70
471.68	11267.34
471.86	11136.27
472.04	11358.62
472.22	11534.16
472.40	11332.87
472.58	11531.82
472.77	11534.16
472.95	11506.07
473.13	11763.53
473.31	11737.79
473.49	11845.45
473.67	11808.00
473.85	11611.40
474.03	12058.44
474.21	12250.36
474.39	12280.79
474.57	12180.15
474.75	12311.22
474.93	12486.76
475.12	12276.11
475.30	12269.09
475.48	12416.54
475.66	12390.80
475.84	12414.20
476.02	12648.26
476.20	12472.71
476.38	12917.42
476.56	13104.66
476.74	13125.72
476.92	13291.90
477.10	12868.27
477.28	13399.57
477.46	13448.72
477.64	13385.52
477.82	13507.23
478.00	13851.29
478.18	13963.64
478.36	13947.25
478.54	14171.94
478.72	14071.30
478.90	14258.54
479.08	14630.69
479.26	14548.77
479.44	14663.46
479.62	14394.29
479.80	14736.01
479.98	15187.74
480.16	14892.83
480.34	14857.72
480.52	15602.01
480.70	15473.28
480.88	15138.58
481.06	15330.51
481.24	15602.01
481.41	15604.35
481.59	16006.92
481.77	16077.14
481.95	16255.02
482.13	16566.31
482.31	16266.72
482.49	16758.24
482.67	16786.32
482.85	16882.28
483.03	17034.42
483.21	17298.90
483.39	17116.34
483.57	17184.21
483.74	17544.66
483.92	17598.49
484.10	17509.55
484.28	17884.03
484.46	18162.56
484.64	18111.07
484.82	17942.55
485.00	18412.99
485.18	18881.10
485.35	19143.24
485.53	18735.99
485.71	18913.87
485.89	19491.98
486.07	19215.80
486.25	19381.98
486.43	19555.18
486.61	19831.36
486.78	19819.66
486.96	19964.77
487.14	19962.43
487.32	20269.04
487.50	20297.13
487.68	20760.55
487.85	20908.01
488.03	21125.68
488.21	21443.99
488.39	21350.37
488.57	21638.25
488.75	21310.58
488.92	21839.54
489.10	22024.44
489.28	22162.53
489.46	22508.93
489.64	22274.88
489.81	22675.11
489.99	22705.54
490.17	22932.57
490.35	23323.44
490.53	22911.50
490.70	23403.02
490.88	23480.25
491.06	23915.59
491.24	23470.89
491.41	23929.64
491.59	23978.79
491.77	23976.45
491.95	24287.74
492.13	24561.58
492.30	24924.36
492.48	24694.99
492.66	24760.53
492.84	25020.33
493.01	24933.73
493.19	25191.19
493.37	25420.56
493.54	25467.37
493.72	25586.74
493.90	25378.43
494.08	25968.24
494.25	26426.99
494.43	26356.77
494.61	26883.39
494.79	26881.05
494.96	26375.50
495.14	27070.64
495.32	27098.72
495.49	27370.22
495.67	27562.15
495.85	27487.25
496.02	27906.21
496.20	27969.40
496.38	27964.72
496.55	28081.75
496.73	28362.61
496.91	28489.00
497.09	28643.48
497.26	28828.38
497.44	28491.34
497.62	28929.02
497.79	29109.24
497.97	29216.91
498.14	29296.49
498.32	29259.04
498.50	29317.55
498.67	29905.02
498.85	29546.92
499.03	30125.04
499.20	30260.79
499.38	29872.26
499.56	30178.87
499.73	30899.75
499.91	30881.03
500.08	30588.46
500.26	30473.78
500.44	30953.58
500.61	30848.26
500.79	31119.76
500.97	31271.90
501.14	31744.69
501.32	31512.97
501.49	31283.60
501.67	31732.98
501.84	31962.36
502.02	31704.90
502.20	32151.94
502.37	31702.56
502.55	31910.86
502.72	32236.20
502.90	32297.05
503.07	32271.31
503.25	32704.31
503.43	32194.07
503.60	32898.57
503.78	32957.08
503.95	33024.96
504.13	32982.83
504.30	33668.61
504.48	33167.73
504.65	33408.81
504.83	33666.27
505.01	34010.32
505.18	33621.80
505.36	33689.67
505.53	33736.48
505.71	34031.39
505.88	34251.40
506.06	33830.10
506.23	34125.01
506.41	34717.17
506.58	34555.67
506.76	34583.76
506.93	34848.24
507.11	34747.59
507.28	35173.57
507.46	34719.51
507.63	34967.60
507.81	35732.96
507.98	35159.53
508.16	35185.27
508.33	35587.85
508.50	35618.27
508.68	35737.64
508.85	36086.38
509.03	36051.27
509.20	35728.28
509.38	36332.14
509.55	36435.12
509.73	36598.96
509.90	36280.64
510.08	36362.56
510.25	36535.76
510.42	36662.15
510.60	36704.28
510.77	37495.38
510.95	37106.85
511.12	36781.52
511.30	36528.74
511.47	36802.58
511.64	37596.03
511.82	37256.65
511.99	37038.98
512.17	37799.65
512.34	37507.08
512.51	37811.35
512.69	37923.70
512.86	38155.41
513.04	38059.45
513.21	38464.36
513.38	38581.39
513.56	38417.55
513.73	38141.37
513.90	38281.80
514.08	38567.35
514.25	38934.81
514.43	38913.75
514.60	39143.12
514.77	38782.68
514.95	39278.87
515.12	39131.42
515.29	38829.49
515.47	39452.07
515.64	39613.57
515.81	39608.89
515.99	39714.21
516.16	40172.96
516.33	39730.59
516.51	40240.83
516.68	39548.03
516.85	39889.75
517.03	40158.91
517.20	40018.48
517.37	40584.89
517.54	40273.60
517.72	40385.94
517.89	40392.97
518.06	40252.53
518.24	40643.40
518.41	40910.22
518.58	40917.25
518.75	40727.66
518.93	41057.68
519.10	41031.93
519.27	41237.90
519.45	40992.14
519.62	40917.25
519.79	41191.09
519.96	41265.99
520.14	41797.29
520.31	41460.25
520.48	42005.59
520.65	41326.84
520.83	41918.99
521.00	41542.17
521.17	41916.65
521.34	41961.12
521.52	42089.85
521.69	42527.53
521.86	42064.11
522.03	42230.29
522.20	42328.59
522.38	42515.83
522.55	42728.82
522.72	42700.73
522.89	42576.69
523.07	43063.52
523.24	43143.09
523.41	43274.16
523.58	43012.02
523.75	43335.02
523.92	43161.82
524.10	42892.66
524.27	43335.02
524.44	43335.02
524.61	43838.23
524.78	43873.34
524.96	43782.06
525.13	43688.44
525.30	44123.78
525.47	43765.68
525.64	44212.72
525.81	44205.70
525.98	44278.25
526.16	44786.15
526.33	44570.82
526.50	44622.31
526.67	44252.51
526.84	44414.01
527.01	44369.54
527.18	44676.15
527.36	44823.60
527.53	44751.04
527.70	45139.57
527.87	45261.28
528.04	44884.45
528.21	45289.37
528.38	45146.59
528.55	44985.10
528.72	45315.11
528.89	45528.10
529.07	45296.39
529.24	45294.05
529.41	45193.40
529.58	45305.75
529.75	45411.07
529.92	45769.18
530.09	45490.65
530.26	45949.40
530.43	45986.85
530.60	45806.62
530.77	45766.84
530.94	45979.82
531.11	45902.59
531.28	45722.37
531.46	45642.79
531.63	46174.09
531.80	45958.76
531.97	46597.73
532.14	46103.87
532.31	46738.16
532.48	46192.81
532.65	46651.56
532.82	46085.15
532.99	46707.73
533.16	46483.04
533.33	46925.40
533.50	47236.69
533.67	46944.12
533.84	46724.11
534.01	46918.38
534.18	46703.05
534.35	47210.95
534.52	46782.63
534.69	47143.07
534.86	47662.67
535.03	47267.12
535.20	47459.04
535.37	47728.20
535.54	47288.18
535.71	47182.86
535.88	47283.50
536.05	47337.33
536.22	47269.46
536.38	47903.74
536.55	47906.08
536.72	47999.71
536.89	47297.55
537.06	47683.73
537.23	48039.50
537.40	47501.17
537.57	47765.65
537.74	47959.92
537.91	48495.90
538.08	48128.44
538.25	47952.90
538.42	48479.52
538.59	48102.69
538.75	47782.04
538.92	48425.68
539.09	48313.34
539.26	48474.84
539.43	48088.65
539.60	48854.00
539.77	48542.71
539.94	48980.39
540.11	48449.09
540.28	48428.02
540.44	48507.60
540.61	48350.79
540.78	48605.91
540.95	48486.54
541.12	48582.50
541.29	48729.95
541.46	48561.44
541.62	48914.86
541.79	48992.09
541.96	48418.66
542.13	48739.32
542.30	48858.68
542.47	49064.65
542.63	49172.31
542.80	49584.25
542.97	49705.96
543.14	49275.30
543.31	49361.90
543.48	49385.30
543.64	49705.96
543.81	49701.28
543.98	49893.20
544.15	49668.51
544.32	49855.75
544.48	50010.23
544.65	49827.66
544.82	50094.49
544.99	49579.57
545.16	49879.16
545.32	49937.67
545.49	50363.65
545.66	50223.22
545.83	50206.83
546.00	50323.86
546.16	49947.03
546.33	49991.50
546.50	49710.64
546.67	50054.70
546.83	49916.61
547.00	50356.63
547.17	50213.85
547.34	50232.58
547.50	50277.05
547.67	50417.48
547.84	50454.93
548.00	50459.61
548.17	50759.20
548.34	50770.90
548.51	50646.85
548.67	50684.30
548.84	50667.92
549.01	50742.81
549.18	50752.18
549.34	51164.11
549.51	51119.64
549.68	50829.41
549.84	50674.94
550.01	50712.39
550.18	50806.01
550.34	50759.20
550.51	51007.29
550.68	51004.95
550.84	50550.89
551.01	51175.81
551.18	50707.71
551.34	50665.58
551.51	50770.90
551.68	51044.74
551.84	51168.79
552.01	51026.02
552.18	51473.06
552.34	51100.92
552.51	51082.19
552.68	50894.95
552.84	51227.31
553.01	51203.90
553.18	51250.71
553.34	51814.78
553.51	51405.19
553.67	51576.04
553.84	51906.06
554.01	51723.50
554.17	51648.60
554.34	51765.63
554.51	51302.20
554.67	51229.65
554.84	51566.68
555.00	51566.68
555.17	51774.99
555.33	51765.63
555.50	51498.81
555.67	51583.07
555.83	51550.30
556.00	51503.49
556.16	52060.54
556.33	51674.35
556.50	51702.43
556.66	51943.51
556.83	51863.93
556.99	51714.14
557.16	52622.26
557.32	52123.73
557.49	51819.46
557.65	51587.75
557.82	52023.09
557.98	51782.01
558.15	52093.30
558.32	52081.60
558.48	52381.19
558.65	52060.54
558.81	51990.32
558.98	52343.74
559.14	51959.89
559.31	52144.80
559.47	52144.80
559.64	51824.14
559.80	52451.41
559.97	52470.13
560.13	52130.75
560.30	52268.84
560.46	52257.14
560.63	52273.52
560.79	52294.59
560.96	52317.99
561.12	52362.46
561.29	52116.71
561.45	52470.13
561.61	52362.46
561.78	52472.47
561.94	52399.91
562.11	52652.69
562.27	52236.08
562.44	52378.85
562.60	52296.93
562.77	52603.54
562.93	52498.22
563.10	52507.58
563.26	52357.78
563.42	52715.89
563.59	52580.13
563.75	52573.11
563.92	52797.80
564.08	52418.64
564.24	52566.09
564.41	52467.79
564.57	52650.35
564.74	52662.05
564.90	52474.81
565.07	52406.94
565.23	52666.73
565.39	52694.82
565.56	52619.92
565.72	52722.91
565.88	52643.33
566.05	52636.31
566.21	52617.58
566.38	52577.79
566.54	52554.39
566.70	52697.16
566.87	52898.45
567.03	52542.69
567.19	52907.81
567.36	52729.93
567.52	52776.74
567.68	52996.75
567.85	52631.63
568.01	52842.27
568.17	52657.37
568.34	52837.59
568.50	52687.80
568.66	52718.23
568.83	53160.59
568.99	52739.29
569.15	52861.00
569.32	52608.22
569.48	52374.17
569.64	52797.80
569.81	52659.71
569.97	52676.10
570.13	52938.24
570.30	52662.05
570.46	52769.72
570.62	52973.34
570.78	52797.80
570.95	52861.00
571.11	52889.09
571.27	52467.79
571.43	52666.73
571.60	52966.32
571.76	52739.29
571.92	53024.84
572.09	52912.49
572.25	53055.26
572.41	52790.78
572.57	53027.18
572.74	53073.99
572.90	52863.34
573.06	52762.70
573.22	52720.57
573.38	53041.22
573.55	52786.10
573.71	53382.94
573.87	53083.35
574.03	53013.13
574.20	53132.50
574.36	52790.78
574.52	52769.72
574.68	52931.22
574.84	52624.60
575.01	53268.25
575.17	52989.73
575.33	52931.22
575.49	52746.31
575.65	52690.14
575.82	53052.92
575.98	53017.82
576.14	53396.98
576.30	53092.71
576.46	52933.56
576.62	52973.34
576.79	52573.11
576.95	52839.93
577.11	53052.92
577.27	52877.38
577.43	52954.62
577.59	52858.66
577.75	52926.53
577.92	52715.89
578.08	52718.23
578.24	52795.46
578.40	53055.26
578.56	53059.94
578.72	52736.95
578.88	52989.73
579.04	53113.78
579.21	53073.99
579.37	52868.02
579.53	52912.49
579.69	52846.96
579.85	52853.98
580.01	52868.02
580.17	52921.85
580.33	53102.07
580.49	53008.45
580.65	53160.59
580.82	53144.20
580.98	53251.87
581.14	52973.34
581.30	53076.33
581.46	52924.19
581.62	53001.43
581.78	52786.10
581.94	52907.81
582.10	52804.83
582.26	53052.92
582.42	53062.29
582.58	53298.68
582.74	52877.38
582.90	53394.64
583.06	53251.87
583.22	53251.87
583.38	52629.29
583.54	52924.19
583.70	52636.31
583.86	53001.43
584.02	52875.04
584.18	53153.57
584.34	53380.60
584.50	53326.77
584.66	53214.42
584.82	52982.71
584.98	53141.86
585.14	52662.05
585.30	52996.75
585.46	52727.59
585.62	52713.55
585.78	53059.94
585.94	52615.24
586.10	53141.86
586.26	52954.62
586.42	53076.33
586.58	53289.32
586.74	53167.61
586.90	52776.74
587.06	52828.23
587.22	53162.93
587.38	52755.68
587.54	53441.45
587.70	53279.96
587.86	53020.16
588.02	53207.40
588.18	53469.54
588.34	53038.88
588.49	53235.48
588.65	52907.81
588.81	52846.96
588.97	53081.01
589.13	52856.32
589.29	52992.07
589.45	53193.36
589.61	53066.97
589.77	53544.44
589.93	53647.42
590.08	53310.38
590.24	53162.93
590.40	53371.24
590.56	53399.32
590.72	53244.85
590.88	52898.45
591.04	53378.26
591.20	53595.93
591.35	53490.60
591.51	53647.42
591.67	53322.08
591.83	53411.02
591.99	53301.02
592.15	53364.21
592.31	53446.13
592.46	53193.36
592.62	53298.68
592.78	53066.97
592.94	53263.57
593.10	53247.19
593.26	53638.06
593.41	53319.74
593.57	53502.31
593.73	53212.08
593.89	53794.87
594.05	53464.86
594.20	53130.16
594.36	53303.36
594.52	53127.82
594.68	53212.08
594.84	53193.36
594.99	53506.99
595.15	53134.84
595.31	53581.88
595.47	53677.85
595.62	53434.43
595.78	53235.48
595.94	53429.75
596.10	53062.29
596.25	53588.91
596.41	53083.35
596.57	53148.88
596.73	53212.08
596.88	53324.43
597.04	53544.44
597.20	53600.61
597.36	53532.73
597.51	53719.98
597.67	53155.91
597.83	53169.95
597.99	53677.85
598.14	53380.60
598.30	53137.18
598.46	53251.87
598.61	53549.12
598.77	53361.87
598.93	53530.39
599.09	53432.09
599.24	53717.64
599.40	53497.62
599.56	53635.72
599.71	53605.29
599.87	53586.57
600.03	53303.36
600.18	53268.25
600.34	53195.70
600.50	53387.62
600.65	53165.27
600.81	53371.24
600.97	53797.21
601.12	53198.04
601.28	53415.71
601.44	53546.78
601.59	53595.93
601.75	53226.12
601.91	53322.08
602.06	53333.79
602.22	53411.02
602.37	53090.37
602.53	53357.19
602.69	53588.91
602.84	53385.28
603.00	53256.55
603.16	53265.91
603.31	53357.19
603.47	53478.90
603.62	53183.99
603.78	53261.23
603.94	53212.08
604.09	53088.03
604.25	53240.17
604.40	53364.21
604.56	53345.49
604.71	53422.73
604.87	53354.85
605.03	53411.02
605.18	53434.43
605.34	53294.00
605.49	52786.10
605.65	53249.53
605.80	52992.07
605.96	52985.05
606.12	53034.20
606.27	53226.12
606.43	53015.47
606.58	53333.79
606.74	53205.06
606.89	53095.05
607.05	53415.71
607.20	52987.39
607.36	53169.95
607.51	53230.80
607.67	52905.47
607.82	53059.94
607.98	53008.45
608.13	53066.97
608.29	53041.22
608.44	52914.83
608.60	53085.69
608.75	53169.95
608.91	53216.76
609.06	53031.86
609.22	53153.57
609.37	52699.50
609.53	52893.77
609.68	52849.30
609.84	52849.30
609.99	52828.23
610.15	52547.37
610.30	52594.18
610.46	52669.08
610.61	52968.66
610.76	52725.25
610.92	52748.65
611.07	52697.16
611.23	52552.05
611.38	52933.56
611.54	52758.02
611.69	52786.10
611.84	52444.38
612.00	52687.80
612.15	52566.09
612.31	53017.82
612.46	52657.37
612.62	52648.01
612.77	53092.71
612.92	52940.58
613.08	52722.91
613.23	52638.65
613.39	52708.86
613.54	52664.39
613.69	52612.90
613.85	52392.89
614.00	52746.31
614.15	52310.97
614.31	52451.41
614.46	52617.58
614.62	52369.49
614.77	52687.80
614.92	52568.43
615.08	52245.44
615.23	52538.01
615.38	52652.69
615.54	52215.01
615.69	52222.03
615.84	51882.66
616.00	51948.19
616.15	52149.48
616.30	52161.18
616.46	52109.69
616.61	52137.77
616.76	52685.46
616.92	52390.55
617.07	52226.71
617.22	51892.02
617.37	52011.38
617.53	52502.90
617.68	52006.70
617.83	51882.66
617.99	51948.19
618.14	51892.02
618.29	52048.83
618.45	52083.94
618.60	52034.79
618.75	51997.34
618.90	51973.94
619.06	52002.02
619.21	51655.62
619.36	51725.84
619.51	51648.60
619.67	51262.41
619.82	51676.69
619.97	51585.41
620.12	51634.56
620.28	51620.52
620.43	51763.29
620.58	51868.61
620.73	51767.97
620.89	52074.58
621.04	51805.42
621.19	51672.01
621.34	51358.38
621.49	51601.79
621.65	51580.73
621.80	51573.70
621.95	51246.03
622.10	51702.43
622.25	51554.98
622.41	51491.79
622.56	51585.41
622.71	51503.49
622.86	51522.21
623.01	51508.17
623.16	51248.37
623.32	51150.07
623.47	51419.23
623.62	51058.79
623.77	51330.29
623.92	51227.31
624.07	50951.12
624.23	50827.07
624.38	51119.64
624.53	51143.05
624.68	51007.29
624.83	51498.81
624.98	51175.81
625.13	51318.59
625.29	51538.60
625.44	50965.17
625.59	50967.51
625.74	50611.74
625.89	50759.20
626.04	50541.53
626.19	50356.63
626.34	50801.33
626.49	50546.21
626.65	50705.37
626.80	50990.91
626.95	50892.61
627.10	50890.27
627.25	50939.42
627.40	50855.16
627.55	50562.59
627.70	50546.21
627.85	50127.25
628.00	50164.70
628.15	50241.94
628.30	50461.95
628.45	50220.87
628.60	50471.31
628.76	50604.72
628.91	50773.24
629.06	50307.47
629.21	50422.16
629.36	50141.30
629.51	50080.44
629.66	50202.15
629.81	50230.24
629.96	50143.64
630.11	49949.37
630.26	50136.62
630.41	49911.92
630.56	49656.81
630.71	50244.28
630.86	50354.29
631.01	50169.38
631.16	50473.65
631.31	49897.88
631.46	49841.71
631.61	50270.03
631.76	49862.77
631.91	49928.31
632.06	49762.13
632.21	49439.14
632.36	49792.56
632.51	49581.91
632.66	49682.55
632.81	49684.89
632.96	50035.97
633.10	49804.26
633.25	49750.43
633.40	49638.08
633.55	49607.65
633.70	49677.87
633.85	49378.28
634.00	49537.44
634.15	49109.12
634.30	49118.48
634.45	49893.20
634.60	49841.71
634.75	49481.27
634.90	49345.51
635.05	49422.75
635.19	49137.21
635.34	49579.57
635.49	49172.31
635.64	49511.69
635.79	49263.60
635.94	48919.54
636.09	49146.57
636.24	49083.37
636.39	48933.58
636.53	49151.25
636.68	48942.94
636.83	49268.28
636.98	48952.30
637.13	48964.01
637.28	49207.42
637.43	48872.73
637.57	48954.64
637.72	48692.50
637.87	48421.00
638.02	49216.78
638.17	48835.28
638.32	48706.55
638.46	48545.05
638.61	48629.31
638.76	48531.01
638.91	48289.93
639.06	48788.47
639.20	48971.03
639.35	48734.63
639.50	48633.99
639.65	48540.37
639.80	48622.29
639.94	48226.74
640.09	48411.64
640.24	48182.27
640.39	48123.75
640.54	48158.86
640.68	48140.14
640.83	48013.75
640.98	48215.04
641.13	47742.25
641.27	48292.27
641.42	48109.71
641.57	47882.68
641.72	48107.37
641.86	48528.67
642.01	47601.82
642.16	48278.23
642.31	47976.30
642.45	48013.75
642.60	47620.54
642.75	47983.32
642.90	47281.16
643.04	47573.73
643.19	47543.30
643.34	47739.91
643.48	47847.57
643.63	47686.07
643.78	47688.42
643.93	47913.11
644.07	47765.65
644.22	47459.04
644.37	47529.26
644.51	47943.53
644.66	47627.56
644.81	47524.58
644.95	47260.10
645.10	47803.10
645.25	47470.75
645.39	47400.53
645.54	47220.31
645.69	46972.21
645.83	47384.15
645.98	47185.20
646.13	47564.37
646.27	47433.30
646.42	46918.38
646.57	47526.92
646.71	47124.35
646.86	47016.68
647.00	46763.90
647.15	46873.91
647.30	46763.90
647.44	46871.57
647.59	46923.06
647.74	46731.14
647.88	47327.97
648.03	47519.90
648.17	47332.65
648.32	47206.26
648.47	46838.80
648.61	46642.20
648.76	46595.38
648.90	46705.39
649.05	46824.76
649.20	46515.81
649.34	46422.19
649.49	46253.67
649.63	46328.56
649.78	46869.23
649.92	46295.80
650.07	46857.52
650.21	46230.26
650.36	46553.26
650.51	46824.76
650.65	46906.68
650.80	46885.61
650.94	46918.38
651.09	46457.29
651.23	46635.17
651.38	45968.12
651.52	46300.48
651.67	46574.32
651.81	46174.09
651.96	45986.85
652.10	46087.49
652.25	46225.58
652.39	46263.03
652.54	46340.27
652.68	46508.79
652.83	45855.78
652.97	46653.90
653.12	46183.45
653.26	46445.59
653.41	46050.04
653.55	45977.48
653.70	45722.37
653.84	45635.77
653.99	45488.31
654.13	45834.71
654.27	45649.81
654.42	45893.22
654.56	45633.42
654.71	46136.64
654.85	45977.48
655.00	45759.81
655.14	45673.21
655.29	45261.28
655.43	45970.46
655.57	45801.94
655.72	45387.67
655.86	45469.59
656.01	45095.10
656.15	45062.33
656.30	45656.83
656.44	45024.89
656.58	45097.44
656.73	45083.40
656.87	44912.54
657.01	45347.88
657.16	45109.14
657.30	45099.78
657.45	45378.31
657.59	45450.86
657.73	44900.84
657.88	44935.95
658.02	44900.84
658.16	44758.06
658.31	44795.51
658.45	44987.44
658.60	44795.51
658.74	44638.70
658.88	44603.59
659.03	44144.84
659.17	44325.07
659.31	44942.97
659.46	44584.86
659.60	44872.75
659.74	44598.91
659.89	44392.94
660.03	44282.94
660.17	44280.60
660.32	43959.94
660.46	44215.06
660.60	44048.88
660.74	44013.77
660.89	43737.59
661.03	43615.88
661.17	43679.08
661.32	43550.35
661.46	43903.77
661.60	43545.67
661.74	43725.89
661.89	43894.41
662.03	43882.70
662.17	43571.41
662.31	43552.69
662.46	43512.90
662.60	43501.20
662.74	42960.53
662.88	43157.14
663.03	43077.56
663.17	43105.65
663.31	42642.22
663.45	42756.91
663.60	42705.41
663.74	42866.91
663.88	42887.98
664.02	42902.02
664.17	42817.76
664.31	42749.88
664.45	42784.99
664.59	42869.25
664.73	42426.89
664.88	42394.12
665.02	41963.46
665.16	42354.33
665.30	42174.11
665.44	41832.39
665.59	41518.76
665.73	41841.76
665.87	42089.85
666.01	42078.15
666.15	42281.78
666.29	41752.82
666.44	41893.25
666.58	41893.25
666.72	41689.62
666.86	42066.45
667.00	41392.37
667.14	41425.14
667.28	41539.83
667.43	41528.13
667.57	40961.72
667.71	41174.70
667.85	41160.66
667.99	41109.17
668.13	40533.40
668.27	40999.16
668.41	41062.36
668.56	40676.17
668.70	41141.94
668.84	40940.65
668.98	40725.32
669.12	40538.08
669.26	40699.58
669.40	40442.12
669.54	40730.00
669.68	40182.32
669.82	40318.07
669.96	40453.82
670.10	40299.34
670.25	40079.33
670.39	40205.72
670.53	40526.38
670.67	39796.13
670.81	40098.06
670.95	39873.37
671.09	40105.08
671.23	39697.83
671.37	40006.78
671.51	39887.41
671.65	39632.29
671.79	39178.23
671.93	39201.63
672.07	39749.32
672.21	39353.77
672.35	39225.04
672.49	39297.59
672.63	39086.95
672.77	38829.49
672.91	39168.87
673.05	38724.16
673.19	38717.14
673.33	38902.04
673.47	38948.85
673.61	38827.15
673.75	38677.35
673.89	38543.94
674.03	38335.63
674.17	38763.95
674.31	38359.04
674.45	37893.27
674.59	37745.82
674.73	38064.13
674.87	37766.88
675.01	37949.45
675.15	37717.73
675.29	37670.92
675.43	36896.20
675.56	37471.98
675.70	37537.51
675.84	37771.57
675.98	36933.65
676.12	37357.29
676.26	37415.80
676.40	37282.39
676.54	37361.97
676.68	36900.89
676.82	36772.16
676.96	36297.03
677.10	36503.00
677.23	35927.22
677.37	36266.60
677.51	36051.27
677.65	35566.78
677.79	35508.27
677.93	35892.12
678.07	36032.55
678.21	35363.15
678.34	35688.49
678.48	35541.03
678.62	35686.15
678.76	35115.06
678.90	34960.58
679.04	35110.38
679.18	34976.97
679.31	34473.75
679.45	34541.63
679.59	34455.03
679.73	34204.59
679.87	34015.01
680.00	34038.41
680.14	34209.27
680.28	33708.40
680.42	33853.51
680.56	34309.91
680.70	34024.37
680.83	33600.73
680.97	33809.04
681.11	34024.37
681.25	33720.10
681.39	33542.22
681.52	33298.80
681.66	33184.12
681.80	32872.82
681.94	33085.81
682.07	32863.46
682.21	32840.06
682.35	32418.76
682.49	32598.98
682.62	32488.98
682.76	31920.23
682.90	32503.02
683.04	32194.07
683.17	31955.33
683.31	32044.27
683.45	32032.57
683.59	31985.76
683.72	32006.83
683.86	31618.30
684.00	31686.17
684.13	30778.04
684.27	31103.38
684.41	30974.65
684.55	31208.70
684.68	30764.00
684.82	30782.73
684.96	30637.61
685.09	30719.53
685.23	30017.37
685.37	30352.07
685.50	30237.38
685.64	30511.22
685.78	30064.18
685.91	30305.26
686.05	29839.49
686.19	30003.33
686.32	29839.49
686.46	29593.73
686.60	29575.01
686.73	29310.53
686.87	28954.77
687.01	28987.53
687.14	28720.71
687.28	29017.96
687.42	28666.88
687.55	28692.63
687.69	28751.14
687.82	28573.26
687.96	28517.09
688.10	28306.44
688.23	28638.80
688.37	28591.98
688.50	28350.91
688.64	28437.51
688.78	28215.16
688.91	27850.03
689.05	27791.52
689.18	27948.34
689.32	27639.39
689.46	27199.37
689.59	27255.54
689.73	27274.26
689.86	27115.11
690.00	26930.20
690.13	26969.99
690.27	26544.02
690.41	27164.26
690.54	26714.87
690.68	26623.59
690.81	26665.72
690.95	26410.60
691.08	26867.01
691.22	26410.60
691.35	25986.97
691.49	26033.78
691.62	26022.08
691.76	25752.91
691.89	25874.62
692.03	25174.80
692.16	25364.39
692.30	25656.95
692.43	24938.41
692.57	25032.03
692.70	25118.63
692.84	25179.48
692.97	25144.38
693.11	25212.25
693.24	24919.68
693.38	24725.42
693.51	24805.00
693.65	25036.71
693.78	24594.35
693.92	24547.54
694.05	24636.48
694.19	24072.41
694.32	24100.50
694.45	24086.45
694.59	23847.72
694.72	23917.93
694.86	23618.35
694.99	23356.21
695.13	23353.87
695.26	23386.63
695.39	23068.32
695.53	23475.57
695.66	23449.83
695.80	23147.90
695.93	23073.00
696.07	22963.00
696.20	23049.60
696.33	22895.12
696.47	22892.78
696.60	22602.55
696.73	22415.31
696.87	22328.71
697.00	22408.29
697.14	21949.54
697.27	21825.50
697.40	21921.46
697.54	21577.40
697.67	21579.74
697.80	21352.71
697.94	21135.04
698.07	21308.24
698.21	21326.96
698.34	21226.32
698.47	21067.16
698.61	21165.46
698.74	21174.83
698.87	20858.85
699.01	20908.01
699.14	20760.55
699.27	20554.58
699.40	20491.39
699.54	20320.53
699.67	20301.81
699.80	20058.39
699.94	20107.54
700.07	20032.65
700.20	19756.46
700.34	19733.06
700.47	19859.45
700.60	19866.47
700.73	19822.00
700.87	19625.39
701.00	19344.53
701.13	20053.71
701.26	19726.04
701.40	19477.94
701.53	19559.86
701.66	19557.52
701.79	19243.88
701.93	18874.08
702.06	18803.86
702.19	18801.52
702.32	18963.02
702.46	18607.26
702.59	18401.29
702.72	18295.97
702.85	18352.14
702.99	18230.43
703.12	18298.31
703.25	18010.42
703.38	18232.77
703.51	18090.00
703.65	18155.54
703.78	17715.51
703.91	17591.47
704.04	17717.86
704.17	17722.54
704.31	17738.92
704.44	17617.21
704.57	17191.23
704.70	16879.94
704.83	16959.52
704.96	16947.82
705.10	16767.60
705.23	16851.86
>>>>>End Processed Spectral Data<<<<<
