SpectraSuite Data File
++++++++++++++++++++++++++++++++++++
Date: Fri Oct 18 13:58:14 GMT-05:00 2013
User: bianchi
Dark Spectrum Present: No
Reference Spectrum Present: No
Number of Sampled Component Spectra: 1
Spectrometers: USB2+H05261
Integration Time (usec): 50000 (USB2+H05261)
Spectra Averaged: 1 (USB2+H05261)
Boxcar Smoothing: 0 (USB2+H05261)
Correct for Electrical Dark: No (USB2+H05261)
Strobe/Lamp Enabled: No (USB2+H05261)
Correct for Detector Non-linearity: No (USB2+H05261)
Correct for Stray Light: No (USB2+H05261)
Number of Pixels in Processed Spectrum: 2048
>>>>>Begin Processed Spectral Data<<<<<
365.73	0.00
365.92	0.00
366.12	0.00
366.32	0.00
366.52	0.00
366.72	0.00
366.91	0.00
367.11	0.00
367.31	0.00
367.51	0.00
367.70	0.00
367.90	0.00
368.10	0.00
368.30	0.00
368.49	0.00
368.69	0.00
368.89	0.00
369.09	0.00
369.28	0.00
369.48	0.00
369.68	0.00
369.87	0.00
370.07	0.00
370.27	0.00
370.47	0.00
370.66	98.30
370.86	95.96
371.06	110.01
371.25	154.48
371.45	114.69
371.65	166.18
371.84	117.03
372.04	126.39
372.24	236.39
372.44	149.79
372.63	205.97
372.83	189.58
373.03	140.43
373.22	182.56
373.42	238.73
373.62	156.82
373.81	142.77
374.01	241.08
374.21	175.54
374.40	166.18
374.60	194.26
374.79	325.33
374.99	191.92
375.19	280.86
375.38	259.80
375.58	273.84
375.78	259.80
375.97	264.48
376.17	332.36
376.37	252.78
376.56	337.04
376.76	271.50
376.95	248.10
377.15	330.02
377.35	191.92
377.54	311.29
377.74	252.78
377.93	285.55
378.13	198.95
378.33	308.95
378.52	353.42
378.72	294.91
378.91	276.18
379.11	173.20
379.31	238.73
379.50	297.25
379.70	266.82
379.89	290.23
380.09	330.02
380.28	278.52
380.48	344.06
380.68	262.14
380.87	278.52
381.07	311.29
381.26	337.04
381.46	348.74
381.65	294.91
381.85	320.65
382.04	297.25
382.24	353.42
382.43	365.12
382.63	339.38
382.83	301.93
383.02	351.08
383.22	365.12
383.41	362.78
383.61	369.80
383.80	313.63
384.00	355.76
384.19	353.42
384.39	386.19
384.58	407.25
384.78	390.87
384.97	416.62
385.17	379.17
385.36	423.64
385.56	423.64
385.75	334.70
385.95	379.17
386.14	393.21
386.34	393.21
386.53	430.66
386.72	400.23
386.92	395.55
387.11	430.66
387.31	409.59
387.50	468.11
387.70	484.49
387.89	418.96
388.09	428.32
388.28	423.64
388.48	358.10
388.67	479.81
388.86	512.58
389.06	465.77
389.25	514.92
389.45	585.13
389.64	444.70
389.84	503.22
390.03	552.37
390.22	510.24
390.42	470.45
390.61	486.83
390.81	524.28
391.00	423.64
391.19	507.90
391.39	526.62
391.58	521.94
391.78	571.09
391.97	608.54
392.16	552.37
392.36	484.49
392.55	538.32
392.75	580.45
392.94	454.06
393.13	510.24
393.33	578.11
393.52	524.28
393.71	615.56
393.91	641.31
394.10	622.58
394.29	620.24
394.49	550.03
394.68	468.11
394.88	596.84
395.07	695.14
395.26	561.73
395.46	608.54
395.65	629.60
395.84	592.16
396.04	641.31
396.23	669.39
396.42	613.22
396.62	643.65
396.81	634.29
397.00	653.01
397.19	739.61
397.39	641.31
397.58	655.35
397.77	758.33
397.97	561.73
398.16	674.07
398.35	730.25
398.55	657.69
398.74	763.01
398.93	725.57
399.12	629.60
399.32	678.76
399.51	772.38
399.70	814.51
399.90	777.06
400.09	812.17
400.28	723.23
400.47	760.67
400.67	755.99
400.86	781.74
401.05	828.55
401.24	880.04
401.44	706.84
401.63	828.55
401.82	861.32
402.01	856.64
402.21	800.46
402.40	786.42
402.59	816.85
402.78	823.87
402.97	826.21
403.17	863.66
403.36	947.92
403.55	896.43
403.74	884.72
403.93	966.64
404.13	926.85
404.32	891.74
404.51	940.90
404.70	851.96
404.89	959.62
405.09	875.36
405.28	915.15
405.47	973.66
405.66	978.34
405.85	959.62
406.05	954.94
406.24	957.28
406.43	959.62
406.62	968.98
406.81	1027.50
407.00	1029.84
407.20	1050.90
407.39	1006.43
407.58	1086.01
407.77	1116.44
407.96	985.37
408.15	1057.92
408.34	1149.20
408.54	1193.67
408.73	1121.12
408.92	1107.07
409.11	1114.10
409.30	1160.91
409.49	1067.28
409.68	1067.28
409.87	1163.25
410.07	1193.67
410.26	1111.75
410.45	1156.22
410.64	1247.51
410.83	1179.63
411.02	1210.06
411.21	1270.91
411.40	1249.85
411.59	1254.53
411.78	1270.91
411.98	1200.69
412.17	1240.48
412.36	1186.65
412.55	1324.74
412.74	1338.79
412.93	1352.83
413.12	1275.59
413.31	1411.34
413.50	1411.34
413.69	1409.00
413.88	1366.87
414.07	1437.09
414.26	1490.92
414.45	1423.05
414.64	1455.81
414.83	1514.33
415.02	1364.53
415.22	1497.94
415.41	1568.16
415.60	1500.28
415.79	1593.90
415.98	1547.09
416.17	1631.35
416.36	1671.14
416.55	1596.25
416.74	1605.61
416.93	1666.46
417.12	1540.07
417.31	1612.63
417.50	1647.74
417.69	1790.51
417.88	1645.40
418.07	1734.34
418.26	1710.93
418.45	1820.94
418.64	1813.92
418.83	1809.23
419.02	1851.36
419.21	1774.13
419.39	1816.26
419.58	1727.32
419.77	1750.72
419.96	1830.30
420.15	1863.07
420.34	1834.98
420.53	1844.34
420.72	2005.84
420.91	1947.33
421.10	1954.35
421.29	1930.94
421.48	1891.15
421.67	1959.03
421.86	1914.56
422.05	2066.69
422.24	1959.03
422.43	2003.50
422.61	2015.20
422.80	1956.69
422.99	2012.86
423.18	2127.55
423.37	2080.74
423.56	1895.83
423.75	1966.05
423.94	2017.54
424.13	1877.11
424.32	1891.15
424.50	1956.69
424.69	2153.29
424.88	2052.65
425.07	2047.97
425.26	1961.37
425.45	2073.71
425.64	2003.50
425.83	1984.77
426.01	2073.71
426.20	1966.05
426.39	2026.90
426.58	2008.18
426.77	1984.77
426.96	2059.67
427.15	2076.06
427.33	2108.82
427.52	2099.46
427.71	2209.47
427.90	2202.44
428.09	2127.55
428.28	2047.97
428.46	2188.40
428.65	2284.36
428.84	2277.34
429.03	2335.85
429.22	2190.74
429.40	2352.24
429.59	2331.17
429.78	2127.55
429.97	2106.48
430.16	2239.89
430.34	2289.04
430.53	2277.34
430.72	2317.13
430.91	2326.49
431.10	2188.40
431.28	2382.67
431.47	2352.24
431.66	2363.94
431.85	2352.24
432.03	2459.90
432.22	2345.22
432.41	2459.90
432.60	2495.01
432.79	2438.84
432.97	2469.27
433.16	2469.27
433.35	2520.76
433.54	2511.39
433.72	2434.16
433.91	2537.14
434.10	2415.43
434.28	2424.80
434.47	2480.97
434.66	2569.91
434.85	2464.58
435.03	2612.04
435.22	2675.23
435.41	2726.72
435.59	2574.59
435.78	2560.55
435.97	2745.45
436.16	2733.75
436.34	2689.28
436.53	2736.09
436.72	2724.38
436.90	2675.23
437.09	2708.00
437.28	2684.59
437.46	2759.49
437.65	2747.79
437.84	2775.88
438.02	2841.41
438.21	2799.28
438.40	2813.32
438.58	2780.56
438.77	2885.88
438.96	2853.11
439.14	2906.95
439.33	3000.57
439.52	2946.73
439.70	3045.04
439.89	3000.57
440.08	2930.35
440.26	3016.95
440.45	3192.49
440.63	2993.55
440.82	3164.40
441.01	3164.40
441.19	3201.85
441.38	3115.25
441.57	3311.86
441.75	3328.24
441.94	3276.75
442.12	3386.76
442.31	3342.28
442.50	3243.98
442.68	3307.18
442.87	3328.24
443.05	3382.07
443.24	3459.31
443.43	3293.13
443.61	3433.57
443.80	3496.76
443.98	3311.86
444.17	3412.50
444.35	3515.48
444.54	3536.55
444.73	3417.18
444.91	3407.82
445.10	3438.25
445.28	3576.34
445.47	3372.71
445.65	3459.31
445.84	3407.82
446.02	3513.14
446.21	3482.72
446.39	3510.80
446.58	3609.11
446.77	3637.19
446.95	3414.84
447.14	3487.40
447.32	3534.21
447.51	3588.04
447.69	3506.12
447.88	3571.66
448.06	3517.83
448.25	3536.55
448.43	3536.55
448.62	3550.59
448.80	3506.12
448.99	3695.71
449.17	3705.07
449.36	3639.53
449.54	3707.41
449.73	3777.62
449.91	3751.88
450.10	3592.72
450.28	3569.32
450.46	3627.83
450.65	3623.15
450.83	3665.28
451.02	3761.24
451.20	3918.06
451.39	3709.75
451.57	3726.13
451.76	3740.18
451.94	3784.65
452.13	3887.63
452.31	3882.95
452.49	3779.97
452.68	3857.20
452.86	3782.31
453.05	3896.99
453.23	3955.51
453.42	3927.42
453.60	3974.23
453.78	3955.51
453.97	3887.63
454.15	3911.04
454.34	3885.29
454.52	4149.77
454.70	4016.36
454.89	4081.89
455.07	3934.44
455.26	3889.97
455.44	4131.05
455.62	4133.39
455.81	4084.23
455.99	3929.76
456.17	4084.23
456.36	4217.65
456.54	4234.03
456.73	4105.30
456.91	4273.82
457.09	4297.22
457.28	4304.25
457.46	4315.95
457.64	4367.44
457.83	4351.06
458.01	4203.60
458.19	4428.29
458.38	4329.99
458.56	4325.31
458.74	4512.55
458.93	4491.49
459.11	4507.87
459.29	4390.84
459.48	4458.72
459.66	4564.04
459.84	4620.22
460.03	4596.81
460.21	4533.62
460.39	4503.19
460.57	4528.94
460.76	4641.28
460.94	4655.33
461.12	4645.96
461.31	4751.29
461.49	4664.69
461.67	4540.64
461.85	4629.58
462.04	4777.03
462.22	4917.47
462.40	4854.27
462.59	4681.07
462.77	4685.75
462.95	4823.84
463.13	4634.26
463.32	4884.70
463.50	4758.31
463.68	4800.44
463.86	4858.95
464.05	4748.95
464.23	4840.23
464.41	4835.55
464.59	4713.84
464.78	4983.00
464.96	4943.21
465.14	4851.93
465.32	5004.07
465.50	5036.83
465.69	4880.02
465.87	5041.51
466.05	4980.66
466.23	4940.87
466.41	5076.62
466.60	5193.65
466.78	5027.47
466.96	5055.56
467.14	5053.22
467.32	5060.24
467.51	5149.18
467.69	5144.50
467.87	5249.82
468.05	5341.10
468.23	5156.20
468.41	5090.67
468.60	5233.44
468.78	5350.46
468.96	5198.33
469.14	5331.74
469.32	5254.50
469.50	5329.40
469.69	5359.83
469.87	5359.83
470.05	5341.10
470.23	5268.55
470.41	5521.32
470.59	5507.28
470.77	5298.97
470.95	5455.79
471.14	5603.24
471.32	5394.93
471.50	5617.29
471.68	5760.06
471.86	5731.97
472.04	5675.80
472.22	5750.70
472.40	5584.52
472.58	5661.76
472.77	5802.19
472.95	5860.70
473.13	6036.24
473.31	5823.25
473.49	5879.43
473.67	5935.60
473.85	5921.56
474.03	5916.87
474.21	6019.86
474.39	6026.88
474.57	5968.37
474.75	6179.01
474.93	6087.73
475.12	6239.87
475.30	6076.03
475.48	6106.46
475.66	6260.93
475.84	6298.38
476.02	6389.66
476.20	6244.55
476.38	6609.67
476.56	6548.82
476.74	6572.22
476.92	6345.19
477.10	6607.33
477.28	6511.37
477.46	6602.65
477.64	6693.93
477.82	6801.60
478.00	6883.52
478.18	6871.81
478.36	6970.12
478.54	6860.11
478.72	7119.91
478.90	7143.32
479.08	7204.17
479.26	7445.24
479.44	7489.71
479.62	7379.71
479.80	7454.61
479.98	7562.27
480.16	7669.94
480.34	7531.84
480.52	7543.55
480.70	7733.13
480.88	7857.18
481.06	7758.88
481.24	7625.47
481.41	7819.73
481.59	7960.16
481.77	8222.30
481.95	8147.40
482.13	8105.28
482.31	7836.11
482.49	8236.35
482.67	8290.18
482.85	8432.95
483.03	8617.85
483.21	8528.91
483.39	8622.53
483.57	8662.32
483.74	8777.01
483.92	8641.26
484.10	8636.58
484.28	8830.84
484.46	9050.85
484.64	9074.26
484.82	9149.15
485.00	9205.33
485.18	9214.69
485.35	9551.73
485.53	9282.56
485.71	9373.85
485.89	9666.41
486.07	9544.70
486.25	9420.66
486.43	9738.97
486.61	9809.19
486.78	9851.31
486.96	9926.21
487.14	10057.28
487.32	10040.90
487.50	10239.84
487.68	10359.21
487.85	10272.61
488.03	10436.45
488.21	10658.80
488.39	10696.25
488.57	10700.93
488.75	10775.83
488.92	10834.34
489.10	10958.39
489.28	11014.56
489.46	11080.10
489.64	10977.11
489.81	11375.00
489.99	11159.67
490.17	11279.04
490.35	11555.22
490.53	11716.72
490.70	11620.76
490.88	11754.17
491.06	12035.03
491.24	11705.02
491.41	11859.49
491.59	12074.82
491.77	11992.90
491.95	11955.46
492.13	12051.42
492.30	12006.95
492.48	12358.03
492.66	12360.37
492.84	12163.76
493.01	12620.17
493.19	12582.72
493.37	12732.51
493.54	12840.18
493.72	12816.77
493.90	12819.11
494.08	12879.97
494.25	13228.71
494.43	13062.53
494.61	13551.70
494.79	13331.69
494.96	13317.65
495.14	13493.19
495.32	13650.00
495.49	13547.02
495.67	13717.88
495.85	13874.70
496.02	13865.33
496.20	13738.94
496.38	13858.31
496.55	14298.33
496.73	14581.54
496.91	13778.73
497.09	14401.32
497.26	14256.20
497.44	14314.72
497.62	14214.07
497.79	14607.28
497.97	14494.94
498.14	14736.01
498.32	14778.14
498.50	14736.01
498.67	14867.08
498.85	15033.26
499.03	15178.37
499.20	14986.45
499.38	15257.95
499.56	15208.80
499.73	15353.91
499.91	15342.21
500.08	15765.85
500.26	15152.63
500.44	15489.67
500.61	15662.86
500.79	15697.97
500.97	15452.22
501.14	15770.53
501.32	15672.23
501.49	15742.44
501.67	15875.85
501.84	15985.86
502.02	16088.84
502.20	16070.12
502.37	16339.28
502.55	16114.59
502.72	16187.14
502.90	16273.74
503.07	16292.47
503.25	16304.17
503.43	16456.31
503.60	16552.27
503.78	16620.14
503.95	16720.79
504.13	16802.71
504.30	16540.57
504.48	16664.61
504.65	16821.43
504.83	16716.11
505.01	16929.09
505.18	16875.26
505.36	16943.14
505.53	16727.81
505.71	16968.88
505.88	16992.29
506.06	17048.46
506.23	17476.78
506.41	17458.06
506.58	17462.74
506.76	17446.35
506.93	17628.92
507.11	17366.78
507.28	17446.35
507.46	17514.23
507.63	17549.34
507.81	17877.01
507.98	17839.56
508.16	17706.15
508.33	18113.41
508.50	18029.15
508.68	18176.60
508.85	18174.26
509.03	18214.05
509.20	18333.42
509.38	18274.90
509.55	18710.24
509.73	18457.46
509.90	18370.86
510.08	18625.98
510.25	18417.68
510.42	18590.88
510.60	18581.51
510.77	18710.24
510.95	18700.88
511.12	18609.60
511.30	18712.58
511.47	18789.82
511.64	19028.56
511.82	19056.64
511.99	19087.07
512.17	18885.78
512.34	19044.94
512.51	19187.71
512.69	19211.12
512.86	19688.59
513.04	19726.04
513.21	19468.58
513.38	19709.65
513.56	19814.98
513.73	19599.65
513.90	19648.80
514.08	19616.03
514.25	19660.50
514.43	19695.61
514.60	19704.97
514.77	19751.78
514.95	20002.22
515.12	19927.32
515.29	19903.92
515.47	20278.40
515.64	20332.23
515.81	20053.71
515.99	20086.48
516.16	20147.33
516.33	20655.23
516.51	20475.01
516.68	20187.12
516.85	20547.56
517.03	20444.58
517.20	20229.25
517.37	20716.08
517.54	20491.39
517.72	20718.42
517.89	20582.67
518.06	20917.37
518.24	20716.08
518.41	20877.58
518.58	20975.88
518.75	20992.26
518.93	20982.90
519.10	21071.84
519.27	20877.58
519.45	21120.99
519.62	21046.10
519.79	21397.18
519.96	21385.47
520.14	21427.60
520.31	21200.57
520.48	21642.93
520.65	21500.16
520.83	21392.50
521.00	21376.11
521.17	21511.86
521.34	21528.25
521.52	21626.55
521.69	21582.08
521.86	21858.26
522.03	21940.18
522.20	21656.98
522.38	21928.48
522.55	21916.78
522.72	21781.03
522.89	21928.48
523.07	22249.13
523.24	21942.52
523.41	22237.43
523.58	21972.95
523.75	22515.95
523.92	22136.79
524.10	22335.73
524.27	22464.46
524.44	22349.78
524.61	22595.53
524.78	22745.33
524.96	22396.59
525.13	22654.05
525.30	22890.44
525.47	22448.08
525.64	22588.51
525.81	22754.69
525.98	23204.07
526.16	22981.72
526.33	22827.24
526.50	22913.84
526.67	22925.55
526.84	22986.40
527.01	22986.40
527.18	22836.61
527.36	23103.43
527.53	23351.52
527.70	23363.23
527.87	23300.03
528.04	23489.62
528.21	23143.22
528.38	23068.32
528.55	23536.43
528.72	23262.58
528.89	23597.28
529.07	23349.18
529.24	23381.95
529.41	23810.27
529.58	23508.34
529.75	23606.64
529.92	23852.40
530.09	23871.12
530.26	23913.25
530.43	23468.55
530.60	23510.68
530.77	23800.91
530.94	23709.63
531.11	23587.92
531.28	23777.50
531.46	23756.44
531.63	23946.02
531.80	24287.74
531.97	23978.79
532.14	24130.92
532.31	24264.33
532.48	24301.78
532.65	24376.68
532.82	24437.53
532.99	24187.10
533.16	24135.60
533.33	24367.32
533.50	24650.52
533.67	24292.42
533.84	24039.64
534.01	24135.60
534.18	24416.47
534.35	24638.82
534.52	24521.79
534.69	24472.64
534.86	24783.93
535.03	24673.93
535.20	24535.84
535.37	24673.93
535.54	24964.15
535.71	24847.13
535.88	24610.73
536.05	24917.34
536.22	25284.81
536.38	25041.39
536.55	25064.80
536.72	25186.50
536.89	25032.03
537.06	25223.95
537.23	24863.51
537.40	25188.85
537.57	24982.88
537.74	25046.07
537.91	25455.67
538.08	25724.83
538.25	25268.42
538.42	25476.73
538.59	25589.08
538.75	25266.08
538.92	25628.87
539.09	25392.47
539.26	25371.41
539.43	25343.32
539.60	25893.35
539.77	25490.77
539.94	26064.21
540.11	25565.67
540.28	25895.69
540.44	25671.00
540.61	25528.22
540.78	26139.10
540.95	25947.18
541.12	25762.28
541.29	25820.79
541.46	26061.87
541.62	26045.48
541.79	25984.63
541.96	25518.86
542.13	26150.81
542.30	26185.91
542.47	26106.34
542.63	26258.47
542.80	26581.46
542.97	26340.39
543.14	26766.37
543.31	26508.91
543.48	26307.62
543.64	26675.09
543.81	26639.98
543.98	26480.82
544.15	26621.25
544.32	27178.30
544.48	26621.25
544.65	26422.31
544.82	26422.31
544.99	26527.63
545.16	27033.19
545.32	26504.23
545.49	26843.60
545.66	27077.66
545.83	27201.71
546.00	26895.10
546.16	26888.07
546.33	26916.16
546.50	26768.71
546.67	27075.32
546.83	26520.61
547.00	27316.39
547.17	27080.00
547.34	27222.77
547.50	27402.99
547.67	27353.84
547.84	26916.16
548.00	27161.92
548.17	27405.33
548.34	27105.74
548.51	27730.67
548.67	27124.47
548.84	27433.42
549.01	27395.97
549.18	27040.21
549.34	27571.51
549.51	27433.42
549.68	27211.07
549.84	27419.38
550.01	27555.13
550.18	27477.89
550.34	27690.88
550.51	27529.38
550.68	27770.46
550.84	27208.73
551.01	27843.01
551.18	27475.55
551.34	27077.66
551.51	27590.24
551.68	27838.33
551.84	27761.09
552.01	27693.22
552.18	28037.28
552.34	27557.47
552.51	27744.71
552.68	27871.10
552.84	27807.90
553.01	27796.20
553.18	27992.81
553.34	27938.97
553.51	28219.84
553.67	27835.99
553.84	28472.62
554.01	28163.67
554.17	27878.12
554.34	27988.13
554.51	28278.35
554.67	28285.37
554.84	28208.14
555.00	28247.93
555.17	28276.01
555.33	28212.82
555.50	28128.56
555.67	28203.46
555.83	28126.22
556.00	28386.02
556.16	28599.01
556.33	27976.42
556.50	28437.51
556.66	28517.09
556.83	28182.39
556.99	28566.24
557.16	28856.46
557.32	28449.21
557.49	28727.74
557.65	28217.50
557.82	28301.76
557.98	28669.22
558.15	28713.69
558.32	28732.42
558.48	28201.11
558.65	28774.55
558.81	28624.75
558.98	28788.59
559.14	28474.96
559.31	28577.94
559.47	28383.68
559.64	28697.31
559.80	28449.21
559.97	28933.70
560.13	28917.32
560.30	29034.35
560.46	28652.84
560.63	29013.28
560.79	28861.15
560.96	28884.55
561.12	29043.71
561.29	29036.69
561.45	28826.04
561.61	28898.59
561.78	28936.04
561.94	29195.84
562.11	29003.92
562.27	28783.91
562.44	29001.58
562.60	28596.67
562.77	28758.16
562.93	29172.44
563.10	29287.12
563.26	28903.28
563.42	29158.39
563.59	29102.22
563.75	29294.14
563.92	29472.03
564.08	29149.03
564.24	29226.27
564.41	28996.90
564.57	28840.08
564.74	28898.59
564.90	29394.79
565.07	29504.79
565.23	29589.05
565.39	29390.11
565.56	29532.88
565.72	29008.60
565.88	29535.22
566.05	29305.85
566.21	29174.78
566.38	29022.64
566.54	29347.98
566.70	29469.69
566.87	29621.82
567.03	29315.21
567.19	29727.14
567.36	29675.65
567.52	29373.72
567.68	29633.52
567.85	29347.98
568.01	29387.77
568.17	29310.53
568.34	29390.11
568.50	29883.96
568.66	29790.34
568.83	29593.73
568.99	29795.02
569.15	29638.20
569.32	29116.26
569.48	29235.63
569.64	29542.24
569.81	29460.32
569.97	29589.05
570.13	29790.34
570.30	29347.98
570.46	29640.54
570.62	29809.06
570.78	29750.55
570.95	29785.66
571.11	29518.84
571.27	29289.46
571.43	29663.95
571.60	29752.89
571.76	29369.04
571.92	29397.13
572.09	29649.91
572.25	29834.81
572.41	29523.52
572.57	29890.98
572.74	30120.35
572.90	29429.90
573.06	29886.30
573.22	29773.95
573.38	29975.24
573.55	29923.75
573.71	29895.66
573.87	29811.40
574.03	29469.69
574.20	29582.03
574.36	29654.59
574.52	29940.13
574.68	29827.79
574.84	29935.45
575.01	30118.01
575.17	29881.62
575.33	29848.85
575.49	29673.31
575.65	30010.35
575.82	29809.06
575.98	29429.90
576.14	29923.75
576.30	29696.72
576.46	29837.15
576.62	29635.86
576.79	29937.79
576.95	29759.91
577.11	30162.48
577.27	30162.48
577.43	30134.40
577.59	29670.97
577.75	29792.68
577.92	29575.01
578.08	29876.94
578.24	29560.97
578.40	29898.00
578.56	29881.62
578.72	29907.37
578.88	30192.91
579.04	30103.97
579.21	29951.84
579.37	29975.24
579.53	29706.08
579.69	29783.32
579.85	29778.64
580.01	30043.12
580.17	29631.18
580.33	30052.48
580.49	30000.99
580.65	29797.36
580.82	29764.59
580.98	30136.74
581.14	30134.40
581.30	29965.88
581.46	29823.11
581.62	29860.55
581.78	29902.68
581.94	29788.00
582.10	29750.55
582.26	29530.54
582.42	29963.54
582.58	30019.71
582.74	30504.20
582.90	30075.88
583.06	29858.21
583.22	30118.01
583.38	30181.21
583.54	30288.87
583.70	30005.67
583.86	30136.74
584.02	29521.18
584.18	30017.37
584.34	30284.19
584.50	30506.54
584.66	29694.38
584.82	29977.58
584.98	30143.76
585.14	30279.51
585.30	29457.98
585.46	29811.40
585.62	30071.20
585.78	30171.85
585.94	29841.83
586.10	29989.28
586.26	29965.88
586.42	30340.36
586.58	30216.32
586.74	30216.32
586.90	30323.98
587.06	29713.10
587.22	29923.75
587.38	30101.63
587.54	30431.65
587.70	30073.54
587.86	30054.82
588.02	30539.31
588.18	30242.06
588.34	30204.61
588.49	30380.15
588.65	29876.94
588.81	29820.77
588.97	30504.20
589.13	29876.94
589.29	29984.60
589.45	30646.97
589.61	30338.02
589.77	30321.64
589.93	30075.88
590.08	30417.60
590.24	30342.70
590.40	30459.73
590.56	30340.36
590.72	30410.58
590.88	30054.82
591.04	30181.21
591.20	30452.71
591.35	30960.61
591.51	30824.86
591.67	30347.39
591.83	30469.09
591.99	30473.78
592.15	30431.65
592.31	30382.49
592.46	30092.27
592.62	30628.25
592.78	30373.13
592.94	30363.77
593.10	30398.88
593.26	30485.48
593.41	30611.87
593.57	30630.59
593.73	30546.33
593.89	30707.83
594.05	30969.97
594.20	30422.28
594.36	30553.35
594.52	30394.20
594.68	30132.06
594.84	30579.10
594.99	30518.25
595.15	30639.95
595.31	31014.44
595.47	30663.36
595.62	30916.14
595.78	30522.93
595.94	30696.13
596.10	30532.29
596.25	30443.35
596.41	30363.77
596.57	30576.76
596.73	30717.19
596.88	30572.08
597.04	30635.27
597.20	30834.22
597.36	31157.21
597.51	30621.23
597.67	30508.88
597.83	30644.63
597.99	30452.71
598.14	30536.97
598.30	30979.33
598.46	30391.86
598.61	30326.32
598.77	30487.82
598.93	30761.66
599.09	30810.81
599.24	30843.58
599.40	31112.74
599.56	30801.45
599.71	30455.05
599.87	30895.07
600.03	30705.49
600.18	30586.12
600.34	30572.08
600.50	30555.69
600.65	30546.33
600.81	30693.79
600.97	31007.42
601.12	30792.09
601.28	30813.15
601.44	30810.81
601.59	31072.95
601.75	30534.63
601.91	30850.60
602.06	30806.13
602.22	30553.35
602.37	30625.91
602.53	30663.36
602.69	31072.95
602.84	30735.92
603.00	31115.08
603.16	30787.41
603.31	30827.20
603.47	30724.21
603.62	30459.73
603.78	30284.19
603.94	30888.05
604.09	30911.46
604.25	30597.82
604.40	30899.75
604.56	30735.92
604.71	31084.65
604.87	30916.14
605.03	30869.33
605.18	30782.73
605.34	31065.93
605.49	30450.37
605.65	30756.98
605.80	30349.73
605.96	30733.57
606.12	30675.06
606.27	30857.62
606.43	30527.61
606.58	30703.15
606.74	30728.89
606.89	30609.53
607.05	30984.01
607.20	30855.28
607.36	30747.62
607.51	30740.60
607.67	30703.15
607.82	30485.48
607.98	30249.08
608.13	30272.49
608.29	30684.42
608.44	30429.30
608.60	30588.46
608.75	30876.35
608.91	30569.74
609.06	30621.23
609.22	31112.74
609.37	30298.23
609.53	30527.61
609.68	30553.35
609.84	30036.09
609.99	30412.92
610.15	30377.81
610.30	30405.90
610.46	29940.13
610.61	30485.48
610.76	30391.86
610.92	30822.51
611.07	30499.52
611.23	30483.14
611.38	30312.28
611.54	29818.42
611.69	29708.42
611.84	30094.61
612.00	30204.61
612.15	29961.20
612.31	30209.29
612.46	30169.51
612.62	30478.46
612.77	30265.47
612.92	30396.54
613.08	30251.42
613.23	30464.41
613.39	30387.18
613.54	30209.29
613.69	30230.36
613.85	30176.53
614.00	30047.80
614.15	29935.45
614.31	29895.66
614.46	30309.94
614.62	30504.20
614.77	29823.11
614.92	30417.60
615.08	30024.39
615.23	29935.45
615.38	30043.12
615.54	29830.13
615.69	30171.85
615.84	29591.39
616.00	29930.77
616.15	30031.41
616.30	29942.47
616.46	29998.65
616.61	30003.33
616.76	30050.14
616.92	29336.27
617.07	29776.30
617.22	29776.30
617.37	29532.88
617.53	29762.25
617.68	29696.72
617.83	29748.21
617.99	29851.19
618.14	29701.40
618.29	30050.14
618.45	29633.52
618.60	29776.30
618.75	29785.66
618.90	29483.73
619.06	29900.34
619.21	29670.97
619.36	29963.54
619.51	29696.72
619.67	29675.65
619.82	29237.97
619.97	29869.92
620.12	28882.21
620.28	29401.81
620.43	29628.84
620.58	29680.33
620.73	29612.46
620.89	29553.94
621.04	29546.92
621.19	29359.68
621.34	29493.09
621.49	29399.47
621.65	29233.29
621.80	29277.76
621.95	29350.32
622.10	29219.25
622.25	28964.13
622.41	29120.95
622.56	29338.62
622.71	29020.30
622.86	29034.35
623.01	29507.13
623.16	29411.17
623.32	28898.59
623.47	29329.25
623.62	29413.51
623.77	29034.35
623.92	29090.52
624.07	28989.88
624.23	29125.63
624.38	29132.65
624.53	29184.14
624.68	29083.50
624.83	29092.86
624.98	29205.20
625.13	29319.89
625.29	29130.31
625.44	29357.34
625.59	28989.88
625.74	28741.78
625.89	29228.61
626.04	28514.75
626.19	28610.71
626.34	28821.36
626.49	28793.27
626.65	28959.45
626.80	28914.98
626.95	28814.34
627.10	28900.94
627.25	28636.45
627.40	28507.72
627.55	28739.44
627.70	28634.11
627.85	28816.68
628.00	28364.95
628.15	28575.60
628.30	28556.88
628.45	28676.24
628.60	28460.91
628.76	28767.52
628.91	28386.02
629.06	28552.20
629.21	28699.65
629.36	28779.23
629.51	28428.15
629.66	28793.27
629.81	28238.56
629.96	28379.00
630.11	28280.69
630.26	28463.25
630.41	27969.40
630.56	28053.66
630.71	28545.17
630.86	28257.29
631.01	28533.47
631.16	28346.23
631.31	28301.76
631.46	28236.22
631.61	28018.55
631.76	28191.75
631.91	28364.95
632.06	27969.40
632.21	27711.94
632.36	27908.55
632.51	28044.30
632.66	28266.65
632.81	27995.15
632.96	28266.65
633.10	28437.51
633.25	28173.03
633.40	28453.89
633.55	28219.84
633.70	27880.46
633.85	27351.50
634.00	27995.15
634.15	28156.64
634.30	27833.65
634.45	27885.14
634.60	27424.06
634.75	27845.35
634.90	27676.83
635.05	27887.48
635.19	27845.35
635.34	27985.79
635.49	27669.81
635.64	27903.87
635.79	27946.00
635.94	27718.96
636.09	27901.53
636.24	27559.81
636.39	27529.38
636.53	27204.05
636.68	27431.08
636.83	27613.64
636.98	27812.59
637.13	27473.21
637.28	27627.68
637.43	27906.21
637.57	27784.50
637.72	27332.78
637.87	27379.59
638.02	27534.06
638.17	27676.83
638.32	27625.34
638.46	27515.34
638.61	27194.68
638.76	27379.59
638.91	27035.53
639.06	27122.13
639.20	27445.12
639.35	27232.13
639.50	27187.66
639.65	27374.91
639.80	27604.28
639.94	27428.74
640.09	27470.87
640.24	27314.05
640.39	27358.52
640.54	27171.28
640.68	26925.52
640.83	27157.24
640.98	26998.08
641.13	26892.76
641.27	27498.95
641.42	26710.19
641.57	27197.02
641.72	27154.90
641.86	27061.27
642.01	27012.12
642.16	26927.86
642.31	26665.72
642.45	26972.33
642.60	26717.22
642.75	26651.68
642.90	26480.82
643.04	26785.09
643.19	26810.84
643.34	27082.34
643.48	26862.33
643.63	26771.05
643.78	26782.75
643.93	26520.61
644.07	27089.36
644.22	26981.70
644.37	26892.76
644.51	26572.10
644.66	26796.79
644.81	26857.65
644.95	26675.09
645.10	26319.32
645.25	26478.48
645.39	26654.02
645.54	26590.83
645.69	26600.19
645.83	26373.16
645.98	26693.81
646.13	26602.53
646.27	26658.70
646.42	26616.57
646.57	26803.82
646.71	26829.56
646.86	26820.20
647.00	26551.04
647.15	26632.96
647.30	26499.55
647.44	26080.59
647.59	26321.66
647.74	26197.62
647.88	26338.05
648.03	26792.11
648.17	26448.05
648.32	26436.35
648.47	26436.35
648.61	26412.95
648.76	26813.18
648.90	26146.12
649.05	26469.12
649.20	26441.03
649.34	26417.63
649.49	26008.03
649.63	25745.89
649.78	26132.08
649.92	26115.70
650.07	26494.86
650.21	26125.06
650.36	26267.83
650.51	25907.39
650.65	26265.49
650.80	26405.92
650.94	26122.72
651.09	25848.88
651.23	25570.35
651.38	25642.91
651.52	26146.12
651.67	25954.20
651.81	25769.30
651.96	25879.30
652.10	26223.36
652.25	25834.83
652.39	26066.55
652.54	25820.79
652.68	26001.01
652.83	26061.87
652.97	25930.80
653.12	25523.54
653.26	25996.33
653.41	25799.73
653.55	25649.93
653.70	25448.64
653.84	25516.52
653.99	25553.97
654.13	25968.24
654.27	25593.76
654.42	25551.63
654.56	25813.77
654.71	25839.51
654.85	25376.09
655.00	25958.88
655.14	25806.75
655.29	25493.12
655.43	25790.36
655.57	25654.61
655.72	25474.39
655.86	25720.15
656.01	25802.07
656.15	25364.39
656.30	25476.73
656.44	25135.01
656.58	25348.00
656.73	25139.69
656.87	25139.69
657.01	25167.78
657.16	25490.77
657.30	25380.77
657.45	25324.60
657.59	25481.41
657.73	25174.80
657.88	25228.63
658.02	25132.67
658.16	25078.84
658.31	25025.01
658.45	24889.26
658.60	25006.28
658.74	25123.31
658.88	24814.36
659.03	25006.28
659.17	25172.46
659.31	25118.63
659.46	25020.33
659.60	24964.15
659.74	25036.71
659.89	24718.40
660.03	24833.08
660.17	24947.77
660.32	24783.93
660.46	24664.57
660.60	24439.87
660.74	24493.71
660.89	24840.11
661.03	24730.10
661.17	24505.41
661.32	24620.10
661.46	24568.60
661.60	24531.15
661.74	24697.33
661.89	24765.21
662.03	24458.60
662.17	24702.01
662.31	24325.19
662.46	24444.56
662.60	24205.82
662.74	23978.79
662.88	24292.42
663.03	23782.18
663.17	23978.79
663.31	23962.40
663.45	23955.38
663.60	23901.55
663.74	23885.17
663.88	23817.29
664.02	23953.04
664.17	24166.03
664.31	23726.01
664.45	23939.00
664.59	23826.65
664.73	23922.62
664.88	23744.73
665.02	23370.25
665.16	23721.33
665.30	23634.73
665.44	23782.18
665.59	23410.04
665.73	23761.12
665.87	23239.18
666.01	23548.13
666.15	23807.93
666.29	23814.95
666.44	23332.80
666.58	23545.79
666.72	23353.87
666.86	23566.85
667.00	23939.00
667.14	23192.37
667.28	23335.14
667.43	22895.12
667.57	23145.56
667.71	22913.84
667.85	23171.30
667.99	22897.46
668.13	22782.77
668.27	22888.10
668.41	23190.03
668.56	23009.81
668.70	23328.12
668.84	23108.11
668.98	23000.44
669.12	22974.70
669.26	22672.77
669.40	22808.52
669.54	22766.39
669.68	22869.37
669.82	22649.36
669.96	22782.77
670.10	22476.16
670.25	22661.07
670.39	22654.05
670.53	22342.75
670.67	22335.73
670.81	22506.59
670.95	22478.50
671.09	22445.74
671.23	22473.82
671.37	22113.38
671.51	22242.11
671.65	22476.16
671.79	22335.73
671.93	22036.14
672.07	22305.31
672.21	21975.29
672.35	21685.06
672.49	21680.38
672.63	21717.83
672.77	21717.83
672.91	21734.21
673.05	21825.50
673.19	21785.71
673.33	21558.67
673.47	21605.49
673.61	21823.16
673.75	21322.28
673.89	21591.44
674.03	21465.05
674.17	21752.94
674.31	21280.15
674.45	21355.05
674.59	21177.17
674.73	21081.21
674.87	21458.03
675.01	21289.51
675.15	20931.41
675.29	20982.90
675.43	21186.53
675.56	21032.05
675.70	20936.09
675.84	21064.82
675.98	20451.60
676.12	20896.30
676.26	20975.88
676.40	20882.26
676.54	20908.01
676.68	20744.17
676.82	20016.26
676.96	20191.80
677.10	20732.47
677.23	20257.34
677.37	20259.68
677.51	20245.63
677.65	20180.10
677.79	19901.58
677.93	20032.65
678.07	19964.77
678.21	19974.13
678.34	20018.60
678.48	19613.69
678.62	19967.11
678.76	19857.10
678.90	19822.00
679.04	19847.74
679.18	19690.93
679.31	19192.39
679.45	19377.30
679.59	19140.90
679.73	19129.20
679.87	19293.04
680.00	19281.33
680.14	19101.11
680.28	19082.39
680.42	19082.39
680.56	19061.32
680.70	19143.24
680.83	19222.82
680.97	18941.96
681.11	19101.11
681.25	18906.85
681.39	18810.89
681.52	18820.25
681.66	18827.27
681.80	18391.93
681.94	18808.54
682.07	18588.53
682.21	18525.34
682.35	18513.64
682.49	18338.10
682.62	18445.76
682.76	18232.77
682.90	18410.65
683.04	18513.64
683.17	18253.84
683.31	17855.95
683.45	17865.31
683.59	17797.43
683.72	18008.08
683.86	17984.68
684.00	17579.76
684.13	17685.09
684.27	17820.84
684.41	17762.33
684.55	17181.87
684.68	17341.03
684.82	17050.80
684.96	17453.37
685.09	17451.03
685.23	17338.69
685.37	17177.19
685.50	17156.13
685.64	17240.39
685.78	17308.26
685.91	16992.29
686.05	17242.73
686.19	16950.16
686.32	17067.19
686.46	16683.34
686.60	16739.51
686.73	16837.81
686.87	16194.17
687.01	16524.18
687.14	16606.10
687.28	16425.88
687.42	16386.09
687.55	16432.90
687.69	16367.37
687.82	16070.12
687.96	16063.10
688.10	16072.46
688.23	16304.17
688.37	16203.53
688.50	16418.86
688.64	15969.48
688.78	16058.42
688.91	15583.29
689.05	15676.91
689.18	15552.86
689.32	15321.15
689.46	15548.18
689.59	15510.73
689.73	15227.53
689.86	15342.21
690.00	15482.64
690.13	15220.50
690.27	15236.89
690.41	15300.08
690.54	15309.44
690.68	15028.58
690.81	14993.47
690.95	15311.78
691.08	15147.95
691.22	15173.69
691.35	14977.09
691.49	14817.93
691.62	15044.96
691.76	14651.75
691.89	14523.02
692.03	14523.02
692.16	14455.15
692.30	14518.34
692.43	14125.13
692.57	14305.35
692.70	14115.77
692.84	14403.66
692.97	14317.06
693.11	14164.92
693.24	14270.25
693.38	14244.50
693.51	13942.57
693.65	13884.06
693.78	13855.97
693.92	14043.21
694.05	13661.71
694.19	13832.57
694.32	13579.79
694.45	13554.04
694.59	13610.22
694.72	13439.36
694.86	13617.24
694.99	13247.43
695.13	13420.63
695.26	13422.97
695.39	13036.78
695.53	13221.69
695.66	13261.48
695.80	13387.86
695.93	13128.06
696.07	13305.95
696.20	13319.99
696.33	12910.40
696.47	12943.16
696.60	12931.46
696.73	13069.55
696.87	12772.30
697.00	12762.94
697.14	12552.29
697.27	12568.68
697.40	12491.44
697.54	12428.24
697.67	12318.24
697.80	12133.34
697.94	12238.66
698.07	12145.04
698.21	12119.29
698.34	12308.88
698.47	12114.61
698.61	12262.07
698.74	11978.86
698.87	12390.80
699.01	11906.31
699.14	11838.43
699.27	11915.67
699.40	11810.34
699.54	11571.61
699.67	11637.14
699.80	11627.78
699.94	11550.54
700.07	11468.62
700.20	11428.84
700.34	11456.92
700.47	11330.53
700.60	11477.99
700.73	11307.13
700.87	11131.59
701.00	10911.58
701.13	11068.39
701.26	11129.25
701.40	11194.78
701.53	10930.30
701.66	11084.78
701.79	10960.73
701.93	10906.90
702.06	10534.75
702.19	10656.46
702.32	10637.73
702.46	10455.17
702.59	10455.17
702.72	10485.60
702.85	10401.34
702.99	10391.98
703.12	10485.60
703.25	10420.06
703.38	10534.75
703.51	10384.96
703.65	10560.50
703.78	10560.50
703.91	10134.52
704.04	10211.76
704.17	10298.36
704.31	10406.02
704.44	9914.51
704.57	10033.88
704.70	10012.81
704.83	9720.24
704.96	9844.29
705.10	9610.24
705.23	9612.58
>>>>>End Processed Spectral Data<<<<<
