SpectraSuite Data File
++++++++++++++++++++++++++++++++++++
Date: Fri Oct 18 13:58:37 GMT-05:00 2013
User: bianchi
Dark Spectrum Present: No
Reference Spectrum Present: No
Number of Sampled Component Spectra: 1
Spectrometers: USB2+H05261
Integration Time (usec): 50000 (USB2+H05261)
Spectra Averaged: 1 (USB2+H05261)
Boxcar Smoothing: 0 (USB2+H05261)
Correct for Electrical Dark: No (USB2+H05261)
Strobe/Lamp Enabled: No (USB2+H05261)
Correct for Detector Non-linearity: No (USB2+H05261)
Correct for Stray Light: No (USB2+H05261)
Number of Pixels in Processed Spectrum: 2048
>>>>>Begin Processed Spectral Data<<<<<
365.73	0.00
365.92	0.00
366.12	0.00
366.32	0.00
366.52	0.00
366.72	0.00
366.91	0.00
367.11	0.00
367.31	0.00
367.51	0.00
367.70	0.00
367.90	0.00
368.10	0.00
368.30	0.00
368.49	0.00
368.69	0.00
368.89	0.00
369.09	0.00
369.28	0.00
369.48	0.00
369.68	0.00
369.87	0.00
370.07	0.00
370.27	0.00
370.47	0.00
370.66	79.58
370.86	138.09
371.06	145.11
371.25	156.82
371.45	98.30
371.65	149.79
371.84	140.43
372.04	110.01
372.24	133.41
372.44	187.24
372.63	264.48
372.83	224.69
373.03	131.07
373.22	112.35
373.42	229.37
373.62	224.69
373.81	229.37
374.01	212.99
374.21	278.52
374.40	234.05
374.60	245.76
374.79	217.67
374.99	287.89
375.19	222.35
375.38	196.60
375.58	299.59
375.78	262.14
375.97	252.78
376.17	220.01
376.37	222.35
376.56	290.23
376.76	278.52
376.95	208.31
377.15	182.56
377.35	241.08
377.54	313.63
377.74	227.03
377.93	278.52
378.13	283.20
378.33	280.86
378.52	276.18
378.72	217.67
378.91	292.57
379.11	262.14
379.31	318.31
379.50	259.80
379.70	294.91
379.89	287.89
380.09	273.84
380.28	327.68
380.48	283.20
380.68	301.93
380.87	332.36
381.07	334.70
381.26	320.65
381.46	325.33
381.65	330.02
381.85	355.76
382.04	315.97
382.24	320.65
382.43	304.27
382.63	283.20
382.83	304.27
383.02	383.85
383.22	395.55
383.41	393.21
383.61	421.30
383.80	390.87
384.00	308.95
384.19	379.17
384.39	416.62
384.58	383.85
384.78	390.87
384.97	358.10
385.17	454.06
385.36	486.83
385.56	407.25
385.75	353.42
385.95	376.83
386.14	325.33
386.34	400.23
386.53	447.04
386.72	386.19
386.92	430.66
387.11	442.36
387.31	489.17
387.50	503.22
387.70	425.98
387.89	327.68
388.09	428.32
388.28	468.11
388.48	461.09
388.67	435.34
388.86	407.25
389.06	435.34
389.25	440.02
389.45	454.06
389.64	400.23
389.84	500.87
390.03	517.26
390.22	521.94
390.42	442.36
390.61	498.53
390.81	428.32
391.00	433.00
391.19	498.53
391.39	535.98
391.58	512.58
391.78	571.09
391.97	514.92
392.16	498.53
392.36	589.82
392.55	561.73
392.75	559.39
392.94	589.82
393.13	582.79
393.33	461.09
393.52	596.84
393.71	526.62
393.91	538.32
394.10	449.38
394.29	594.50
394.49	629.60
394.68	592.16
394.88	648.33
395.07	674.07
395.26	561.73
395.46	566.41
395.65	671.73
395.84	587.47
396.04	629.60
396.23	650.67
396.42	678.76
396.62	650.67
396.81	660.03
397.00	594.50
397.19	662.37
397.39	688.12
397.58	671.73
397.77	786.42
397.97	634.29
398.16	594.50
398.35	683.44
398.55	692.80
398.74	837.91
398.93	711.52
399.12	704.50
399.32	695.14
399.51	748.97
399.70	758.33
399.90	718.54
400.09	781.74
400.28	741.95
400.47	681.10
400.67	777.06
400.86	725.57
401.05	866.00
401.24	746.63
401.44	814.51
401.63	788.76
401.82	858.98
402.01	758.33
402.21	798.12
402.40	837.91
402.59	777.06
402.78	863.66
402.97	877.70
403.17	856.64
403.36	875.36
403.55	887.06
403.74	898.77
403.93	915.15
404.13	919.83
404.32	976.00
404.51	938.55
404.70	997.07
404.89	999.41
405.09	966.64
405.28	929.19
405.47	912.81
405.66	959.62
405.85	931.53
406.05	985.37
406.24	983.02
406.43	950.26
406.62	1001.75
406.81	1057.92
407.00	1029.84
407.20	961.96
407.39	1001.75
407.58	1050.90
407.77	994.73
407.96	1039.20
408.15	1046.22
408.34	1050.90
408.54	1121.12
408.73	1022.81
408.92	1128.14
409.11	1179.63
409.30	1114.10
409.49	1139.84
409.68	1196.01
409.87	1214.74
410.07	1158.57
410.26	1317.72
410.45	1207.72
410.64	1200.69
410.83	1235.80
411.02	1233.46
411.21	1226.44
411.40	1163.25
411.59	1315.38
411.78	1233.46
411.98	1291.98
412.17	1343.47
412.36	1291.98
412.55	1301.34
412.74	1317.72
412.93	1387.94
413.12	1289.64
413.31	1441.77
413.50	1399.64
413.69	1535.39
413.88	1528.37
414.07	1462.83
414.26	1376.24
414.45	1439.43
414.64	1474.54
414.83	1500.28
415.02	1444.11
415.22	1652.42
415.41	1542.41
415.60	1511.99
415.79	1493.26
415.98	1600.93
416.17	1657.10
416.36	1561.14
416.55	1631.35
416.74	1736.68
416.93	1640.72
417.12	1724.97
417.31	1687.53
417.50	1626.67
417.69	1792.85
417.88	1820.94
418.07	1764.76
418.26	1715.61
418.45	1846.68
418.64	1827.96
418.83	1659.44
419.02	1813.92
419.21	1825.62
419.39	1795.19
419.58	1879.45
419.77	1891.15
419.96	1813.92
420.15	1832.64
420.34	1764.76
420.53	1937.96
420.72	1881.79
420.91	1874.77
421.10	1863.07
421.29	2003.50
421.48	1996.48
421.67	1980.09
421.86	1989.46
422.05	2031.58
422.24	1980.09
422.43	1926.26
422.61	1935.62
422.80	1926.26
422.99	2001.16
423.18	1970.73
423.37	2062.01
423.56	2071.37
423.75	2029.24
423.94	1975.41
424.13	1954.35
424.32	1937.96
424.50	1912.22
424.69	2125.21
424.88	2005.84
425.07	2010.52
425.26	1989.46
425.45	1998.82
425.64	1987.11
425.83	2101.80
426.01	2108.82
426.20	2017.54
426.39	2146.27
426.58	2064.35
426.77	2015.20
426.96	2087.76
427.15	2118.18
427.33	2155.63
427.52	2099.46
427.71	2249.25
427.90	2143.93
428.09	2277.34
428.28	2197.76
428.46	2115.84
428.65	2172.02
428.84	2303.09
429.03	2312.45
429.22	2148.61
429.40	2239.89
429.59	2186.06
429.78	2221.17
429.97	2188.40
430.16	2282.02
430.34	2389.69
430.53	2394.37
430.72	2354.58
430.91	2190.74
431.10	2202.44
431.28	2347.56
431.47	2312.45
431.66	2382.67
431.85	2359.26
432.03	2448.20
432.22	2452.88
432.41	2476.29
432.60	2555.86
432.79	2527.78
432.97	2520.76
433.16	2443.52
433.35	2420.11
433.54	2389.69
433.72	2492.67
433.91	2490.33
434.10	2450.54
434.28	2586.29
434.47	2539.48
434.66	2551.18
434.85	2513.74
435.03	2609.70
435.22	2642.46
435.41	2619.06
435.59	2593.31
435.78	2806.30
435.97	2708.00
436.16	2654.17
436.34	2731.41
436.53	2630.76
436.72	2771.19
436.90	2644.81
437.09	2787.58
437.28	2698.64
437.46	2686.94
437.65	2752.47
437.84	2761.83
438.02	2726.72
438.21	2771.19
438.40	2850.77
438.58	2871.84
438.77	2860.13
438.96	2874.18
439.14	2825.03
439.33	2951.42
439.52	2918.65
439.70	2953.76
439.89	3068.44
440.08	3075.46
440.26	2967.80
440.45	3066.10
440.63	3073.12
440.82	3094.19
441.01	3131.64
441.19	3162.06
441.38	3220.58
441.57	3241.64
441.75	3155.04
441.94	3253.34
442.12	3190.15
442.31	3295.47
442.50	3269.73
442.68	3349.31
442.87	3349.31
443.05	3520.17
443.24	3396.12
443.43	3325.90
443.61	3426.54
443.80	3471.01
443.98	3351.65
444.17	3199.51
444.35	3403.14
444.54	3456.97
444.73	3323.56
444.91	3375.05
445.10	3426.54
445.28	3386.76
445.47	3440.59
445.65	3449.95
445.84	3407.82
446.02	3426.54
446.21	3456.97
446.39	3414.84
446.58	3463.99
446.77	3503.78
446.95	3513.14
447.14	3485.06
447.32	3585.70
447.51	3534.21
447.69	3545.91
447.88	3396.12
448.06	3604.42
448.25	3445.27
448.43	3667.62
448.62	3705.07
448.80	3426.54
448.99	3531.87
449.17	3623.15
449.36	3513.14
449.54	3576.34
449.73	3805.71
449.91	3728.47
450.10	3644.21
450.28	3803.37
450.46	3714.43
450.65	3730.81
450.83	3770.60
451.02	3691.02
451.20	3803.37
451.39	3688.68
451.57	3688.68
451.76	3728.47
451.94	3887.63
452.13	3854.86
452.31	3969.55
452.49	3768.26
452.68	3833.80
452.86	3920.40
453.05	3840.82
453.23	3904.01
453.42	3871.25
453.60	3913.38
453.78	4056.15
453.97	3850.18
454.15	3943.80
454.34	3840.82
454.52	4074.87
454.70	4046.79
454.89	3990.61
455.07	3922.74
455.26	4039.76
455.44	4173.18
455.62	3992.95
455.81	3995.29
455.99	4072.53
456.17	4107.64
456.36	4112.32
456.54	4126.36
456.73	4046.79
456.91	4353.40
457.09	4315.95
457.28	4454.04
457.46	4322.97
457.64	4360.42
457.83	4344.03
458.01	4264.46
458.19	4355.74
458.38	4311.27
458.56	4416.59
458.74	4404.89
458.93	4538.30
459.11	4477.44
459.29	4407.23
459.48	4409.57
459.66	4449.36
459.84	4524.26
460.03	4514.89
460.21	4650.64
460.39	4688.09
460.57	4482.13
460.76	4631.92
460.94	4645.96
461.12	4568.73
461.31	4571.07
461.49	4622.56
461.67	4554.68
461.85	4819.16
462.04	4624.90
462.22	4880.02
462.40	4851.93
462.59	4898.74
462.77	4739.58
462.95	4793.42
463.13	4772.35
463.32	4987.68
463.50	4798.10
463.68	4770.01
463.86	4835.55
464.05	4667.03
464.23	4875.34
464.41	5018.11
464.59	4709.16
464.78	4957.25
464.96	4774.69
465.14	4931.51
465.32	4968.96
465.50	5048.54
465.69	4994.70
465.87	5018.11
466.05	4858.95
466.23	4816.82
466.41	4929.17
466.60	5280.25
466.78	5114.07
466.96	4929.17
467.14	5093.01
467.32	4917.47
467.51	5076.62
467.69	5011.09
467.87	5177.26
468.05	5151.52
468.23	5006.41
468.41	5167.90
468.60	5046.20
468.78	5083.64
468.96	5399.62
469.14	5238.12
469.32	5261.52
469.50	5219.39
469.69	5444.09
469.87	5317.70
470.05	5458.13
470.23	5366.85
470.41	5486.22
470.59	5551.75
470.77	5425.36
470.95	5359.83
471.14	5481.53
471.32	5392.59
471.50	5699.20
471.68	5643.03
471.86	5650.05
472.04	5736.65
472.22	5823.25
472.40	5600.90
472.58	5701.54
472.77	5661.76
472.95	5799.85
473.13	6061.99
473.31	5722.61
473.49	5968.37
473.67	6019.86
473.85	6043.26
474.03	6134.54
474.21	5998.79
474.39	6008.16
474.57	6097.10
474.75	6015.18
474.93	6169.65
475.12	6186.04
475.30	6246.89
475.48	6263.27
475.66	6216.46
475.84	6211.78
476.02	6436.47
476.20	6260.93
476.38	6473.92
476.56	6583.93
476.74	6420.09
476.92	6518.39
477.10	6525.41
477.28	6672.87
477.46	6534.78
477.64	6707.98
477.82	6813.30
478.00	7080.12
478.18	6935.01
478.36	6904.58
478.54	6988.84
478.72	6953.73
478.90	7033.31
479.08	7239.28
479.26	7272.04
479.44	7201.83
479.62	7300.13
479.80	7311.83
479.98	7368.01
480.16	7573.97
480.34	7456.95
480.52	7588.02
480.70	7688.66
480.88	7730.79
481.06	7777.60
481.24	7559.93
481.41	7901.65
481.59	7941.44
481.77	8063.15
481.95	8095.91
482.13	8063.15
482.31	8126.34
482.49	8159.11
482.67	8315.92
482.85	8388.48
483.03	8278.47
483.21	8732.54
483.39	8549.98
483.57	8465.72
483.74	8821.48
483.92	8737.22
484.10	8706.79
484.28	8847.22
484.46	9191.28
484.64	9128.09
484.82	9200.65
485.00	9062.55
485.18	9217.03
485.35	9434.70
485.53	9329.38
485.71	9352.78
485.89	9689.82
486.07	9544.70
486.25	9497.89
486.43	9729.61
486.61	9748.33
486.78	10022.17
486.96	9994.09
487.14	10228.14
487.32	10078.35
487.50	10141.54
487.68	10111.11
487.85	10209.42
488.03	10466.88
488.21	10597.95
488.39	10647.10
488.57	10672.84
488.75	10743.06
488.92	10759.44
489.10	10977.11
489.28	11108.18
489.46	10934.98
489.64	10906.90
489.81	11260.32
489.99	11199.46
490.17	11564.59
490.35	11351.60
490.53	11363.30
490.70	11611.40
490.88	11679.27
491.06	11852.47
491.24	11808.00
491.41	12013.97
491.59	12088.87
491.77	11990.56
491.95	12107.59
492.13	12011.63
492.30	12123.98
492.48	12367.39
492.66	12395.48
492.84	12582.72
493.01	12603.78
493.19	12692.73
493.37	12533.57
493.54	12786.35
493.72	12896.35
493.90	12751.24
494.08	13099.98
494.25	13259.13
494.43	12978.27
494.61	13142.11
494.79	13362.12
494.96	13076.57
495.14	13338.71
495.32	13809.16
495.49	13638.30
495.67	13544.68
495.85	13673.41
496.02	13855.97
496.20	13841.93
496.38	14047.90
496.55	14272.59
496.73	14401.32
496.91	13958.96
497.09	14356.85
497.26	14413.02
497.44	14317.06
497.62	14345.14
497.79	14813.25
497.97	14513.66
498.14	14794.53
498.32	14614.30
498.50	14658.78
498.67	14831.97
498.85	15033.26
499.03	15215.82
499.20	15089.43
499.38	15185.40
499.56	15286.04
499.73	15482.64
499.91	15314.13
500.08	15290.72
500.26	15131.56
500.44	15321.15
500.61	15482.64
500.79	15470.94
500.97	15807.98
501.14	15976.50
501.32	15613.71
501.49	15927.35
501.67	16042.03
501.84	16025.65
502.02	16100.55
502.20	16255.02
502.37	16135.65
502.55	16152.04
502.72	16271.40
502.90	16189.49
503.07	16035.01
503.25	16301.83
503.43	16423.54
503.60	16519.50
503.78	16659.93
503.95	16734.83
504.13	16496.10
504.30	16596.74
504.48	16751.21
504.65	16847.18
504.83	16762.92
505.01	16947.82
505.18	16978.25
505.36	17170.17
505.53	17226.34
505.71	17001.65
505.88	17259.11
506.06	16980.59
506.23	17495.50
506.41	17385.50
506.58	17582.10
506.76	17282.52
506.93	17476.78
507.11	17385.50
507.28	17542.32
507.46	17713.17
507.63	17811.48
507.81	17841.90
507.98	17451.03
508.16	17921.48
508.33	17762.33
508.50	17799.77
508.68	18239.79
508.85	18134.47
509.03	17923.82
509.20	17837.22
509.38	18518.32
509.55	18506.62
509.73	18700.88
509.90	18647.05
510.08	18265.54
510.25	18333.42
510.42	18583.85
510.60	18635.35
510.77	18878.76
510.95	18785.14
511.12	18492.57
511.30	18642.37
511.47	19019.19
511.64	19002.81
511.82	18771.10
511.99	18963.02
512.17	19206.44
512.34	19164.31
512.51	19356.23
512.69	19168.99
512.86	19335.17
513.04	19157.28
513.21	19466.24
513.38	19735.40
513.56	18988.77
513.73	19506.02
513.90	19690.93
514.08	19740.08
514.25	19543.47
514.43	19789.23
514.60	19829.02
514.77	19882.85
514.95	19939.02
515.12	19873.49
515.29	19702.63
515.47	19943.70
515.64	20315.85
515.81	20177.76
515.99	20350.96
516.16	20144.99
516.33	20355.64
516.51	20404.79
516.68	20175.42
516.85	20154.35
517.03	20388.41
517.20	20346.28
517.37	20585.01
517.54	20774.60
517.72	20659.91
517.89	20695.02
518.06	20774.60
518.24	20388.41
518.41	20589.69
518.58	20786.30
518.75	20816.72
518.93	20982.90
519.10	20877.58
519.27	20879.92
519.45	21097.59
519.62	21043.76
519.79	21118.65
519.96	21113.97
520.14	21025.03
520.31	21170.15
520.48	21343.35
520.65	21333.98
520.83	21521.23
521.00	21682.72
521.17	21460.37
521.34	21266.11
521.52	21685.06
521.69	21757.62
521.86	21589.10
522.03	22040.82
522.20	21825.50
522.38	21902.73
522.55	21930.82
522.72	22008.06
522.89	21902.73
523.07	22286.58
523.24	22253.81
523.41	22188.28
523.58	21984.65
523.75	22338.07
523.92	21942.52
524.10	22298.28
524.27	22328.71
524.44	22132.11
524.61	22719.58
524.78	22600.21
524.96	22593.19
525.13	22611.92
525.30	22750.01
525.47	22427.01
525.64	22527.66
525.81	22951.29
525.98	22932.57
526.16	22635.32
526.33	22937.25
526.50	23236.84
526.67	22417.65
526.84	23068.32
527.01	22806.18
527.18	23044.91
527.36	23049.60
527.53	22888.10
527.70	23431.10
527.87	23101.09
528.04	23283.65
528.21	23253.22
528.38	23108.11
528.55	23782.18
528.72	23005.13
528.89	23391.31
529.07	23339.82
529.24	23608.98
529.41	23447.49
529.58	23536.43
529.75	23424.08
529.92	23716.65
530.09	23899.21
530.26	23456.85
530.43	24041.98
530.60	23817.29
530.77	23620.69
530.94	24088.79
531.11	23931.98
531.28	23777.50
531.46	23936.66
531.63	23969.43
531.80	23950.70
531.97	24105.18
532.14	24105.18
532.31	24016.24
532.48	24229.23
532.65	23957.72
532.82	23990.49
532.99	24521.79
533.16	24168.37
533.33	24318.17
533.50	24528.81
533.67	24573.28
533.84	24187.10
534.01	24463.28
534.18	24203.48
534.35	24510.09
534.52	24350.93
534.69	24472.64
534.86	24767.55
535.03	24762.87
535.20	24706.70
535.37	24793.29
535.54	24699.67
535.71	24809.68
535.88	24659.88
536.05	24741.80
536.22	24985.22
536.38	25104.59
536.55	25741.21
536.72	25116.29
536.89	24776.91
537.06	25324.60
537.23	25069.48
537.40	25095.22
537.57	24989.90
537.74	25394.81
537.91	25607.80
538.08	25338.64
538.25	24809.68
538.42	25170.12
538.59	25340.98
538.75	25163.10
538.92	25441.62
539.09	25443.96
539.26	25186.50
539.43	25523.54
539.60	25607.80
539.77	25598.44
539.94	25575.03
540.11	25773.98
540.28	25589.08
540.44	25706.10
540.61	25448.64
540.78	25666.31
540.95	25703.76
541.12	25708.44
541.29	25715.47
541.46	25450.99
541.62	25675.68
541.79	25851.22
541.96	25397.15
542.13	26134.42
542.30	26017.40
542.47	25809.09
542.63	26103.99
542.80	26443.37
542.97	26380.18
543.14	26478.48
543.31	26328.69
543.48	26054.84
543.64	26265.49
543.81	26429.33
543.98	26300.60
544.15	26548.70
544.32	26426.99
544.48	26981.70
544.65	26960.63
544.82	26309.96
544.99	26405.92
545.16	26644.66
545.32	26586.15
545.49	27012.12
545.66	27178.30
545.83	26899.78
546.00	26698.49
546.16	26796.79
546.33	26459.76
546.50	26808.50
546.67	26817.86
546.83	26710.19
547.00	26871.69
547.17	26637.64
547.34	26771.05
547.50	27082.34
547.67	27129.15
547.84	27232.13
548.00	27115.11
548.17	27419.38
548.34	27054.25
548.51	27400.65
548.67	27225.11
548.84	27412.35
549.01	27211.07
549.18	27138.51
549.34	27536.40
549.51	27218.09
549.68	27091.70
549.84	27503.64
550.01	27426.40
550.18	27197.02
550.34	27288.31
550.51	27550.45
550.68	27253.20
550.84	27316.39
551.01	27377.25
551.18	27487.25
551.34	27484.91
551.51	27711.94
551.68	27697.90
551.84	27557.47
552.01	27498.95
552.18	27538.74
552.34	27632.36
552.51	27707.26
552.68	27901.53
552.84	27985.79
553.01	28098.13
553.18	27857.06
553.34	27728.33
553.51	27571.51
553.67	28236.22
553.84	28439.85
554.01	28060.68
554.17	28184.73
554.34	27637.05
554.51	28142.60
554.67	28095.79
554.84	28074.73
555.00	27971.74
555.17	27976.42
555.33	28201.11
555.50	28568.58
555.67	27908.55
555.83	28259.63
556.00	28629.43
556.16	27915.57
556.33	28137.92
556.50	28041.96
556.66	28713.69
556.83	28748.80
556.99	28374.31
557.16	28793.27
557.32	28734.76
557.49	28678.58
557.65	28123.88
557.82	28292.40
557.98	28154.30
558.15	28395.38
558.32	28629.43
558.48	28723.05
558.65	29020.30
558.81	28872.85
558.98	28678.58
559.14	28613.05
559.31	28273.67
559.47	28671.56
559.64	28657.52
559.80	28503.04
559.97	28505.38
560.13	28751.14
560.30	28496.02
560.46	28886.89
560.63	28898.59
560.79	28699.65
560.96	28989.88
561.12	28357.93
561.29	28826.04
561.45	28694.97
561.61	28781.57
561.78	28943.06
561.94	29039.03
562.11	29167.76
562.27	28774.55
562.44	28919.66
562.60	28814.34
562.77	28819.02
562.93	28781.57
563.10	29202.86
563.26	29146.69
563.42	29408.83
563.59	28823.70
563.75	29263.72
563.92	28804.97
564.08	29102.22
564.24	29172.44
564.41	28922.00
564.57	28954.77
564.74	29149.03
564.90	29525.86
565.07	28849.44
565.23	29163.08
565.39	29216.91
565.56	29303.51
565.72	29146.69
565.88	29069.45
566.05	29329.25
566.21	29441.60
566.38	29111.58
566.54	29069.45
566.70	29406.49
566.87	29614.80
567.03	29127.97
567.19	29692.04
567.36	29191.16
567.52	29373.72
567.68	29422.87
567.85	29380.74
568.01	29385.43
568.17	29486.07
568.34	29385.43
568.50	29432.24
568.66	29624.16
568.83	29465.00
568.99	29359.68
569.15	29614.80
569.32	28985.19
569.48	29376.06
569.64	29813.74
569.81	29343.30
569.97	29455.64
570.13	29317.55
570.30	29406.49
570.46	29511.81
570.62	29521.18
570.78	29139.67
570.95	29249.67
571.11	29345.64
571.27	29298.83
571.43	29244.99
571.60	29457.98
571.76	29266.06
571.92	29317.55
572.09	29465.00
572.25	29479.05
572.41	29453.30
572.57	29727.14
572.74	29811.40
572.90	29415.85
573.06	29577.35
573.22	29617.14
573.38	29333.93
573.55	29633.52
573.71	30223.34
573.87	29832.47
574.03	29490.75
574.20	29813.74
574.36	29329.25
574.52	29649.91
574.68	29572.67
574.84	29703.74
575.01	29905.02
575.17	29858.21
575.33	29635.86
575.49	29706.08
575.65	29813.74
575.82	29841.83
575.98	29797.36
576.14	29802.04
576.30	29853.53
576.46	29579.69
576.62	29481.39
576.79	29694.38
576.95	29685.01
577.11	29883.96
577.27	29895.66
577.43	29937.79
577.59	29750.55
577.75	29759.91
577.92	29376.06
578.08	29619.48
578.24	29617.14
578.40	29603.10
578.56	29893.32
578.72	29921.41
578.88	30052.48
579.04	30267.81
579.21	29677.99
579.37	30134.40
579.53	29874.60
579.69	29450.96
579.85	29734.17
580.01	30120.35
580.17	29685.01
580.33	29750.55
580.49	30033.75
580.65	29989.28
580.82	30118.01
580.98	29654.59
581.14	30103.97
581.30	30279.51
581.46	29762.25
581.62	29977.58
581.78	29642.88
581.94	30321.64
582.10	29675.65
582.26	30043.12
582.42	30073.54
582.58	30108.65
582.74	29907.37
582.90	30167.16
583.06	29912.05
583.22	29748.21
583.38	29731.83
583.54	29912.05
583.70	29675.65
583.86	30101.63
584.02	29848.85
584.18	29736.51
584.34	29790.34
584.50	30057.16
584.66	29961.20
584.82	29687.36
584.98	30326.32
585.14	29965.88
585.30	29820.77
585.46	30073.54
585.62	30080.56
585.78	30000.99
585.94	30094.61
586.10	30078.22
586.26	29741.19
586.42	30583.78
586.58	30225.68
586.74	30143.76
586.90	29816.08
587.06	29972.90
587.22	29982.26
587.38	30115.67
587.54	30029.07
587.70	30122.69
587.86	30190.57
588.02	30323.98
588.18	30412.92
588.34	30057.16
588.49	30473.78
588.65	29902.68
588.81	30110.99
588.97	29883.96
589.13	30024.39
589.29	30106.31
589.45	30466.75
589.61	30087.59
589.77	30431.65
589.93	30478.46
590.08	30508.88
590.24	30221.00
590.40	30363.77
590.56	30213.98
590.72	30148.44
590.88	30019.71
591.04	30490.16
591.20	30560.37
591.35	30363.77
591.51	31037.84
591.67	30464.41
591.83	30529.95
591.99	30661.02
592.15	30408.24
592.31	30382.49
592.46	30036.09
592.62	30487.82
592.78	30230.36
592.94	30225.68
593.10	30272.49
593.26	30377.81
593.41	30602.50
593.57	30469.09
593.73	30347.39
593.89	30593.14
594.05	30448.03
594.20	29949.50
594.36	30543.99
594.52	30279.51
594.68	30352.07
594.84	30134.40
594.99	30920.82
595.15	30129.72
595.31	30263.13
595.47	30157.80
595.62	30656.34
595.78	30646.97
595.94	30448.03
596.10	30260.79
596.25	30426.96
596.41	30532.29
596.57	29942.47
596.73	30686.76
596.88	30492.50
597.04	30492.50
597.20	30508.88
597.36	30836.56
597.51	30616.55
597.67	30527.61
597.83	30565.06
597.99	30567.40
598.14	30785.07
598.30	30270.15
598.46	30637.61
598.61	30295.89
598.77	30492.50
598.93	30543.99
599.09	30562.72
599.24	30944.22
599.40	30735.92
599.56	30700.81
599.71	30508.88
599.87	30789.75
600.03	30508.88
600.18	30707.83
600.34	30326.32
600.50	30572.08
600.65	30469.09
600.81	30534.63
600.97	30764.00
601.12	30742.94
601.28	30646.97
601.44	30831.88
601.59	30625.91
601.75	30363.77
601.91	30677.40
602.06	30614.21
602.22	30197.59
602.37	30611.87
602.53	30639.95
602.69	30670.38
602.84	30639.95
603.00	30527.61
603.16	31103.38
603.31	30866.98
603.47	30707.83
603.62	30464.41
603.78	30513.56
603.94	30555.69
604.09	30349.73
604.25	30256.11
604.40	30588.46
604.56	30738.26
604.71	30850.60
604.87	30293.55
605.03	31000.40
605.18	30759.32
605.34	30742.94
605.49	30235.04
605.65	30403.56
605.80	30157.80
605.96	30384.83
606.12	30401.22
606.27	30574.42
606.43	30169.51
606.58	30670.38
606.74	30366.11
606.89	30616.55
607.05	30728.89
607.20	30520.59
607.36	30448.03
607.51	30773.36
607.67	30654.00
607.82	30188.23
607.98	30771.02
608.13	30302.92
608.29	30377.81
608.44	30192.91
608.60	30579.10
608.75	30845.92
608.91	30291.21
609.06	29930.77
609.22	30518.25
609.37	30057.16
609.53	30132.06
609.68	30204.61
609.84	30249.08
609.99	30291.21
610.15	30171.85
610.30	30223.34
610.46	30415.26
610.61	30410.58
610.76	30209.29
610.92	30270.15
611.07	30391.86
611.23	29956.52
611.38	29923.75
611.54	30546.33
611.69	30087.59
611.84	30291.21
612.00	30078.22
612.15	30293.55
612.31	30132.06
612.46	29968.22
612.62	30150.78
612.77	30281.85
612.92	30298.23
613.08	30029.07
613.23	29996.31
613.39	30019.71
613.54	29968.22
613.69	30038.44
613.85	29766.93
614.00	30314.62
614.15	29797.36
614.31	29743.53
614.46	30253.76
614.62	29914.39
614.77	30118.01
614.92	30223.34
615.08	30066.52
615.23	29947.15
615.38	29692.04
615.54	29408.83
615.69	29511.81
615.84	30185.89
616.00	29738.85
616.15	29804.38
616.30	29771.61
616.46	29579.69
616.61	29804.38
616.76	30075.88
616.92	29696.72
617.07	29923.75
617.22	29940.13
617.37	29818.42
617.53	30026.73
617.68	29706.08
617.83	29301.17
617.99	29252.02
618.14	29385.43
618.29	29544.58
618.45	29661.61
618.60	29633.52
618.75	29731.83
618.90	29837.15
619.06	29734.17
619.21	29771.61
619.36	29453.30
619.51	29436.92
619.67	29240.31
619.82	28938.38
619.97	29504.79
620.12	29413.51
620.28	29350.32
620.43	29762.25
620.58	29406.49
620.73	29347.98
620.89	29296.49
621.04	29673.31
621.19	29628.84
621.34	29333.93
621.49	29113.92
621.65	29198.18
621.80	29221.59
621.95	29109.24
622.10	29394.79
622.25	29134.99
622.41	29120.95
622.56	29003.92
622.71	29467.34
622.86	29013.28
623.01	28893.91
623.16	29488.41
623.32	28966.47
623.47	29254.36
623.62	29149.03
623.77	28940.72
623.92	28945.41
624.07	29092.86
624.23	28903.28
624.38	29181.80
624.53	28884.55
624.68	29235.63
624.83	29036.69
624.98	28900.94
625.13	29221.59
625.29	29043.71
625.44	28945.41
625.59	28376.66
625.74	28720.71
625.89	28837.74
626.04	28627.09
626.19	28683.27
626.34	28669.22
626.49	28580.28
626.65	28596.67
626.80	28746.46
626.95	28931.36
627.10	28795.61
627.25	28442.19
627.40	28657.52
627.55	28404.74
627.70	28325.16
627.85	28357.93
628.00	28383.68
628.15	28421.13
628.30	28144.94
628.45	28472.62
628.60	28341.55
628.76	28652.84
628.91	28320.48
629.06	28809.65
629.21	28456.23
629.36	28367.29
629.51	27988.13
629.66	28290.06
629.81	28521.77
629.96	28290.06
630.11	28219.84
630.26	28140.26
630.41	28584.96
630.56	28215.16
630.71	28093.45
630.86	28547.51
631.01	28701.99
631.16	28189.41
631.31	28180.05
631.46	28208.14
631.61	28112.17
631.76	27995.15
631.91	28173.03
632.06	27941.32
632.21	27955.36
632.36	27761.09
632.51	27896.85
632.66	28034.94
632.81	28046.64
632.96	27843.01
633.10	28203.46
633.25	28053.66
633.40	27538.74
633.55	27875.78
633.70	27985.79
633.85	27868.76
634.00	27615.98
634.15	27644.07
634.30	27433.42
634.45	27676.83
634.60	27583.21
634.75	27718.96
634.90	27639.39
635.05	27929.61
635.19	27733.01
635.34	27585.55
635.49	27803.22
635.64	27730.67
635.79	27662.79
635.94	27807.90
636.09	27857.06
636.24	27419.38
636.39	27772.80
636.53	27571.51
636.68	27264.90
636.83	27491.93
636.98	27566.83
637.13	27302.35
637.28	27557.47
637.43	27662.79
637.57	27417.04
637.72	27461.51
637.87	27564.49
638.02	27548.11
638.17	27461.51
638.32	27365.54
638.46	27419.38
638.61	26904.46
638.76	26951.27
638.91	27178.30
639.06	27309.37
639.20	27665.13
639.35	26927.86
639.50	27365.54
639.65	27573.85
639.80	27477.89
639.94	27370.22
640.09	27445.12
640.24	26981.70
640.39	27096.38
640.54	26972.33
640.68	26974.67
640.83	27168.94
640.98	26803.82
641.13	27049.57
641.27	27098.72
641.42	26876.37
641.57	26906.80
641.72	27241.50
641.86	26827.22
642.01	26883.39
642.16	26874.03
642.31	26553.38
642.45	26684.45
642.60	26431.67
642.75	26576.78
642.90	26604.87
643.04	26841.26
643.19	26656.36
643.34	26642.32
643.48	26684.45
643.63	26569.76
643.78	26593.17
643.93	26876.37
644.07	26391.88
644.22	26693.81
644.37	26651.68
644.51	26806.16
644.66	26614.23
644.81	26204.64
644.95	26726.58
645.10	26415.29
645.25	26338.05
645.39	26487.84
645.54	26764.03
645.69	26607.21
645.83	26331.03
645.98	26429.33
646.13	26394.22
646.27	26541.68
646.42	26305.28
646.57	26354.43
646.71	26141.44
646.86	26349.75
647.00	26319.32
647.15	26118.04
647.30	26291.24
647.44	26499.55
647.59	26464.44
647.74	26263.15
647.88	26125.06
648.03	26459.76
648.17	26230.38
648.32	26403.58
648.47	26331.03
648.61	26192.94
648.76	26118.04
648.90	26632.96
649.05	26211.66
649.20	26064.21
649.34	26099.31
649.49	25883.98
649.63	25944.84
649.78	26136.76
649.92	26017.40
650.07	26286.56
650.21	25942.50
650.36	26206.98
650.51	25905.05
650.65	26143.78
650.80	26312.30
650.94	26036.12
651.09	25748.23
651.23	25944.84
651.38	25708.44
651.52	25722.49
651.67	25900.37
651.81	25900.37
651.96	25921.43
652.10	25579.71
652.25	25467.37
652.39	26047.82
652.54	26080.59
652.68	26174.21
652.83	25710.78
652.97	26082.93
653.12	25797.38
653.26	25621.84
653.41	25785.68
653.55	26061.87
653.70	25324.60
653.84	25640.57
653.99	25453.33
654.13	25626.53
654.27	25781.00
654.42	25528.22
654.56	25771.64
654.71	25163.10
654.85	25500.14
655.00	25481.41
655.14	25553.97
655.29	25441.62
655.43	25652.27
655.57	25184.16
655.72	25160.76
655.86	25095.22
656.01	25352.68
656.15	24877.55
656.30	25034.37
656.44	25282.47
656.58	25036.71
656.73	25179.48
656.87	25123.31
657.01	25500.14
657.16	25268.42
657.30	25287.15
657.45	25348.00
657.59	25097.56
657.73	25205.23
657.88	25046.07
658.02	25027.35
658.16	24989.90
658.31	24999.26
658.45	25209.91
658.60	24629.46
658.74	24987.56
658.88	24720.74
659.03	24732.44
659.17	24629.46
659.31	24854.15
659.46	25015.65
659.60	24947.77
659.74	25144.38
659.89	24704.35
660.03	24610.73
660.17	24751.17
660.32	24652.86
660.46	24655.20
660.60	24510.09
660.74	24580.31
660.89	24711.38
661.03	24224.54
661.17	24318.17
661.32	24657.54
661.46	24512.43
661.60	24299.44
661.74	24308.80
661.89	24716.06
662.03	24669.25
662.17	24079.43
662.31	24388.38
662.46	24477.32
662.60	24500.73
662.74	24018.58
662.88	23999.85
663.03	24037.30
663.17	24130.92
663.31	23910.91
663.45	23775.16
663.60	23868.78
663.74	23576.22
663.88	23939.00
664.02	24252.63
664.17	24013.90
664.31	23974.11
664.45	23896.87
664.59	23836.02
664.73	23852.40
664.88	23803.25
665.02	23709.63
665.16	23269.61
665.30	23730.69
665.44	23772.82
665.59	23023.85
665.73	23578.56
665.87	23503.66
666.01	23351.52
666.15	23487.28
666.29	23520.04
666.44	23330.46
666.58	23517.70
666.72	23386.63
666.86	23683.88
667.00	23529.41
667.14	23309.40
667.28	23293.01
667.43	23388.97
667.57	22824.90
667.71	23278.97
667.85	22965.34
667.99	22651.70
668.13	22651.70
668.27	23161.94
668.41	23026.19
668.56	22944.27
668.70	23002.78
668.84	22902.14
668.98	22944.27
669.12	22679.79
669.26	22822.56
669.40	22796.82
669.54	22260.84
669.68	22546.38
669.82	22396.59
669.96	22581.49
670.10	22178.92
670.25	22129.77
670.39	22396.59
670.53	22216.36
670.67	22368.50
670.81	22232.75
670.95	22457.44
671.09	22698.52
671.23	22366.16
671.37	22396.59
671.51	22354.46
671.65	22197.64
671.79	22092.32
671.93	21834.86
672.07	22099.34
672.21	21893.37
672.35	21949.54
672.49	21542.29
672.63	21839.54
672.77	21675.70
672.91	21867.63
673.05	21537.61
673.19	21874.65
673.33	21577.40
673.47	21383.13
673.61	21755.28
673.75	21884.01
673.89	21413.56
674.03	21474.42
674.17	21256.75
674.31	21184.19
674.45	21240.36
674.59	21638.25
674.73	21273.13
674.87	21088.23
675.01	20952.48
675.15	20484.37
675.29	20858.85
675.43	20753.53
675.56	21095.25
675.70	20833.11
675.84	20933.75
675.98	20477.35
676.12	20884.60
676.26	20774.60
676.40	20947.79
676.54	20758.21
676.68	20610.76
676.82	20056.05
676.96	20505.43
677.10	20313.51
677.23	20276.06
677.37	20222.23
677.51	20112.22
677.65	20273.72
677.79	19903.92
677.93	20116.90
678.07	20079.46
678.21	19728.38
678.34	20130.95
678.48	19424.11
678.62	19695.61
678.76	19487.30
678.90	19463.90
679.04	19421.77
679.18	19398.36
679.31	19494.32
679.45	19428.79
679.59	19552.84
679.73	19311.76
679.87	19140.90
680.00	18855.36
680.14	18864.72
680.28	18822.59
680.42	19173.67
680.56	19105.79
680.70	19108.13
680.83	19047.28
680.97	18569.81
681.11	18857.70
681.25	18867.06
681.39	18607.26
681.52	18586.19
681.66	18651.73
681.80	18087.66
681.94	18319.37
682.07	18539.38
682.21	17980.00
682.35	18153.20
682.49	18162.56
682.62	18073.62
682.76	17991.70
682.90	18026.81
683.04	17998.72
683.17	17905.10
683.31	17848.93
683.45	17944.89
683.59	17898.08
683.72	17788.07
683.86	17898.08
684.00	17802.11
684.13	17582.10
684.27	17720.20
684.41	17635.94
684.55	17661.68
684.68	17376.14
684.82	17326.99
684.96	16933.78
685.09	17551.68
685.23	16908.03
685.37	16954.84
685.50	17364.43
685.64	17376.14
685.78	17142.08
685.91	16947.82
686.05	17160.81
686.19	16648.23
686.32	16816.75
686.46	16629.51
686.60	16568.65
686.73	16685.68
686.87	16395.45
687.01	16418.86
687.14	16121.61
687.28	16229.27
687.42	16116.93
687.55	16248.00
687.69	16145.02
687.82	16093.52
687.96	15948.41
688.10	16283.11
688.23	15953.09
688.37	16173.10
688.50	15772.87
688.64	16035.01
688.78	15927.35
688.91	15894.58
689.05	15662.86
689.18	15688.61
689.32	15351.57
689.46	15337.53
689.59	15536.48
689.73	15499.03
689.86	15208.80
690.00	15330.51
690.13	15372.64
690.27	15286.04
690.41	15475.62
690.54	14963.04
690.68	15119.86
690.81	15157.31
690.95	14984.11
691.08	15199.44
691.22	14745.38
691.35	14682.18
691.49	14539.41
691.62	14792.19
691.76	14743.03
691.89	14843.68
692.03	14569.83
692.16	14434.08
692.30	14094.71
692.43	14478.55
692.57	14267.91
692.70	14054.92
692.84	14150.88
692.97	14193.01
693.11	14197.69
693.24	14281.95
693.38	14120.45
693.51	14085.34
693.65	14097.05
693.78	14047.90
693.92	13937.89
694.05	14087.68
694.19	13710.86
694.32	13769.37
694.45	13371.48
694.59	13483.83
694.72	13401.91
694.86	13193.60
694.99	13078.91
695.13	13296.58
695.26	13158.49
695.39	12989.97
695.53	13097.64
695.66	13481.49
695.80	13228.71
695.93	13139.77
696.07	13027.42
696.20	12952.52
696.33	12889.33
696.47	13156.15
696.60	12828.48
696.73	12814.43
696.87	12631.87
697.00	12465.69
697.14	12561.66
697.27	12280.79
697.40	12336.96
697.54	12418.88
697.67	12058.44
697.80	12390.80
697.94	12243.34
698.07	12250.36
698.21	11948.43
698.34	12215.26
698.47	12243.34
698.61	11913.33
698.74	12182.49
698.87	11992.90
699.01	11964.82
699.14	11854.81
699.27	11843.11
699.40	11910.99
699.54	11800.98
699.67	11742.47
699.80	11618.42
699.94	11459.26
700.07	11438.20
700.20	11463.94
700.34	11241.59
700.47	11283.72
700.60	11431.18
700.73	11309.47
700.87	11279.04
701.00	11096.48
701.13	11243.93
701.26	11220.53
701.40	11304.79
701.53	11073.07
701.66	10972.43
701.79	10913.92
701.93	10878.81
702.06	10995.84
702.19	10530.07
702.32	10544.11
702.46	10656.46
702.59	10642.42
702.72	10415.38
702.85	10450.49
702.99	10525.39
703.12	10399.00
703.25	10422.41
703.38	10300.70
703.51	10289.00
703.65	10160.27
703.78	10127.50
703.91	10099.41
704.04	10319.42
704.17	10300.70
704.31	9926.21
704.44	9973.02
704.57	10036.22
704.70	9781.10
704.83	9650.03
704.96	9846.63
705.10	9722.59
705.23	9703.86
>>>>>End Processed Spectral Data<<<<<
