SpectraSuite Data File
++++++++++++++++++++++++++++++++++++
Date: Fri Oct 18 13:57:58 GMT-05:00 2013
User: bianchi
Dark Spectrum Present: No
Reference Spectrum Present: No
Number of Sampled Component Spectra: 1
Spectrometers: USB2+H05261
Integration Time (usec): 50000 (USB2+H05261)
Spectra Averaged: 1 (USB2+H05261)
Boxcar Smoothing: 0 (USB2+H05261)
Correct for Electrical Dark: No (USB2+H05261)
Strobe/Lamp Enabled: No (USB2+H05261)
Correct for Detector Non-linearity: No (USB2+H05261)
Correct for Stray Light: No (USB2+H05261)
Number of Pixels in Processed Spectrum: 2048
>>>>>Begin Processed Spectral Data<<<<<
365.73	0.00
365.92	0.00
366.12	0.00
366.32	0.00
366.52	0.00
366.72	0.00
366.91	0.00
367.11	0.00
367.31	0.00
367.51	0.00
367.70	0.00
367.90	0.00
368.10	0.00
368.30	0.00
368.49	0.00
368.69	0.00
368.89	0.00
369.09	0.00
369.28	0.00
369.48	0.00
369.68	0.00
369.87	0.00
370.07	0.00
370.27	0.00
370.47	0.00
370.66	46.81
370.86	182.56
371.06	156.82
371.25	154.48
371.45	95.96
371.65	70.22
371.84	189.58
372.04	168.52
372.24	147.45
372.44	168.52
372.63	212.99
372.83	191.92
373.03	194.26
373.22	278.52
373.42	154.48
373.62	154.48
373.81	163.84
374.01	184.90
374.21	271.50
374.40	220.01
374.60	299.59
374.79	187.24
374.99	231.71
375.19	280.86
375.38	283.20
375.58	224.69
375.78	287.89
375.97	227.03
376.17	290.23
376.37	353.42
376.56	290.23
376.76	177.88
376.95	283.20
377.15	301.93
377.35	224.69
377.54	227.03
377.74	318.31
377.93	306.61
378.13	266.82
378.33	271.50
378.52	264.48
378.72	290.23
378.91	299.59
379.11	273.84
379.31	285.55
379.50	276.18
379.70	266.82
379.89	365.12
380.09	306.61
380.28	341.72
380.48	322.99
380.68	299.59
380.87	271.50
381.07	362.78
381.26	355.76
381.46	351.08
381.65	280.86
381.85	308.95
382.04	315.97
382.24	313.63
382.43	407.25
382.63	421.30
382.83	320.65
383.02	327.68
383.22	304.27
383.41	372.15
383.61	365.12
383.80	379.17
384.00	320.65
384.19	325.33
384.39	404.91
384.58	337.04
384.78	411.93
384.97	365.12
385.17	355.76
385.36	351.08
385.56	367.46
385.75	374.49
385.95	402.57
386.14	397.89
386.34	433.00
386.53	397.89
386.72	409.59
386.92	402.57
387.11	503.22
387.31	458.74
387.50	402.57
387.70	383.85
387.89	430.66
388.09	454.06
388.28	507.90
388.48	388.53
388.67	554.71
388.86	498.53
389.06	489.17
389.25	498.53
389.45	454.06
389.64	440.02
389.84	533.64
390.03	589.82
390.22	425.98
390.42	395.55
390.61	519.60
390.81	500.87
391.00	500.87
391.19	498.53
391.39	505.56
391.58	442.36
391.78	538.32
391.97	557.05
392.16	531.30
392.36	554.71
392.55	554.71
392.75	601.52
392.94	592.16
393.13	507.90
393.33	589.82
393.52	564.07
393.71	554.71
393.91	599.18
394.10	578.11
394.29	575.77
394.49	587.47
394.68	601.52
394.88	592.16
395.07	655.35
395.26	557.05
395.46	706.84
395.65	660.03
395.84	599.18
396.04	758.33
396.23	592.16
396.42	641.31
396.62	631.94
396.81	690.46
397.00	648.33
397.19	648.33
397.39	657.69
397.58	734.93
397.77	657.69
397.97	727.91
398.16	723.23
398.35	734.93
398.55	699.82
398.74	676.41
398.93	690.46
399.12	767.70
399.32	713.86
399.51	732.59
399.70	711.52
399.90	727.91
400.09	741.95
400.28	727.91
400.47	767.70
400.67	922.17
400.86	795.78
401.05	788.76
401.24	800.46
401.44	861.32
401.63	854.30
401.82	837.91
402.01	866.00
402.21	760.67
402.40	924.51
402.59	856.64
402.78	875.36
402.97	973.66
403.17	851.96
403.36	854.30
403.55	821.53
403.74	915.15
403.93	901.11
404.13	973.66
404.32	936.21
404.51	978.34
404.70	889.40
404.89	933.87
405.09	966.64
405.28	994.73
405.47	971.32
405.66	924.51
405.85	1022.81
406.05	866.00
406.24	968.98
406.43	966.64
406.62	1083.67
406.81	1109.41
407.00	1116.44
407.20	926.85
407.39	997.07
407.58	1018.13
407.77	1041.54
407.96	1032.18
408.15	1095.37
408.34	1111.75
408.54	1006.43
408.73	1090.69
408.92	1139.84
409.11	1249.85
409.30	1212.40
409.49	1123.46
409.68	1118.78
409.87	1114.10
410.07	1181.97
410.26	1245.16
410.45	1266.23
410.64	1163.25
410.83	1273.25
411.02	1263.89
411.21	1205.38
411.40	1299.00
411.59	1249.85
411.78	1268.57
411.98	1371.55
412.17	1334.11
412.36	1287.29
412.55	1357.51
412.74	1444.11
412.93	1390.28
413.12	1338.79
413.31	1486.24
413.50	1322.40
413.69	1458.15
413.88	1427.73
414.07	1465.18
414.26	1497.94
414.45	1411.34
414.64	1383.26
414.83	1474.54
415.02	1504.96
415.22	1533.05
415.41	1603.27
415.60	1647.74
415.79	1570.50
415.98	1671.14
416.17	1586.88
416.36	1687.53
416.55	1598.59
416.74	1746.04
416.93	1720.29
417.12	1790.51
417.31	1729.66
417.50	1783.49
417.69	1802.21
417.88	1839.66
418.07	1687.53
418.26	1827.96
418.45	1851.36
418.64	1956.69
418.83	1895.83
419.02	1757.74
419.21	1858.39
419.39	1856.04
419.58	1792.85
419.77	1839.66
419.96	1865.41
420.15	1935.62
420.34	1902.86
420.53	1900.52
420.72	1998.82
420.91	1944.99
421.10	1975.41
421.29	1914.56
421.48	1998.82
421.67	1916.90
421.86	1991.80
422.05	2008.18
422.24	1984.77
422.43	1926.26
422.61	2054.99
422.80	2057.33
422.99	1980.09
423.18	2054.99
423.37	2111.16
423.56	2092.44
423.75	2029.24
423.94	2003.50
424.13	1940.30
424.32	1980.09
424.50	2076.06
424.69	2059.67
424.88	2136.91
425.07	2066.69
425.26	2073.71
425.45	1959.03
425.64	2090.10
425.83	2073.71
426.01	2157.97
426.20	2090.10
426.39	2076.06
426.58	2120.53
426.77	2153.29
426.96	2165.00
427.15	2157.97
427.33	2153.29
427.52	2153.29
427.71	2232.87
427.90	2176.70
428.09	2221.17
428.28	2113.50
428.46	2235.21
428.65	2286.70
428.84	2186.06
429.03	2326.49
429.22	2186.06
429.40	2427.14
429.59	2321.81
429.78	2221.17
429.97	2157.97
430.16	2279.68
430.34	2340.54
430.53	2354.58
430.72	2373.30
430.91	2352.24
431.10	2370.96
431.28	2436.50
431.47	2387.35
431.66	2469.27
431.85	2518.42
432.03	2436.50
432.22	2511.39
432.41	2424.80
432.60	2516.08
432.79	2605.02
432.97	2583.95
433.16	2572.25
433.35	2420.11
433.54	2640.12
433.72	2457.56
433.91	2569.91
434.10	2579.27
434.28	2583.95
434.47	2668.21
434.66	2619.06
434.85	2567.57
435.03	2719.70
435.22	2595.65
435.41	2761.83
435.59	2743.11
435.78	2579.27
435.97	2719.70
436.16	2768.85
436.34	2729.06
436.53	2675.23
436.72	2785.24
436.90	2736.09
437.09	2860.13
437.28	2726.72
437.46	2771.19
437.65	2733.75
437.84	2775.88
438.02	2834.39
438.21	2820.35
438.40	2862.48
438.58	2904.60
438.77	2953.76
438.96	2995.89
439.14	2998.23
439.33	2827.37
439.52	3012.27
439.70	2991.20
439.89	3040.36
440.08	2956.10
440.26	2979.50
440.45	3073.12
440.63	3148.02
440.82	3119.93
441.01	3180.79
441.19	3232.28
441.38	3276.75
441.57	3194.83
441.75	3365.69
441.94	3314.20
442.12	3295.47
442.31	3384.41
442.50	3304.84
442.68	3269.73
442.87	3482.72
443.05	3288.45
443.24	3538.89
443.43	3358.67
443.61	3459.31
443.80	3679.32
443.98	3272.07
444.17	3293.13
444.35	3440.59
444.54	3552.93
444.73	3487.40
444.91	3590.38
445.10	3524.85
445.28	3574.00
445.47	3412.50
445.65	3417.18
445.84	3503.78
446.02	3506.12
446.21	3623.15
446.39	3501.44
446.58	3564.64
446.77	3510.80
446.95	3543.57
447.14	3660.60
447.32	3557.61
447.51	3606.77
447.69	3555.27
447.88	3494.42
448.06	3545.91
448.25	3712.09
448.43	3655.92
448.62	3590.38
448.80	3616.13
448.99	3646.55
449.17	3588.04
449.36	3527.19
449.54	3819.75
449.73	3815.07
449.91	3892.31
450.10	3857.20
450.28	3805.71
450.46	3899.33
450.65	3901.67
450.83	3983.59
451.02	3871.25
451.20	3861.88
451.39	3854.86
451.57	3836.14
451.76	3803.37
451.94	3871.25
452.13	3992.95
452.31	3960.19
452.49	3803.37
452.68	3988.27
452.86	3918.06
453.05	3962.53
453.23	4079.55
453.42	3889.97
453.60	4002.32
453.78	4098.28
453.97	4095.94
454.15	3971.89
454.34	3948.48
454.52	4084.23
454.70	4161.47
454.89	4140.41
455.07	4121.68
455.26	4121.68
455.44	4234.03
455.62	4072.53
455.81	4227.01
455.99	4234.03
456.17	4299.56
456.36	4271.48
456.54	4283.18
456.73	4262.12
456.91	4503.19
457.09	4374.46
457.28	4578.09
457.46	4327.65
457.64	4465.74
457.83	4526.60
458.01	4538.30
458.19	4517.23
458.38	4374.46
458.56	4465.74
458.74	4432.97
458.93	4465.74
459.11	4753.63
459.29	4617.88
459.48	4575.75
459.66	4793.42
459.84	4746.61
460.03	4662.35
460.21	4589.79
460.39	4627.24
460.57	4613.20
460.76	4650.64
460.94	4695.11
461.12	4734.90
461.31	4713.84
461.49	4704.48
461.67	4751.29
461.85	4943.21
462.04	4746.61
462.22	5062.58
462.40	4786.40
462.59	4772.35
462.77	4856.61
462.95	4947.89
463.13	4854.27
463.32	4978.32
463.50	5022.79
463.68	4957.25
463.86	4994.70
464.05	5029.81
464.23	4959.60
464.41	5095.35
464.59	4819.16
464.78	5231.10
464.96	4924.49
465.14	4877.68
465.32	4971.30
465.50	5046.20
465.69	5256.84
465.87	5114.07
466.05	5228.76
466.23	5139.82
466.41	5025.13
466.60	5280.25
466.78	5125.77
466.96	5179.61
467.14	5174.92
467.32	5263.86
467.51	5329.40
467.69	5048.54
467.87	5252.16
468.05	5263.86
468.23	5226.42
468.41	5125.77
468.60	5320.04
468.78	5362.17
468.96	5331.74
469.14	5341.10
469.32	5277.91
469.50	5327.06
469.69	5455.79
469.87	5530.69
470.05	5598.56
470.23	5507.28
470.41	5591.54
470.59	5593.88
470.77	5500.26
470.95	5504.94
471.14	5631.33
471.32	5600.90
471.50	5762.40
471.68	5722.61
471.86	5914.53
472.04	5722.61
472.22	5919.21
472.40	5804.53
472.58	5837.30
472.77	5797.51
472.95	5841.98
473.13	6106.46
473.31	6073.69
473.49	5970.71
473.67	5877.09
473.85	5966.03
474.03	6328.81
474.21	6005.81
474.39	6183.70
474.57	6202.42
474.75	6286.68
474.93	6274.98
475.12	6387.32
475.30	6237.53
475.48	6179.01
475.66	6363.92
475.84	6546.48
476.02	6429.45
476.20	6445.84
476.38	6527.75
476.56	6597.97
476.74	6717.34
476.92	6761.81
477.10	6839.05
477.28	6738.40
477.46	6731.38
477.64	6726.70
477.82	7150.34
478.00	7101.19
478.18	7155.02
478.36	7091.82
478.54	7103.53
478.72	7105.87
478.90	7353.96
479.08	7522.48
479.26	7351.62
479.44	7531.84
479.62	7445.24
479.80	7321.20
479.98	7473.33
480.16	7812.71
480.34	7719.09
480.52	7929.74
480.70	7758.88
480.88	7866.54
481.06	7812.71
481.24	7871.22
481.41	8051.44
481.59	8145.06
481.77	7925.05
481.95	8252.73
482.13	8259.75
482.31	8175.49
482.49	8636.58
482.67	8416.57
482.85	8475.08
483.03	8681.05
483.21	8727.86
483.39	8814.46
483.57	8744.24
483.74	8706.79
483.92	8870.63
484.10	9095.32
484.28	9125.75
484.46	9200.65
484.64	9350.44
484.82	9235.75
485.00	9240.44
485.18	9474.49
485.35	9708.54
485.53	9645.35
485.71	9614.92
485.89	9722.59
486.07	9755.35
486.25	9853.66
486.43	9650.03
486.61	10106.43
486.78	10057.28
486.96	10181.33
487.14	10328.78
487.32	10267.93
487.50	10401.34
487.68	10583.90
487.85	10895.19
488.03	10726.68
488.21	10670.50
488.39	10869.45
488.57	10839.02
488.75	11052.01
488.92	11023.92
489.10	11192.44
489.28	11290.74
489.46	11503.73
489.64	11321.17
489.81	11346.92
489.99	11756.51
490.17	11681.61
490.35	11688.64
490.53	11707.36
490.70	12030.35
490.88	11927.37
491.06	11880.56
491.24	11960.14
491.41	11985.88
491.59	12081.85
491.77	12283.13
491.95	12528.89
492.13	12786.35
492.30	12620.17
492.48	12608.47
492.66	12519.53
492.84	12760.60
493.01	12746.56
493.19	12933.80
493.37	12982.95
493.54	13207.64
493.72	13095.30
493.90	13146.79
494.08	13301.26
494.25	13579.79
494.43	13327.01
494.61	13516.59
494.79	13650.00
494.96	13586.81
495.14	13617.24
495.32	13994.06
495.49	13781.07
495.67	13877.04
495.85	13923.85
496.02	14347.48
496.20	14256.20
496.38	14214.07
496.55	14232.80
496.73	14501.96
496.91	14618.99
497.09	14759.42
497.26	14728.99
497.44	14677.50
497.62	14759.42
497.79	14888.15
497.97	14574.52
498.14	14869.42
498.32	15201.78
498.50	15140.93
498.67	15379.66
498.85	15215.82
499.03	15309.44
499.20	15468.60
499.38	15279.02
499.56	15356.25
499.73	15536.48
499.91	15534.14
500.08	15903.94
500.26	15559.88
500.44	15733.08
500.61	16042.03
500.79	15803.30
500.97	16126.29
501.14	16559.29
501.32	16519.50
501.49	15866.49
501.67	16180.12
501.84	16353.32
502.02	16322.90
502.20	16470.35
502.37	16428.22
502.55	16664.61
502.72	16669.30
502.90	16807.39
503.07	16444.60
503.25	16765.26
503.43	16699.72
503.60	16837.81
503.78	16933.78
503.95	17062.51
504.13	17057.82
504.30	16954.84
504.48	17111.66
504.65	17130.38
504.83	17263.79
505.01	17401.88
505.18	17315.28
505.36	17619.55
505.53	17547.00
505.71	17565.72
505.88	17579.76
506.06	17640.62
506.23	17834.88
506.41	17516.57
506.58	17741.26
506.76	17998.72
506.93	18153.20
507.11	17893.40
507.28	17912.12
507.46	18017.44
507.63	18160.22
507.81	18171.92
507.98	18047.87
508.16	18333.42
508.33	17975.31
508.50	18242.14
508.68	18588.53
508.85	18665.77
509.03	18445.76
509.20	18733.65
509.38	18897.49
509.55	18611.94
509.73	18677.48
509.90	18778.12
510.08	18822.59
510.25	18764.07
510.42	19154.94
510.60	19199.41
510.77	19187.71
510.95	19143.24
511.12	18923.23
511.30	18904.51
511.47	19466.24
511.64	19499.00
511.82	19487.30
511.99	19555.18
512.17	19335.17
512.34	19522.41
512.51	19529.43
512.69	19707.31
512.86	19609.01
513.04	20063.07
513.21	20034.99
513.38	19955.41
513.56	19915.62
513.73	19660.50
513.90	19840.72
514.08	20013.92
514.25	20081.80
514.43	20336.91
514.60	20360.32
514.77	20252.66
514.95	20613.10
515.12	20336.91
515.29	20236.27
515.47	20570.97
515.64	20402.45
515.81	20245.63
515.99	20547.56
516.16	20882.26
516.33	20704.38
516.51	20884.60
516.68	20896.30
516.85	20851.83
517.03	21116.31
517.20	21406.54
517.37	20727.78
517.54	21027.37
517.72	20999.29
517.89	20959.50
518.06	21223.98
518.24	21235.68
518.41	21209.93
518.58	21324.62
518.75	21207.59
518.93	21549.31
519.10	21685.06
519.27	21558.67
519.45	21399.52
519.62	21539.95
519.79	21270.79
519.96	21745.92
520.14	21881.67
520.31	21537.61
520.48	21785.71
520.65	21628.89
520.83	21961.25
521.00	21701.45
521.17	22061.89
521.34	21989.33
521.52	22125.08
521.69	22405.95
521.86	22333.39
522.03	22487.87
522.20	22267.86
522.38	22309.99
522.55	22174.24
522.72	22274.88
522.89	22368.50
523.07	22600.21
523.24	22614.26
523.41	22677.45
523.58	22609.58
523.75	22993.42
523.92	22480.85
524.10	22668.09
524.27	22675.11
524.44	22965.34
524.61	23164.28
524.78	23344.50
524.96	22916.19
525.13	23293.01
525.30	23082.36
525.47	23152.58
525.64	23019.17
525.81	23302.37
525.98	23517.70
526.16	23424.08
526.33	23138.54
526.50	23520.04
526.67	23545.79
526.84	23569.19
527.01	23447.49
527.18	23676.86
527.36	23592.60
527.53	23779.84
527.70	23920.28
527.87	24081.77
528.04	23735.37
528.21	23639.41
528.38	23840.70
528.55	23784.52
528.72	23915.59
528.89	23735.37
529.07	24161.35
529.24	23887.51
529.41	24254.97
529.58	23906.23
529.75	24137.94
529.92	24170.71
530.09	24395.40
530.26	24318.17
530.43	24238.59
530.60	23943.68
530.77	24037.30
530.94	25022.67
531.11	24278.38
531.28	24280.72
531.46	24407.11
531.63	24592.01
531.80	24758.19
531.97	24779.25
532.14	25015.65
532.31	24786.27
532.48	24519.45
532.65	24652.86
532.82	24767.55
532.99	24828.40
533.16	24652.86
533.33	25116.29
533.50	25434.60
533.67	24903.30
533.84	24786.27
534.01	24943.09
534.18	24994.58
534.35	25390.13
534.52	25305.87
534.69	25310.55
534.86	25556.31
535.03	24968.84
535.20	25312.89
535.37	25308.21
535.54	25364.39
535.71	25586.74
535.88	25551.63
536.05	25483.75
536.22	25708.44
536.38	25680.36
536.55	25413.54
536.72	25628.87
536.89	25245.02
537.06	25788.02
537.23	25806.75
537.40	25680.36
537.57	25888.67
537.74	25942.50
537.91	25944.84
538.08	26143.78
538.25	25699.08
538.42	26136.76
538.59	26127.40
538.75	25958.88
538.92	26064.21
539.09	26199.96
539.26	26059.52
539.43	26136.76
539.60	26192.94
539.77	25949.52
539.94	26342.73
540.11	26508.91
540.28	26246.77
540.44	26087.61
540.61	26150.81
540.78	26228.04
540.95	26417.63
541.12	26473.80
541.29	26529.97
541.46	26387.20
541.62	26001.01
541.79	26656.36
541.96	26085.27
542.13	26312.30
542.30	26593.17
542.47	26738.28
542.63	26679.77
542.80	26885.73
542.97	27054.25
543.14	26810.84
543.31	27314.05
543.48	27072.98
543.64	27075.32
543.81	26885.73
543.98	27407.67
544.15	27360.86
544.32	27016.80
544.48	27489.59
544.65	27246.18
544.82	27384.27
544.99	27138.51
545.16	27145.53
545.32	26958.29
545.49	28056.00
545.66	27641.73
545.83	27934.29
546.00	27962.38
546.16	27145.53
546.33	27524.70
546.50	27316.39
546.67	27243.84
546.83	27307.03
547.00	27414.69
547.17	27878.12
547.34	27477.89
547.50	27632.36
547.67	28056.00
547.84	28201.11
548.00	27889.82
548.17	28313.46
548.34	27737.69
548.51	28166.01
548.67	27798.54
548.84	28187.07
549.01	27709.60
549.18	28018.55
549.34	27885.14
549.51	27871.10
549.68	27967.06
549.84	27821.95
550.01	28203.46
550.18	28149.62
550.34	27941.32
550.51	28451.55
550.68	28479.64
550.84	27763.43
551.01	28217.50
551.18	28002.17
551.34	28137.92
551.51	28369.63
551.68	28470.28
551.84	28563.90
552.01	28156.64
552.18	28634.11
552.34	28711.35
552.51	28786.25
552.68	28657.52
552.84	28542.83
553.01	29039.03
553.18	28610.71
553.34	28950.09
553.51	28706.67
553.67	28844.76
553.84	28683.27
554.01	28533.47
554.17	28992.22
554.34	28847.10
554.51	28746.46
554.67	28634.11
554.84	29106.90
555.00	28662.20
555.17	28542.83
555.33	28966.47
555.50	28954.77
555.67	29001.58
555.83	28882.21
556.00	28945.41
556.16	29200.52
556.33	28903.28
556.50	28816.68
556.66	29195.84
556.83	28833.06
556.99	29013.28
557.16	29481.39
557.32	29563.31
557.49	29160.73
557.65	28938.38
557.82	29294.14
557.98	29144.35
558.15	29104.56
558.32	29347.98
558.48	29216.91
558.65	29490.75
558.81	29635.86
558.98	29366.70
559.14	29425.22
559.31	28676.24
559.47	29343.30
559.64	29628.84
559.80	29544.58
559.97	29432.24
560.13	29184.14
560.30	29537.56
560.46	29560.97
560.63	29551.60
560.79	29670.97
560.96	29582.03
561.12	29153.71
561.29	29474.37
561.45	29462.66
561.61	29724.80
561.78	29930.77
561.94	29441.60
562.11	29895.66
562.27	29834.81
562.44	29752.89
562.60	30066.52
562.77	29589.05
562.93	29575.01
563.10	29853.53
563.26	29619.48
563.42	30143.76
563.59	29663.95
563.75	30162.48
563.92	30127.38
564.08	29727.14
564.24	29572.67
564.41	29862.90
564.57	29968.22
564.74	30071.20
564.90	30040.78
565.07	30181.21
565.23	29830.13
565.39	30075.88
565.56	30071.20
565.72	30005.67
565.88	30387.18
566.05	29933.11
566.21	30134.40
566.38	30003.33
566.54	30249.08
566.70	30452.71
566.87	30398.88
567.03	30513.56
567.19	30693.79
567.36	30342.70
567.52	30120.35
567.68	30424.62
567.85	30302.92
568.01	30022.05
568.17	30052.48
568.34	30005.67
568.50	30307.60
568.66	30073.54
568.83	30525.27
568.99	30415.26
569.15	29909.71
569.32	30087.59
569.48	29923.75
569.64	30473.78
569.81	30389.52
569.97	30206.95
570.13	30466.75
570.30	30284.19
570.46	30464.41
570.62	30433.99
570.78	30157.80
570.95	30499.52
571.11	30286.53
571.27	29961.20
571.43	30349.73
571.60	30518.25
571.76	30026.73
571.92	30497.18
572.09	30508.88
572.25	30576.76
572.41	30745.28
572.57	30349.73
572.74	30543.99
572.90	30101.63
573.06	30141.42
573.22	30555.69
573.38	30204.61
573.55	30691.44
573.71	30878.69
573.87	30733.57
574.03	30724.21
574.20	30096.95
574.36	30441.01
574.52	30419.94
574.68	30511.22
574.84	30380.15
575.01	30277.17
575.17	30803.79
575.33	30263.13
575.49	30192.91
575.65	30843.58
575.82	30412.92
575.98	30305.26
576.14	30703.15
576.30	30543.99
576.46	30539.31
576.62	30422.28
576.79	30583.78
576.95	30520.59
577.11	30504.20
577.27	30841.24
577.43	30639.95
577.59	30754.64
577.75	30558.03
577.92	30881.03
578.08	30382.49
578.24	30565.06
578.40	30632.93
578.56	30932.52
578.72	30684.42
578.88	30972.31
579.04	30843.58
579.21	30625.91
579.37	30630.59
579.53	30768.68
579.69	30539.31
579.85	30522.93
580.01	31131.47
580.17	30415.26
580.33	30595.48
580.49	30916.14
580.65	30607.19
580.82	31253.17
580.98	30822.51
581.14	31276.58
581.30	31257.85
581.46	30668.04
581.62	30780.39
581.78	30476.12
581.94	30857.62
582.10	30920.82
582.26	30520.59
582.42	30794.43
582.58	30773.36
582.74	30574.42
582.90	30782.73
583.06	30621.23
583.22	30897.41
583.38	30822.51
583.54	30866.98
583.70	30384.83
583.86	30651.66
584.02	30906.77
584.18	30845.92
584.34	31229.77
584.50	31063.59
584.66	31103.38
584.82	30876.35
584.98	30691.44
585.14	30661.02
585.30	30354.41
585.46	31035.50
585.62	30614.21
585.78	30834.22
585.94	30927.84
586.10	31040.18
586.26	30892.73
586.42	31037.84
586.58	31311.69
586.74	30850.60
586.90	30572.08
587.06	30312.28
587.22	31157.21
587.38	31065.93
587.54	30923.16
587.70	31494.25
587.86	30960.61
588.02	30616.55
588.18	31335.09
588.34	31016.78
588.49	30911.46
588.65	30789.75
588.81	30995.71
588.97	30752.30
589.13	31299.98
589.29	30920.82
589.45	30824.86
589.61	31386.58
589.77	31171.25
589.93	31482.55
590.08	31098.70
590.24	31243.81
590.40	31229.77
590.56	31173.60
590.72	31218.07
590.88	30923.16
591.04	31021.46
591.20	31047.21
591.35	31307.01
591.51	31761.07
591.67	31597.23
591.83	31508.29
591.99	31510.63
592.15	31220.41
592.31	31285.94
592.46	30817.83
592.62	30881.03
592.78	31161.89
592.94	31161.89
593.10	31101.04
593.26	31295.30
593.41	31559.78
593.57	31498.93
593.73	31103.38
593.89	31571.49
594.05	31489.57
594.20	31087.00
594.36	31409.99
594.52	30995.71
594.68	31110.40
594.84	30904.43
594.99	31517.65
595.15	31211.04
595.31	31442.76
595.47	31491.91
595.62	31332.75
595.78	31215.72
595.94	31019.12
596.10	31613.62
596.25	31152.53
596.41	31391.26
596.57	31178.28
596.73	31110.40
596.88	31194.66
597.04	31309.35
597.20	31562.12
597.36	31569.15
597.51	31606.59
597.67	31236.79
597.83	31360.84
597.99	31580.85
598.14	31358.50
598.30	31161.89
598.46	31002.74
598.61	31754.05
598.77	31498.93
598.93	31447.44
599.09	31835.97
599.24	31688.51
599.40	31714.26
599.56	31875.76
599.71	31524.68
599.87	31770.43
600.03	31213.38
600.18	31243.81
600.34	31295.30
600.50	31173.60
600.65	31267.22
600.81	31419.35
600.97	31407.65
601.12	31948.31
601.28	31686.17
601.44	31541.06
601.59	31346.79
601.75	31538.72
601.91	31730.64
602.06	31637.02
602.22	31665.11
602.37	31332.75
602.53	31388.92
602.69	31807.88
602.84	31021.46
603.00	31777.45
603.16	31791.50
603.31	31613.62
603.47	31721.28
603.62	31578.51
603.78	31253.17
603.94	31311.69
604.09	31943.63
604.25	31414.67
604.40	31599.57
604.56	31381.90
604.71	31901.50
604.87	31384.24
605.03	31798.52
605.18	31482.55
605.34	31505.95
605.49	31484.89
605.65	31604.25
605.80	31138.49
605.96	31653.40
606.12	31164.23
606.27	31189.98
606.43	31274.24
606.58	31613.62
606.74	31325.73
606.89	31517.65
607.05	31833.63
607.20	31531.70
607.36	31611.28
607.51	31070.61
607.67	31260.20
607.82	31424.03
607.98	31344.45
608.13	31367.86
608.29	31552.76
608.44	31330.41
608.60	31637.02
608.75	31288.28
608.91	31480.21
609.06	31297.64
609.22	31370.20
609.37	31213.38
609.53	31161.89
609.68	30845.92
609.84	30946.56
609.99	31026.14
610.15	30951.24
610.30	31065.93
610.46	31012.10
610.61	31512.97
610.76	31257.85
610.92	31269.56
611.07	31124.44
611.23	31386.58
611.38	31175.94
611.54	30984.01
611.69	30768.68
611.84	30871.67
612.00	30651.66
612.15	30806.13
612.31	31164.23
612.46	31012.10
612.62	31021.46
612.77	30918.48
612.92	31180.62
613.08	31323.39
613.23	31288.28
613.39	31019.12
613.54	30492.50
613.69	31407.65
613.85	30874.01
614.00	30960.61
614.15	31239.13
614.31	30951.24
614.46	31023.80
614.62	30808.47
614.77	30937.20
614.92	30761.66
615.08	30932.52
615.23	30745.28
615.38	30558.03
615.54	30848.26
615.69	30553.35
615.84	30703.15
616.00	30916.14
616.15	30635.27
616.30	30864.64
616.46	30993.37
616.61	30801.45
616.76	30946.56
616.92	30543.99
617.07	31175.94
617.22	30469.09
617.37	30426.96
617.53	30199.93
617.68	30520.59
617.83	30026.73
617.99	30782.73
618.14	30693.79
618.29	30478.46
618.45	30408.24
618.60	30789.75
618.75	30536.97
618.90	30735.92
619.06	30569.74
619.21	30663.36
619.36	30656.34
619.51	30410.58
619.67	30258.45
619.82	30349.73
619.97	30237.38
620.12	30206.95
620.28	30253.76
620.43	30539.31
620.58	30431.65
620.73	30759.32
620.89	30141.42
621.04	30558.03
621.19	30415.26
621.34	30480.80
621.49	29631.18
621.65	30178.87
621.80	30443.35
621.95	30038.44
622.10	29869.92
622.25	30150.78
622.41	30281.85
622.56	30204.61
622.71	30342.70
622.86	30017.37
623.01	30031.41
623.16	29954.18
623.32	29933.11
623.47	30354.41
623.62	30211.64
623.77	29977.58
623.92	29926.09
624.07	29895.66
624.23	30036.09
624.38	30003.33
624.53	30010.35
624.68	30139.08
624.83	30174.19
624.98	29970.56
625.13	29930.77
625.29	29844.17
625.44	29879.28
625.59	29745.87
625.74	29537.56
625.89	29523.52
626.04	29736.51
626.19	29689.70
626.34	29947.15
626.49	29771.61
626.65	29425.22
626.80	29825.45
626.95	29862.90
627.10	29844.17
627.25	29467.34
627.40	29617.14
627.55	29450.96
627.70	29310.53
627.85	29319.89
628.00	29450.96
628.15	29469.69
628.30	29549.26
628.45	29366.70
628.60	29134.99
628.76	29675.65
628.91	29287.12
629.06	29099.88
629.21	29441.60
629.36	29270.74
629.51	29315.21
629.66	29092.86
629.81	29116.26
629.96	29284.78
630.11	29329.25
630.26	28938.38
630.41	29326.91
630.56	28788.59
630.71	29305.85
630.86	29380.74
631.01	29036.69
631.16	28870.51
631.31	29069.45
631.46	29134.99
631.61	29336.27
631.76	28830.72
631.91	28758.16
632.06	29125.63
632.21	28865.83
632.36	28779.23
632.51	28676.24
632.66	28610.71
632.81	28746.46
632.96	28737.10
633.10	28760.50
633.25	28856.46
633.40	29144.35
633.55	28725.39
633.70	28535.81
633.85	28271.33
634.00	28629.43
634.15	28741.78
634.30	28285.37
634.45	28697.31
634.60	28755.82
634.75	28233.88
634.90	28439.85
635.05	28535.81
635.19	28559.22
635.34	28774.55
635.49	28779.23
635.64	28554.54
635.79	29081.16
635.94	28767.52
636.09	28540.49
636.24	28830.72
636.39	28779.23
636.53	28409.42
636.68	28355.59
636.83	28355.59
636.98	28673.90
637.13	28407.08
637.28	28414.10
637.43	28367.29
637.57	28369.63
637.72	28762.84
637.87	28437.51
638.02	28510.07
638.17	28283.03
638.32	27894.50
638.46	28142.60
638.61	28018.55
638.76	27889.82
638.91	28030.26
639.06	27936.63
639.20	28114.52
639.35	28350.91
639.50	28144.94
639.65	28276.01
639.80	27988.13
639.94	28081.75
640.09	28158.99
640.24	28058.34
640.39	27988.13
640.54	27805.56
640.68	27662.79
640.83	27962.38
640.98	28072.39
641.13	27704.92
641.27	28088.77
641.42	27594.92
641.57	27779.82
641.72	27587.89
641.86	27651.09
642.01	27597.26
642.16	27695.56
642.31	27843.01
642.45	27962.38
642.60	27569.17
642.75	27538.74
642.90	27435.76
643.04	27248.52
643.19	27627.68
643.34	27920.25
643.48	27531.72
643.63	27852.38
643.78	27882.80
643.93	27634.71
644.07	27475.55
644.22	27417.04
644.37	27356.18
644.51	27449.80
644.66	27779.82
644.81	27398.31
644.95	27164.26
645.10	27154.90
645.25	27175.96
645.39	27424.06
645.54	27417.04
645.69	27278.94
645.83	27297.67
645.98	27459.16
646.13	27435.76
646.27	27412.35
646.42	27250.86
646.57	27358.52
646.71	27454.48
646.86	27393.63
647.00	27344.48
647.15	27204.05
647.30	27213.41
647.44	26630.62
647.59	26962.97
647.74	27218.09
647.88	26925.52
648.03	26909.14
648.17	27550.45
648.32	27112.77
648.47	27461.51
648.61	27304.69
648.76	27395.97
648.90	26944.25
649.05	27288.31
649.20	26522.95
649.34	26658.70
649.49	27161.92
649.63	26946.59
649.78	26581.46
649.92	26668.06
650.07	26773.39
650.21	26827.22
650.36	26869.35
650.51	26490.18
650.65	26836.58
650.80	26857.65
650.94	26927.86
651.09	26829.56
651.23	26473.80
651.38	26871.69
651.52	26689.13
651.67	26647.00
651.81	26925.52
651.96	26665.72
652.10	26885.73
652.25	26656.36
652.39	26654.02
652.54	26766.37
652.68	26785.09
652.83	26668.06
652.97	26801.47
653.12	26623.59
653.26	26572.10
653.41	26778.07
653.55	26548.70
653.70	26246.77
653.84	26639.98
653.99	26125.06
654.13	26286.56
654.27	26300.60
654.42	26293.58
654.56	26057.18
654.71	26618.91
654.85	26146.12
655.00	26843.60
655.14	26239.75
655.29	26284.22
655.43	26263.15
655.57	25933.14
655.72	25940.16
655.86	26174.21
656.01	26366.13
656.15	25773.98
656.30	26450.39
656.44	26038.46
656.58	25891.01
656.73	26005.69
656.87	26082.93
657.01	26162.51
657.16	26111.02
657.30	26302.94
657.45	26478.48
657.59	25989.31
657.73	25846.54
657.88	26113.36
658.02	25722.49
658.16	25701.42
658.31	25844.20
658.45	25795.04
658.60	25596.10
658.74	26132.08
658.88	25572.69
659.03	25671.00
659.17	25729.51
659.31	25963.56
659.46	25799.73
659.60	25846.54
659.74	25717.81
659.89	25694.40
660.03	25647.59
660.17	25680.36
660.32	25366.73
660.46	25556.31
660.60	25329.28
660.74	25235.66
660.89	25329.28
661.03	25120.97
661.17	25104.59
661.32	25106.93
661.46	25149.06
661.60	25053.09
661.74	25350.34
661.89	25401.83
662.03	25593.76
662.17	25268.42
662.31	25010.96
662.46	25390.13
662.60	24980.54
662.74	24762.87
662.88	24907.98
663.03	24659.88
663.17	24680.95
663.31	24919.68
663.45	24922.02
663.60	24662.22
663.74	24491.37
663.88	24624.78
664.02	24762.87
664.17	24870.53
664.31	24805.00
664.45	24311.14
664.59	24842.45
664.73	24428.17
664.88	24662.22
665.02	23985.81
665.16	24271.36
665.30	24388.38
665.44	24313.48
665.59	23915.59
665.73	24109.86
665.87	23915.59
666.01	24290.08
666.15	24247.95
666.29	24212.84
666.44	24025.60
666.58	24229.23
666.72	23995.17
666.86	24196.46
667.00	24386.04
667.14	23700.26
667.28	23936.66
667.43	24170.71
667.57	23939.00
667.71	23763.46
667.85	24039.64
667.99	23496.64
668.13	23831.33
668.27	23573.88
668.41	24032.62
668.56	23442.81
668.70	23604.30
668.84	23653.45
668.98	23981.13
669.12	23789.20
669.26	23543.45
669.40	23449.83
669.54	23730.69
669.68	23206.41
669.82	23218.11
669.96	23108.11
670.10	22965.34
670.25	23445.15
670.39	23192.37
670.53	23339.82
670.67	23070.66
670.81	23199.39
670.95	23183.01
671.09	22766.39
671.23	22864.69
671.37	23241.52
671.51	22855.33
671.65	23026.19
671.79	22745.33
671.93	23014.49
672.07	22787.46
672.21	22953.63
672.35	22661.07
672.49	22497.23
672.63	22375.52
672.77	22099.34
672.91	22094.66
673.05	22586.17
673.19	22494.89
673.33	22176.58
673.47	22075.93
673.61	22621.28
673.75	22106.36
673.89	22155.51
674.03	22169.55
674.17	22073.59
674.31	21949.54
674.45	21977.63
674.59	21820.81
674.73	21912.10
674.87	21530.59
675.01	21804.43
675.15	21869.97
675.29	21532.93
675.43	21404.20
675.56	21727.19
675.70	21804.43
675.84	21509.52
675.98	21109.29
676.12	21652.30
676.26	21348.03
676.40	21312.92
676.54	21696.77
676.68	21462.71
676.82	20755.87
676.96	21181.85
677.10	20975.88
677.23	20879.92
677.37	20982.90
677.51	20912.69
677.65	21043.76
677.79	20556.93
677.93	20886.94
678.07	20702.04
678.21	20320.53
678.34	20463.30
678.48	20500.75
678.62	20400.11
678.76	20521.82
678.90	20147.33
679.04	20105.20
679.18	20144.99
679.31	19871.15
679.45	19903.92
679.59	19702.63
679.73	19924.98
679.87	19882.85
680.00	19695.61
680.14	19943.70
680.28	19711.99
680.42	19861.79
680.56	19875.83
680.70	19396.02
680.83	19929.66
680.97	19342.19
681.11	19370.27
681.25	19496.66
681.39	19267.29
681.52	19426.45
681.66	19260.27
681.80	18834.29
681.94	19314.10
682.07	19274.31
682.21	18944.30
682.35	18686.84
682.49	18970.04
682.62	18717.26
682.76	18796.84
682.90	18785.14
683.04	18806.20
683.17	18548.75
683.31	18757.05
683.45	18691.52
683.59	18696.20
683.72	18197.67
683.86	18321.71
684.00	18583.85
684.13	17951.91
684.27	18412.99
684.41	18026.81
684.55	17914.46
684.68	17879.35
684.82	17729.56
684.96	17687.43
685.09	17661.68
685.23	17575.08
685.37	17584.44
685.50	17884.03
685.64	17832.54
685.78	17619.55
685.91	17755.30
686.05	17664.02
686.19	17427.63
686.32	17500.19
686.46	16856.54
686.60	17090.59
686.73	17263.79
686.87	17102.29
687.01	17142.08
687.14	16945.48
687.28	16910.37
687.42	16819.09
687.55	16709.08
687.69	16645.89
687.82	16613.12
687.96	16856.54
688.10	16837.81
688.23	16861.22
688.37	16472.69
688.50	16622.48
688.64	16262.04
688.78	16245.66
688.91	16243.32
689.05	16107.57
689.18	16049.05
689.32	15707.34
689.46	15852.45
689.59	16100.55
689.73	15674.57
689.86	16130.97
690.00	15747.12
690.13	15545.84
690.27	15667.55
690.41	15723.72
690.54	15587.97
690.68	15859.47
690.81	15510.73
690.95	15730.74
691.08	15655.84
691.22	15344.55
691.35	15110.50
691.49	15417.11
691.62	15379.66
691.76	14916.23
691.89	14949.00
692.03	14572.18
692.16	14960.70
692.30	15115.18
692.43	14778.14
692.57	14726.65
692.70	14768.78
692.84	14703.25
692.97	14649.41
693.11	14626.01
693.24	14347.48
693.38	14740.69
693.51	14429.40
693.65	14356.85
693.78	14398.98
693.92	14420.04
694.05	14174.28
694.19	14272.59
694.32	14239.82
694.45	14115.77
694.59	13804.48
694.72	14003.43
694.86	13830.23
694.99	13741.29
695.13	13570.43
695.26	13488.51
695.39	13769.37
695.53	13713.20
695.66	13589.15
695.80	13692.13
695.93	13610.22
696.07	13752.99
696.20	13558.72
696.33	13528.30
696.47	13343.39
696.60	13392.55
696.73	13121.04
696.87	13273.18
697.00	13406.59
697.14	12741.88
697.27	12915.08
697.40	12891.67
697.54	12823.80
697.67	12779.32
697.80	12767.62
697.94	12835.50
698.07	12400.16
698.21	12365.05
698.34	12613.15
698.47	12685.70
698.61	12620.17
698.74	12561.66
698.87	12444.63
699.01	12470.37
699.14	12269.09
699.27	12086.53
699.40	12138.02
699.54	12180.15
699.67	12011.63
699.80	12119.29
699.94	11969.50
700.07	11894.60
700.20	11709.70
700.34	11796.30
700.47	11590.33
700.60	11580.97
700.73	11599.70
700.87	11857.15
701.00	11590.33
701.13	11639.48
701.26	11590.33
701.40	11693.32
701.53	11529.48
701.66	11379.68
701.79	11403.09
701.93	11234.57
702.06	11213.51
702.19	11084.78
702.32	10960.73
702.46	10942.00
702.59	10970.09
702.72	10792.21
702.85	10747.74
702.99	10885.83
703.12	10621.35
703.25	10661.14
703.38	10633.05
703.51	10705.61
703.65	10459.85
703.78	10544.11
703.91	10466.88
704.04	10731.36
704.17	10581.56
704.31	10457.51
704.44	10342.83
704.57	10352.19
704.70	10225.80
704.83	10244.52
704.96	9973.02
705.10	9966.00
705.23	9989.41
>>>>>End Processed Spectral Data<<<<<
