SpectraSuite Data File
++++++++++++++++++++++++++++++++++++
Date: Fri Oct 18 13:58:24 GMT-05:00 2013
User: bianchi
Dark Spectrum Present: No
Reference Spectrum Present: No
Number of Sampled Component Spectra: 1
Spectrometers: USB2+H05261
Integration Time (usec): 50000 (USB2+H05261)
Spectra Averaged: 1 (USB2+H05261)
Boxcar Smoothing: 0 (USB2+H05261)
Correct for Electrical Dark: No (USB2+H05261)
Strobe/Lamp Enabled: No (USB2+H05261)
Correct for Detector Non-linearity: No (USB2+H05261)
Correct for Stray Light: No (USB2+H05261)
Number of Pixels in Processed Spectrum: 2048
>>>>>Begin Processed Spectral Data<<<<<
365.73	0.00
365.92	0.00
366.12	0.00
366.32	0.00
366.52	0.00
366.72	0.00
366.91	0.00
367.11	0.00
367.31	0.00
367.51	0.00
367.70	0.00
367.90	0.00
368.10	0.00
368.30	0.00
368.49	0.00
368.69	0.00
368.89	0.00
369.09	0.00
369.28	0.00
369.48	0.00
369.68	0.00
369.87	0.00
370.07	0.00
370.27	0.00
370.47	0.00
370.66	53.83
370.86	65.54
371.06	184.90
371.25	128.73
371.45	95.96
371.65	173.20
371.84	110.01
372.04	145.11
372.24	217.67
372.44	210.65
372.63	149.79
372.83	196.60
373.03	201.29
373.22	231.71
373.42	264.48
373.62	205.97
373.81	245.76
374.01	168.52
374.21	299.59
374.40	252.78
374.60	229.37
374.79	220.01
374.99	208.31
375.19	229.37
375.38	238.73
375.58	276.18
375.78	241.08
375.97	269.16
376.17	259.80
376.37	191.92
376.56	294.91
376.76	278.52
376.95	322.99
377.15	276.18
377.35	271.50
377.54	262.14
377.74	259.80
377.93	280.86
378.13	234.05
378.33	315.97
378.52	266.82
378.72	297.25
378.91	369.80
379.11	250.44
379.31	266.82
379.50	290.23
379.70	346.40
379.89	292.57
380.09	236.39
380.28	238.73
380.48	259.80
380.68	322.99
380.87	297.25
381.07	325.33
381.26	341.72
381.46	320.65
381.65	367.46
381.85	315.97
382.04	318.31
382.24	430.66
382.43	388.53
382.63	332.36
382.83	318.31
383.02	372.15
383.22	418.96
383.41	344.06
383.61	362.78
383.80	411.93
384.00	362.78
384.19	404.91
384.39	348.74
384.58	442.36
384.78	444.70
384.97	367.46
385.17	351.08
385.36	411.93
385.56	365.12
385.75	344.06
385.95	383.85
386.14	435.34
386.34	395.55
386.53	477.47
386.72	404.91
386.92	465.77
387.11	421.30
387.31	430.66
387.50	337.04
387.70	376.83
387.89	465.77
388.09	472.79
388.28	451.72
388.48	463.43
388.67	564.07
388.86	517.26
389.06	521.94
389.25	557.05
389.45	433.00
389.64	486.83
389.84	465.77
390.03	437.68
390.22	524.28
390.42	468.11
390.61	461.09
390.81	482.15
391.00	512.58
391.19	465.77
391.39	484.49
391.58	493.85
391.78	517.26
391.97	472.79
392.16	440.02
392.36	627.26
392.55	543.00
392.75	660.03
392.94	592.16
393.13	514.92
393.33	535.98
393.52	496.19
393.71	566.41
393.91	641.31
394.10	547.69
394.29	617.90
394.49	631.94
394.68	589.82
394.88	655.35
395.07	606.20
395.26	596.84
395.46	688.12
395.65	585.13
395.84	545.34
396.04	690.46
396.23	603.86
396.42	664.71
396.62	720.88
396.81	643.65
397.00	716.20
397.19	645.99
397.39	690.46
397.58	671.73
397.77	681.10
397.97	620.24
398.16	617.90
398.35	671.73
398.55	697.48
398.74	760.67
398.93	758.33
399.12	795.78
399.32	767.70
399.51	767.70
399.70	688.12
399.90	678.76
400.09	791.10
400.28	718.54
400.47	734.93
400.67	826.21
400.86	800.46
401.05	767.70
401.24	830.89
401.44	828.55
401.63	800.46
401.82	828.55
402.01	880.04
402.21	791.10
402.40	805.14
402.59	887.06
402.78	849.61
402.97	779.40
403.17	889.40
403.36	854.30
403.55	821.53
403.74	884.72
403.93	823.87
404.13	816.85
404.32	997.07
404.51	929.19
404.70	940.90
404.89	908.13
405.09	945.58
405.28	1008.77
405.47	884.72
405.66	966.64
405.85	884.72
406.05	912.81
406.24	966.64
406.43	983.02
406.62	1011.11
406.81	1043.88
407.00	1008.77
407.20	1071.97
407.39	1053.24
407.58	1118.78
407.77	1071.97
407.96	994.73
408.15	1036.86
408.34	1104.73
408.54	1015.79
408.73	1114.10
408.92	1100.05
409.11	1198.35
409.30	1107.07
409.49	1081.33
409.68	1020.47
409.87	1170.27
410.07	1146.86
410.26	1151.54
410.45	1165.59
410.64	1203.04
410.83	1165.59
411.02	1256.87
411.21	1306.02
411.40	1263.89
411.59	1186.65
411.78	1146.86
411.98	1160.91
412.17	1210.06
412.36	1308.36
412.55	1331.76
412.74	1385.60
412.93	1350.49
413.12	1348.15
413.31	1401.98
413.50	1291.98
413.69	1385.60
413.88	1486.24
414.07	1486.24
414.26	1446.45
414.45	1439.43
414.64	1565.82
414.83	1584.54
415.02	1434.75
415.22	1521.35
415.41	1561.14
415.60	1540.07
415.79	1633.69
415.98	1561.14
416.17	1554.12
416.36	1591.56
416.55	1643.06
416.74	1619.65
416.93	1696.89
417.12	1689.87
417.31	1643.06
417.50	1561.14
417.69	1753.06
417.88	1795.19
418.07	1729.66
418.26	1699.23
418.45	1732.00
418.64	1891.15
418.83	1825.62
419.02	1832.64
419.21	1909.88
419.39	1863.07
419.58	1750.72
419.77	1785.83
419.96	1785.83
420.15	1753.06
420.34	1909.88
420.53	1909.88
420.72	1949.67
420.91	1856.04
421.10	1991.80
421.29	2022.22
421.48	1865.41
421.67	1984.77
421.86	1893.49
422.05	1982.43
422.24	1865.41
422.43	1966.05
422.61	2022.22
422.80	2069.03
422.99	2073.71
423.18	2076.06
423.37	2059.67
423.56	2076.06
423.75	1996.48
423.94	2057.33
424.13	1827.96
424.32	1842.00
424.50	1954.35
424.69	2094.78
424.88	2080.74
425.07	2052.65
425.26	2083.08
425.45	2101.80
425.64	2017.54
425.83	2062.01
426.01	2139.25
426.20	2062.01
426.39	2094.78
426.58	2001.16
426.77	1984.77
426.96	2094.78
427.15	2078.40
427.33	2174.36
427.52	2087.76
427.71	2242.23
427.90	2188.40
428.09	2085.42
428.28	2211.81
428.46	2225.85
428.65	2216.49
428.84	2289.04
429.03	2242.23
429.22	2202.44
429.40	2291.38
429.59	2289.04
429.78	2181.38
429.97	2211.81
430.16	2303.09
430.34	2272.66
430.53	2335.85
430.72	2277.34
430.91	2347.56
431.10	2312.45
431.28	2366.28
431.47	2356.92
431.66	2335.85
431.85	2389.69
432.03	2424.80
432.22	2436.50
432.41	2478.63
432.60	2506.71
432.79	2317.13
432.97	2377.98
433.16	2436.50
433.35	2459.90
433.54	2492.67
433.72	2530.12
433.91	2532.46
434.10	2502.03
434.28	2424.80
434.47	2525.44
434.66	2597.99
434.85	2640.12
435.03	2710.34
435.22	2429.48
435.41	2792.26
435.59	2703.32
435.78	2635.44
435.97	2715.02
436.16	2731.41
436.34	2551.18
436.53	2712.68
436.72	2745.45
436.90	2605.02
437.09	2843.75
437.28	2679.91
437.46	2696.30
437.65	2747.79
437.84	2693.96
438.02	2796.94
438.21	2848.43
438.40	2932.69
438.58	2885.88
438.77	2750.13
438.96	2895.24
439.14	2988.86
439.33	2885.88
439.52	3000.57
439.70	3117.59
439.89	3070.78
440.08	2977.16
440.26	3082.49
440.45	3091.85
440.63	3056.74
440.82	3049.72
441.01	3080.14
441.19	3206.53
441.38	3300.16
441.57	3164.40
441.75	3173.77
441.94	3368.03
442.12	3269.73
442.31	3290.79
442.50	3363.35
442.68	3274.41
442.87	3290.79
443.05	3403.14
443.24	3323.56
443.43	3400.80
443.61	3361.01
443.80	3492.08
443.98	3342.28
444.17	3220.58
444.35	3492.08
444.54	3438.25
444.73	3545.91
444.91	3398.46
445.10	3414.84
445.28	3372.71
445.47	3349.31
445.65	3461.65
445.84	3475.70
446.02	3375.05
446.21	3438.25
446.39	3353.99
446.58	3473.36
446.77	3370.37
446.95	3363.35
447.14	3435.91
447.32	3442.93
447.51	3574.00
447.69	3562.30
447.88	3494.42
448.06	3536.55
448.25	3571.66
448.43	3431.23
448.62	3566.98
448.80	3611.45
448.99	3583.36
449.17	3599.74
449.36	3599.74
449.54	3623.15
449.73	3779.97
449.91	3641.87
450.10	3641.87
450.28	3707.41
450.46	3728.47
450.65	3772.94
450.83	3824.44
451.02	3735.50
451.20	3665.28
451.39	3854.86
451.57	3770.60
451.76	3688.68
451.94	3939.12
452.13	3798.69
452.31	3784.65
452.49	3791.67
452.68	3737.84
452.86	3779.97
453.05	3815.07
453.23	3847.84
453.42	3946.14
453.60	3786.99
453.78	3929.76
453.97	4025.72
454.15	4046.79
454.34	3941.46
454.52	4004.66
454.70	3974.23
454.89	4037.42
455.07	3946.14
455.26	4081.89
455.44	4039.76
455.62	4035.08
455.81	3964.87
455.99	4070.19
456.17	4067.85
456.36	4231.69
456.54	4210.62
456.73	4173.18
456.91	4381.48
457.09	4292.54
457.28	4308.93
457.46	4128.70
457.64	4313.61
457.83	4404.89
458.01	4362.76
458.19	4372.12
458.38	4435.32
458.56	4472.76
458.74	4393.19
458.93	4484.47
459.11	4461.06
459.29	4393.19
459.48	4451.70
459.66	4468.08
459.84	4594.47
460.03	4660.01
460.21	4564.04
460.39	4547.66
460.57	4458.72
460.76	4599.15
460.94	4564.04
461.12	4542.98
461.31	4610.86
461.49	4615.54
461.67	4528.94
461.85	4634.26
462.04	4779.37
462.22	4706.82
462.40	4802.78
462.59	4849.59
462.77	4744.27
462.95	4809.80
463.13	4744.27
463.32	4809.80
463.50	4896.40
463.68	4875.34
463.86	4929.17
464.05	4809.80
464.23	4868.31
464.41	4910.44
464.59	4788.74
464.78	4884.70
464.96	4849.59
465.14	4767.67
465.32	5008.75
465.50	4968.96
465.69	5048.54
465.87	5008.75
466.05	5029.81
466.23	5093.01
466.41	4821.50
466.60	5341.10
466.78	5078.96
466.96	5022.79
467.14	4999.38
467.32	5041.51
467.51	5238.12
467.69	5036.83
467.87	5160.88
468.05	5233.44
468.23	5125.77
468.41	5160.88
468.60	5207.69
468.78	5355.15
468.96	5207.69
469.14	5287.27
469.32	5214.71
469.50	5081.30
469.69	5394.93
469.87	5418.34
470.05	5451.11
470.23	5390.25
470.41	5418.34
470.59	5352.81
470.77	5359.83
470.95	5483.88
471.14	5441.75
471.32	5268.55
471.50	5612.60
471.68	5528.35
471.86	5439.40
472.04	5640.69
472.22	5671.12
472.40	5792.83
472.58	5612.60
472.77	5605.58
472.95	5792.83
473.13	5816.23
473.31	5846.66
473.49	5755.38
473.67	5799.85
473.85	5865.38
474.03	5879.43
474.21	6069.01
474.39	5987.09
474.57	6113.48
474.75	6054.97
474.93	6183.70
475.12	6129.86
475.30	6094.76
475.48	6209.44
475.66	6181.35
475.84	6406.05
476.02	6429.45
476.20	6377.96
476.38	6401.37
476.56	6436.47
476.74	6546.48
476.92	6537.12
477.10	6415.41
477.28	6593.29
477.46	6665.85
477.64	6759.47
477.82	6750.10
478.00	6993.52
478.18	7091.82
478.36	6895.22
478.54	6935.01
478.72	7073.10
478.90	7119.91
479.08	7295.45
479.26	7243.96
479.44	7222.89
479.62	7330.56
479.80	7211.19
479.98	7463.97
480.16	7576.31
480.34	7529.50
480.52	7571.63
480.70	7819.73
480.88	7651.21
481.06	7691.00
481.24	7599.72
481.41	7805.69
481.59	8028.04
481.77	8016.33
481.95	7906.33
482.13	8056.12
482.31	8100.59
482.49	8121.66
482.67	8257.41
482.85	8442.31
483.03	8365.07
483.21	8280.82
483.39	8542.96
483.57	8592.11
483.74	8552.32
483.92	8617.85
484.10	8856.59
484.28	8854.25
484.46	8982.98
484.64	9163.20
484.82	8891.70
485.00	9207.67
485.18	9362.14
485.35	9476.83
485.53	9439.38
485.71	9392.57
485.89	9591.52
486.07	9680.46
486.25	9540.02
486.43	9720.24
486.61	9760.03
486.78	9935.57
486.96	9853.66
487.14	10218.78
487.32	10092.39
487.50	10207.08
487.68	10108.77
487.85	10296.02
488.03	10324.10
488.21	10443.47
488.39	10593.26
488.57	10698.59
488.75	10693.91
488.92	10846.04
489.10	10806.25
489.28	10986.47
489.46	11087.12
489.64	11014.56
489.81	10995.84
489.99	11351.60
490.17	11297.77
490.35	11473.31
490.53	11424.15
490.70	11719.06
490.88	11744.81
491.06	11749.49
491.24	11934.39
491.41	11695.66
491.59	11983.54
491.77	12035.03
491.95	12184.83
492.13	12093.55
492.30	12212.92
492.48	12170.79
492.66	12184.83
492.84	12280.79
493.01	12498.46
493.19	12421.22
493.37	12779.32
493.54	12603.78
493.72	12896.35
493.90	12685.70
494.08	13053.17
494.25	12837.84
494.43	13195.94
494.61	13184.24
494.79	13294.24
494.96	13231.05
495.14	13411.27
495.32	13371.48
495.49	13511.91
495.67	13479.15
495.85	13645.32
496.02	13640.64
496.20	13692.13
496.38	13767.03
496.55	13837.25
496.73	14221.10
496.91	14033.85
497.09	14331.10
497.26	14464.51
497.44	14141.52
497.62	14333.44
497.79	14434.08
497.97	14331.10
498.14	14656.43
498.32	14977.09
498.50	14546.43
498.67	14726.65
498.85	15035.60
499.03	15037.94
499.20	14913.89
499.38	14991.13
499.56	15403.07
499.73	15176.03
499.91	15442.85
500.08	15351.57
500.26	15211.14
500.44	15669.89
500.61	15555.20
500.79	15393.70
500.97	15616.05
501.14	15854.79
501.32	15728.40
501.49	15826.70
501.67	15620.74
501.84	15875.85
502.02	16037.35
502.20	15950.75
502.37	16018.63
502.55	15815.00
502.72	16304.17
502.90	15950.75
503.07	15899.26
503.25	16257.36
503.43	16505.46
503.60	16414.18
503.78	16327.58
503.95	16472.69
504.13	16437.58
504.30	16613.12
504.48	16664.61
504.65	16861.22
504.83	16812.07
505.01	17069.53
505.18	16915.05
505.36	17280.18
505.53	16730.15
505.71	16856.54
505.88	17092.93
506.06	16980.59
506.23	16985.27
506.41	17083.57
506.58	17270.81
506.76	17649.98
506.93	17111.66
507.11	17277.83
507.28	17617.21
507.46	17624.23
507.63	17673.39
507.81	17823.18
507.98	17802.11
508.16	17680.41
508.33	17635.94
508.50	17792.75
508.68	17642.96
508.85	17816.16
509.03	17767.01
509.20	18373.21
509.38	18443.42
509.55	18246.82
509.73	18405.97
509.90	18377.89
510.08	18443.42
510.25	18448.10
510.42	18424.70
510.60	18466.83
510.77	18717.26
510.95	18792.16
511.12	18625.98
511.30	18696.20
511.47	18829.61
511.64	18883.44
511.82	18862.38
511.99	19098.77
512.17	19183.03
512.34	19049.62
512.51	19297.72
512.69	19087.07
512.86	19140.90
513.04	19283.67
513.21	19346.87
513.38	19681.56
513.56	19119.84
513.73	19288.35
513.90	19440.49
514.08	19658.16
514.25	19770.51
514.43	19932.00
514.60	19573.90
514.77	19777.53
514.95	19716.67
515.12	19728.38
515.29	20034.99
515.47	19927.32
515.64	20084.14
515.81	19981.15
515.99	20255.00
516.16	20306.49
516.33	20170.74
516.51	20109.88
516.68	19988.18
516.85	20360.32
517.03	20446.92
517.20	20262.02
517.37	20620.12
517.54	20519.48
517.72	20463.30
517.89	20788.64
518.06	20538.20
518.24	20545.22
518.41	20587.35
518.58	20524.16
518.75	20456.28
518.93	20989.92
519.10	20865.88
519.27	20765.23
519.45	20863.54
519.62	20865.88
519.79	20786.30
519.96	20978.22
520.14	20772.25
520.31	20915.03
520.48	21425.26
520.65	21289.51
520.83	21341.00
521.00	21348.03
521.17	21333.98
521.34	21425.26
521.52	21694.43
521.69	21766.98
521.86	21771.66
522.03	21844.22
522.20	21589.10
522.38	21750.60
522.55	21783.37
522.72	21755.28
522.89	21673.36
523.07	22153.17
523.24	21984.65
523.41	21991.67
523.58	21851.24
523.75	22412.97
523.92	21916.78
524.10	22080.61
524.27	22298.28
524.44	22445.74
524.61	22340.41
524.78	22352.12
524.96	22298.28
525.13	22466.80
525.30	22199.98
525.47	22429.35
525.64	22654.05
525.81	22487.87
525.98	22656.39
526.16	22937.25
526.33	22789.80
526.50	22965.34
526.67	22604.89
526.84	22693.83
527.01	22654.05
527.18	23023.85
527.36	23166.62
527.53	23374.93
527.70	23218.11
527.87	23250.88
528.04	23126.83
528.21	22883.42
528.38	23101.09
528.55	23506.00
528.72	23470.89
528.89	23377.27
529.07	23129.17
529.24	23129.17
529.41	23318.76
529.58	23850.06
529.75	23262.58
529.92	23328.12
530.09	23379.61
530.26	23562.17
530.43	23737.71
530.60	23587.92
530.77	23714.31
530.94	23784.52
531.11	23711.97
531.28	23711.97
531.46	23885.17
531.63	24123.90
531.80	24004.53
531.97	24077.09
532.14	24060.71
532.31	24304.12
532.48	24095.82
532.65	24290.08
532.82	23978.79
532.99	24133.26
533.16	24362.64
533.33	24547.54
533.50	24638.82
533.67	23953.04
533.84	24283.06
534.01	23950.70
534.18	24446.90
534.35	24606.05
534.52	24329.87
534.69	24542.86
534.86	24657.54
535.03	24496.05
535.20	24790.95
535.37	24833.08
535.54	24680.95
535.71	24762.87
535.88	24786.27
536.05	24769.89
536.22	24758.19
536.38	25174.80
536.55	24919.68
536.72	25036.71
536.89	24903.30
537.06	24776.91
537.23	25032.03
537.40	25034.37
537.57	25207.57
537.74	25067.14
537.91	25097.56
538.08	25242.68
538.25	25006.28
538.42	25453.33
538.59	25362.04
538.75	25010.96
538.92	25233.32
539.09	25385.45
539.26	25081.18
539.43	25418.22
539.60	25603.12
539.77	25261.40
539.94	25455.67
540.11	25130.33
540.28	25198.21
540.44	25432.26
540.61	25488.43
540.78	25582.06
540.95	25556.31
541.12	25350.34
541.29	25713.13
541.46	25645.25
541.62	25371.41
541.79	25703.76
541.96	25490.77
542.13	25928.45
542.30	25942.50
542.47	25841.85
542.63	25949.52
542.80	26136.76
542.97	26356.77
543.14	26132.08
543.31	25961.22
543.48	26836.58
543.64	26478.48
543.81	26487.84
543.98	26544.02
544.15	26525.29
544.32	26515.93
544.48	26871.69
544.65	26478.48
544.82	26331.03
544.99	26412.95
545.16	26593.17
545.32	26478.48
545.49	26508.91
545.66	26782.75
545.83	26684.45
546.00	26808.50
546.16	26707.85
546.33	26218.68
546.50	26377.84
546.67	26757.00
546.83	26668.06
547.00	27140.85
547.17	26974.67
547.34	26902.12
547.50	26675.09
547.67	27168.94
547.84	26831.90
548.00	26799.13
548.17	27227.45
548.34	26967.65
548.51	27058.93
548.67	27007.44
548.84	27147.87
549.01	27388.95
549.18	26939.57
549.34	27386.61
549.51	27417.04
549.68	26808.50
549.84	27248.52
550.01	27108.08
550.18	27370.22
550.34	26967.65
550.51	27395.97
550.68	27215.75
550.84	27559.81
551.01	27236.81
551.18	27164.26
551.34	27201.71
551.51	27393.63
551.68	27346.82
551.84	27559.81
552.01	27482.57
552.18	28013.87
552.34	27665.13
552.51	27611.30
552.68	27828.97
552.84	27936.63
553.01	27505.98
553.18	27936.63
553.34	27819.61
553.51	27873.44
553.67	28006.85
553.84	27894.50
554.01	28261.97
554.17	28182.39
554.34	27948.34
554.51	28046.64
554.67	27601.94
554.84	27847.69
555.00	28048.98
555.17	28182.39
555.33	27751.73
555.50	28072.39
555.67	27889.82
555.83	27920.25
556.00	28243.24
556.16	28243.24
556.33	28180.05
556.50	28479.64
556.66	28259.63
556.83	28250.27
556.99	28994.56
557.16	28503.04
557.32	28709.01
557.49	28348.57
557.65	28292.40
557.82	28231.54
557.98	28212.82
558.15	28542.83
558.32	28610.71
558.48	28500.70
558.65	28648.16
558.81	28451.55
558.98	28629.43
559.14	28587.30
559.31	28540.49
559.47	28336.87
559.64	28823.70
559.80	28650.50
559.97	28833.06
560.13	28498.36
560.30	28741.78
560.46	29048.39
560.63	28683.27
560.79	28762.84
560.96	28692.63
561.12	28437.51
561.29	28596.67
561.45	28484.32
561.61	28652.84
561.78	29006.26
561.94	29043.71
562.11	28622.41
562.27	28882.21
562.44	28697.31
562.60	28776.89
562.77	28491.34
562.93	28636.45
563.10	28879.87
563.26	28870.51
563.42	28961.79
563.59	28987.53
563.75	28964.13
563.92	28982.85
564.08	28833.06
564.24	28863.49
564.41	28580.28
564.57	28811.99
564.74	29083.50
564.90	29111.58
565.07	29071.79
565.23	29376.06
565.39	29127.97
565.56	29317.55
565.72	29205.20
565.88	28929.02
566.05	28882.21
566.21	28826.04
566.38	29177.12
566.54	29095.20
566.70	29305.85
566.87	29525.86
567.03	29163.08
567.19	29420.53
567.36	29535.22
567.52	28856.46
567.68	29413.51
567.85	29200.52
568.01	29516.50
568.17	29333.93
568.34	29364.36
568.50	29493.09
568.66	29455.64
568.83	29610.12
568.99	29324.57
569.15	29336.27
569.32	29209.89
569.48	29511.81
569.64	29252.02
569.81	29167.76
569.97	29457.98
570.13	29317.55
570.30	29174.78
570.46	29139.67
570.62	29352.66
570.78	29614.80
570.95	29380.74
571.11	29694.38
571.27	29125.63
571.43	28891.57
571.60	29312.87
571.76	29450.96
571.92	29741.19
572.09	29149.03
572.25	29867.58
572.41	29617.14
572.57	29593.73
572.74	29457.98
572.90	29542.24
573.06	29465.00
573.22	29509.47
573.38	29266.06
573.55	29523.52
573.71	29661.61
573.87	29912.05
574.03	29467.34
574.20	29755.23
574.36	29303.51
574.52	29663.95
574.68	29165.42
574.84	29626.50
575.01	29692.04
575.17	29364.36
575.33	29689.70
575.49	29324.57
575.65	29734.17
575.82	29727.14
575.98	29549.26
576.14	30024.39
576.30	29755.23
576.46	29563.31
576.62	29397.13
576.79	29666.29
576.95	29654.59
577.11	29888.64
577.27	29685.01
577.43	29862.90
577.59	29780.98
577.75	29680.33
577.92	29518.84
578.08	29214.57
578.24	29516.50
578.40	29263.72
578.56	29670.97
578.72	29649.91
578.88	29972.90
579.04	30064.18
579.21	29898.00
579.37	29872.26
579.53	29673.31
579.69	29572.67
579.85	29528.20
580.01	29462.66
580.17	29872.26
580.33	29713.10
580.49	29565.65
580.65	29762.25
580.82	29853.53
580.98	29748.21
581.14	29769.27
581.30	30132.06
581.46	29708.42
581.62	29465.00
581.78	29474.37
581.94	29841.83
582.10	29675.65
582.26	29673.31
582.42	29605.44
582.58	29837.15
582.74	29813.74
582.90	30071.20
583.06	29692.04
583.22	29947.15
583.38	29837.15
583.54	30113.33
583.70	29385.43
583.86	29612.46
584.02	29940.13
584.18	30094.61
584.34	29963.54
584.50	29675.65
584.66	30022.05
584.82	29687.36
584.98	29724.80
585.14	29628.84
585.30	29694.38
585.46	29652.25
585.62	29879.28
585.78	29818.42
585.94	29516.50
586.10	29858.21
586.26	29919.07
586.42	30368.45
586.58	30162.48
586.74	29558.63
586.90	29905.02
587.06	29951.84
587.22	29567.99
587.38	29785.66
587.54	30284.19
587.70	30366.11
587.86	30026.73
588.02	30192.91
588.18	30682.08
588.34	29923.75
588.49	29942.47
588.65	29685.01
588.81	29670.97
588.97	29546.92
589.13	30008.01
589.29	29593.73
589.45	30029.07
589.61	30122.69
589.77	30263.13
589.93	30410.58
590.08	30192.91
590.24	30417.60
590.40	30251.42
590.56	30185.89
590.72	30178.87
590.88	29872.26
591.04	30099.29
591.20	30335.68
591.35	30103.97
591.51	30263.13
591.67	30726.55
591.83	30103.97
591.99	30190.57
592.15	30003.33
592.31	30452.71
592.46	29982.26
592.62	30134.40
592.78	29816.08
592.94	30043.12
593.10	30155.46
593.26	30487.82
593.41	30401.22
593.57	30155.46
593.73	30328.66
593.89	30122.69
594.05	29998.65
594.20	30160.14
594.36	30307.60
594.52	30195.25
594.68	30242.06
594.84	30096.95
594.99	30377.81
595.15	30213.98
595.31	30834.22
595.47	30059.50
595.62	30316.96
595.78	30555.69
595.94	30476.12
596.10	30113.33
596.25	30347.39
596.41	30433.99
596.57	30110.99
596.73	30462.07
596.88	30181.21
597.04	30309.94
597.20	30316.96
597.36	30485.48
597.51	30735.92
597.67	30368.45
597.83	30167.16
597.99	30616.55
598.14	30396.54
598.30	30300.58
598.46	30331.00
598.61	30492.50
598.77	30199.93
598.93	30476.12
599.09	30384.83
599.24	30288.87
599.40	30724.21
599.56	30480.80
599.71	30749.96
599.87	30536.97
600.03	30094.61
600.18	30347.39
600.34	30178.87
600.50	30441.01
600.65	30621.23
600.81	30806.13
600.97	30455.05
601.12	30586.12
601.28	30822.51
601.44	30611.87
601.59	30532.29
601.75	30237.38
601.91	30380.15
602.06	30183.55
602.22	30333.34
602.37	30504.20
602.53	30658.68
602.69	30508.88
602.84	30698.47
603.00	30473.78
603.16	30567.40
603.31	30536.97
603.47	30342.70
603.62	30333.34
603.78	30445.69
603.94	30195.25
604.09	30333.34
604.25	30286.53
604.40	30302.92
604.56	30834.22
604.71	30347.39
604.87	30251.42
605.03	30511.22
605.18	30246.74
605.34	30331.00
605.49	30675.06
605.65	30642.29
605.80	30176.53
605.96	30195.25
606.12	30190.57
606.27	30038.44
606.43	30235.04
606.58	30597.82
606.74	30153.12
606.89	30183.55
607.05	30597.82
607.20	30735.92
607.36	30686.76
607.51	30326.32
607.67	30160.14
607.82	30000.99
607.98	30431.65
608.13	30338.02
608.29	29930.77
608.44	30338.02
608.60	30040.78
608.75	30321.64
608.91	30316.96
609.06	30258.45
609.22	30412.92
609.37	29874.60
609.53	29900.34
609.68	30253.76
609.84	29869.92
609.99	30162.48
610.15	30235.04
610.30	30352.07
610.46	30616.55
610.61	30345.05
610.76	30167.16
610.92	30136.74
611.07	30387.18
611.23	30328.66
611.38	29958.86
611.54	29961.20
611.69	29890.98
611.84	29710.76
612.00	29834.81
612.15	29898.00
612.31	30298.23
612.46	29783.32
612.62	30122.69
612.77	29937.79
612.92	30169.51
613.08	29811.40
613.23	29848.85
613.39	29907.37
613.54	29968.22
613.69	29834.81
613.85	29851.19
614.00	30129.72
614.15	30010.35
614.31	29986.94
614.46	29816.08
614.62	29963.54
614.77	30113.33
614.92	30036.09
615.08	29453.30
615.23	30118.01
615.38	29544.58
615.54	29692.04
615.69	29380.74
615.84	29385.43
616.00	29614.80
616.15	29661.61
616.30	29839.49
616.46	29666.29
616.61	29912.05
616.76	29886.30
616.92	29537.56
617.07	29677.99
617.22	29970.56
617.37	29376.06
617.53	29626.50
617.68	29560.97
617.83	29394.79
617.99	29214.57
618.14	29521.18
618.29	29331.59
618.45	29699.06
618.60	29472.03
618.75	29490.75
618.90	29362.02
619.06	29415.85
619.21	29305.85
619.36	29259.04
619.51	29186.48
619.67	29312.87
619.82	29020.30
619.97	29518.84
620.12	29455.64
620.28	29074.13
620.43	29266.06
620.58	29392.45
620.73	29209.89
620.89	29064.77
621.04	29593.73
621.19	29240.31
621.34	29422.87
621.49	29130.31
621.65	28950.09
621.80	28980.51
621.95	28666.88
622.10	29179.46
622.25	28622.41
622.41	28893.91
622.56	29226.27
622.71	29352.66
622.86	29413.51
623.01	29254.36
623.16	29008.60
623.32	28910.30
623.47	28788.59
623.62	28922.00
623.77	28847.10
623.92	28996.90
624.07	28531.13
624.23	29069.45
624.38	28847.10
624.53	28985.19
624.68	29387.77
624.83	29109.24
624.98	28924.34
625.13	28669.22
625.29	28886.89
625.44	28936.04
625.59	28648.16
625.74	28720.71
625.89	28306.44
626.04	28369.63
626.19	29156.05
626.34	28730.08
626.49	28489.00
626.65	28835.40
626.80	28774.55
626.95	28053.66
627.10	28804.97
627.25	28393.04
627.40	28505.38
627.55	28479.64
627.70	28285.37
627.85	28126.22
628.00	28257.29
628.15	28458.57
628.30	27828.97
628.45	28582.62
628.60	28212.82
628.76	28180.05
628.91	28535.81
629.06	28231.54
629.21	28276.01
629.36	28350.91
629.51	28023.23
629.66	28189.41
629.81	27999.83
629.96	27936.63
630.11	27763.43
630.26	28187.07
630.41	28063.02
630.56	27693.22
630.71	28285.37
630.86	28182.39
631.01	28091.11
631.16	28287.71
631.31	27871.10
631.46	27866.42
631.61	28107.49
631.76	28004.51
631.91	27985.79
632.06	27859.40
632.21	27707.26
632.36	27786.84
632.51	27693.22
632.66	27805.56
632.81	27688.54
632.96	27936.63
633.10	28041.96
633.25	27634.71
633.40	28030.26
633.55	27515.34
633.70	27604.28
633.85	27379.59
634.00	27718.96
634.15	27459.16
634.30	27264.90
634.45	27578.53
634.60	27433.42
634.75	27395.97
634.90	27515.34
635.05	27632.36
635.19	27552.79
635.34	27859.40
635.49	27922.59
635.64	27648.75
635.79	27873.44
635.94	27573.85
636.09	27604.28
636.24	27285.97
636.39	27229.79
636.53	27637.05
636.68	27297.67
636.83	27517.68
636.98	27632.36
637.13	27372.57
637.28	27931.95
637.43	27412.35
637.57	27316.39
637.72	27683.86
637.87	27241.50
638.02	27262.56
638.17	27178.30
638.32	27021.48
638.46	27124.47
638.61	27199.37
638.76	26684.45
638.91	27023.83
639.06	26871.69
639.20	27264.90
639.35	27218.09
639.50	27316.39
639.65	27828.97
639.80	27164.26
639.94	27197.02
640.09	27084.68
640.24	27166.60
640.39	26548.70
640.54	26958.29
640.68	26663.38
640.83	27145.53
640.98	26810.84
641.13	26876.37
641.27	26794.45
641.42	27044.89
641.57	26740.62
641.72	26859.99
641.86	26710.19
642.01	27063.61
642.16	26822.54
642.31	26705.51
642.45	26939.57
642.60	26895.10
642.75	26520.61
642.90	26286.56
643.04	26764.03
643.19	26625.93
643.34	26546.36
643.48	26689.13
643.63	26515.93
643.78	26410.60
643.93	26359.11
644.07	26639.98
644.22	26738.28
644.37	26651.68
644.51	26682.11
644.66	26279.54
644.81	26272.51
644.95	26316.98
645.10	26284.22
645.25	26455.08
645.39	26590.83
645.54	26892.76
645.69	26658.70
645.83	26464.44
645.98	26473.80
646.13	26574.44
646.27	27030.85
646.42	26036.12
646.57	26319.32
646.71	26188.25
646.86	26108.68
647.00	26148.46
647.15	26380.18
647.30	26188.25
647.44	25979.95
647.59	26237.41
647.74	25912.07
647.88	25935.48
648.03	26033.78
648.17	26387.20
648.32	26600.19
648.47	26361.45
648.61	26546.36
648.76	26347.41
648.90	26174.21
649.05	26307.62
649.20	25872.28
649.34	25656.95
649.49	26036.12
649.63	25853.56
649.78	25968.24
649.92	25682.70
650.07	25947.18
650.21	25872.28
650.36	25771.64
650.51	25591.42
650.65	25977.61
650.80	25507.16
650.94	25937.82
651.09	25736.53
651.23	25504.82
651.38	25771.64
651.52	25617.16
651.67	25799.73
651.81	25596.10
651.96	25832.49
652.10	25846.54
652.25	25488.43
652.39	25942.50
652.54	25783.34
652.68	25893.35
652.83	25502.48
652.97	25991.65
653.12	25582.06
653.26	25401.83
653.41	25537.59
653.55	25507.16
653.70	25238.00
653.84	25560.99
653.99	25532.90
654.13	25427.58
654.27	25340.98
654.42	25226.29
654.56	25582.06
654.71	25455.67
654.85	25284.81
655.00	25465.03
655.14	25202.89
655.29	25408.86
655.43	25504.82
655.57	25294.17
655.72	25308.21
655.86	25230.98
656.01	25291.83
656.15	25350.34
656.30	25015.65
656.44	24987.56
656.58	25130.33
656.73	25230.98
656.87	24687.97
657.01	24868.19
657.16	25287.15
657.30	25172.46
657.45	24971.18
657.59	24872.87
657.73	24987.56
657.88	25043.73
658.02	25067.14
658.16	24922.02
658.31	24573.28
658.45	24545.20
658.60	25006.28
658.74	25022.67
658.88	24697.33
659.03	24844.79
659.17	24673.93
659.31	24851.81
659.46	24781.59
659.60	24723.08
659.74	24893.94
659.89	24823.72
660.03	24676.27
660.17	25032.03
660.32	24491.37
660.46	24182.42
660.60	24294.76
660.74	24559.24
660.89	24512.43
661.03	24077.09
661.17	24535.84
661.32	24603.71
661.46	24318.17
661.60	23910.91
661.74	24601.37
661.89	24348.59
662.03	24081.77
662.17	24278.38
662.31	24112.20
662.46	24168.37
662.60	23978.79
662.74	24130.92
662.88	23896.87
663.03	23733.03
663.17	23857.08
663.31	23552.81
663.45	23990.49
663.60	24081.77
663.74	23805.59
663.88	23749.42
664.02	23878.15
664.17	24135.60
664.31	23552.81
664.45	23658.14
664.59	23648.77
664.73	23798.57
664.88	23543.45
665.02	23506.00
665.16	23702.61
665.30	23318.76
665.44	23515.36
665.59	23227.48
665.73	23747.08
665.87	23370.25
666.01	23697.92
666.15	23335.14
666.29	23520.04
666.44	23447.49
666.58	23089.38
666.72	23077.68
666.86	23412.38
667.00	23461.53
667.14	23253.22
667.28	23084.70
667.43	23365.57
667.57	23075.34
667.71	22843.63
667.85	22738.30
667.99	22588.51
668.13	22951.29
668.27	22555.74
668.41	22785.12
668.56	22661.07
668.70	22785.12
668.84	22955.97
668.98	22909.16
669.12	22565.10
669.26	22712.56
669.40	22689.15
669.54	22623.62
669.68	22335.73
669.82	22459.78
669.96	22326.37
670.10	22171.89
670.25	22506.59
670.39	22064.23
670.53	22223.39
670.67	22061.89
670.81	22441.06
670.95	22148.49
671.09	22214.02
671.23	22052.53
671.37	22361.48
671.51	22073.59
671.65	22207.00
671.79	21687.40
671.93	21766.98
672.07	22038.48
672.21	22003.38
672.35	21752.94
672.49	21649.96
672.63	21380.79
672.77	21776.34
672.91	21406.54
673.05	21404.20
673.19	21488.46
673.33	21600.80
673.47	21577.40
673.61	21589.10
673.75	21495.48
673.89	21221.64
674.03	21364.41
674.17	21116.31
674.31	21553.99
674.45	21345.69
674.59	21319.94
674.73	21355.05
674.87	21151.42
675.01	21317.60
675.15	20622.46
675.29	20908.01
675.43	20650.55
675.56	20837.79
675.70	20793.32
675.84	20915.03
675.98	20444.58
676.12	21003.97
676.26	20702.04
676.40	20554.58
676.54	20702.04
676.68	20219.89
676.82	20149.67
676.96	20184.78
677.10	20056.05
677.23	20034.99
677.37	20126.27
677.51	19889.87
677.65	20259.68
677.79	19716.67
677.93	20088.82
678.07	19843.06
678.21	19569.22
678.34	19939.02
678.48	19641.78
678.62	19704.97
678.76	19559.86
678.90	19559.86
679.04	19688.59
679.18	19616.03
679.31	19084.73
679.45	19337.51
679.59	19250.91
679.73	19197.07
679.87	19199.41
680.00	18925.57
680.14	19033.24
680.28	18834.29
680.42	18724.29
680.56	18899.83
680.70	18703.22
680.83	18733.65
680.97	18848.33
681.11	18703.22
681.25	18642.37
681.39	18487.89
681.52	18546.40
681.66	18347.46
681.80	18431.72
681.94	18235.11
682.07	18382.57
682.21	18471.51
682.35	18148.51
682.49	18349.80
682.62	17867.65
682.76	18029.15
682.90	18068.94
683.04	17942.55
683.17	17865.31
683.31	17958.93
683.45	17914.46
683.59	17869.99
683.72	17872.33
683.86	17811.48
684.00	17853.61
684.13	17727.22
684.27	17605.51
684.41	17350.39
684.55	17233.36
684.68	17132.72
684.82	17118.68
684.96	17252.09
685.09	16945.48
685.23	16666.95
685.37	16968.88
685.50	16992.29
685.64	17057.82
685.78	17151.45
685.91	17109.32
686.05	16901.01
686.19	16615.46
686.32	16933.78
686.46	16751.21
686.60	16514.82
686.73	16379.07
686.87	16404.81
687.01	16519.50
687.14	16437.58
687.28	16315.87
687.42	16177.78
687.55	16159.06
687.69	15969.48
687.82	15999.90
687.96	15786.91
688.10	15981.18
688.23	15917.98
688.37	15810.32
688.50	15882.88
688.64	15941.39
688.78	15871.17
688.91	15634.78
689.05	15910.96
689.18	15548.18
689.32	15190.08
689.46	15363.28
689.59	15300.08
689.73	15363.28
689.86	15318.81
690.00	15222.84
690.13	15389.02
690.27	15222.84
690.41	15164.33
690.54	14899.85
690.68	15192.42
690.81	14909.21
690.95	15047.30
691.08	15094.11
691.22	15037.94
691.35	14773.46
691.49	14654.09
691.62	14356.85
691.76	14551.11
691.89	14427.06
692.03	14256.20
692.16	14160.24
692.30	14092.37
692.43	14455.15
692.57	14253.86
692.70	14251.52
692.84	14080.66
692.97	14125.13
693.11	14111.09
693.24	14120.45
693.38	14010.45
693.51	14054.92
693.65	13884.06
693.78	13771.71
693.92	13783.41
694.05	13767.03
694.19	13689.79
694.32	13579.79
694.45	13568.09
694.59	13294.24
694.72	13273.18
694.86	13317.65
694.99	13104.66
695.13	13074.23
695.26	13228.71
695.39	12985.29
695.53	13352.76
695.66	13099.98
695.80	13027.42
695.93	12847.20
696.07	12966.57
696.20	12875.29
696.33	12982.95
696.47	12861.24
696.60	12702.09
696.73	12620.17
696.87	12596.76
697.00	12540.59
697.14	12533.57
697.27	12365.05
697.40	12418.88
697.54	12177.81
697.67	12126.32
697.80	11925.03
697.94	12175.47
698.07	12173.13
698.21	11927.37
698.34	12210.57
698.47	12163.76
698.61	11796.30
698.74	11981.20
698.87	11885.24
699.01	11669.91
699.14	11822.05
699.27	11742.47
699.40	11662.89
699.54	11503.73
699.67	11559.91
699.80	11489.69
699.94	11527.14
700.07	11492.03
700.20	11482.67
700.34	11026.26
700.47	11293.08
700.60	11372.66
700.73	11241.59
700.87	11124.57
701.00	11112.86
701.13	11171.38
701.26	11283.72
701.40	11206.48
701.53	11126.91
701.66	11028.60
701.79	11014.56
701.93	10675.18
702.06	10635.39
702.19	10672.84
702.32	10649.44
702.46	10501.98
702.59	10281.97
702.72	10406.02
702.85	10471.56
702.99	10354.53
703.12	10286.65
703.25	10244.52
703.38	10401.34
703.51	10354.53
703.65	10225.80
703.78	10284.31
703.91	10059.62
704.04	10373.25
704.17	10183.67
704.31	9989.41
704.44	9856.00
704.57	9902.81
704.70	9856.00
704.83	9659.39
704.96	9818.55
705.10	9600.88
705.23	9643.01
>>>>>End Processed Spectral Data<<<<<
