SpectraSuite Data File
++++++++++++++++++++++++++++++++++++
Date: Fri Oct 18 13:58:08 GMT-05:00 2013
User: bianchi
Dark Spectrum Present: No
Reference Spectrum Present: No
Number of Sampled Component Spectra: 1
Spectrometers: USB2+H05261
Integration Time (usec): 50000 (USB2+H05261)
Spectra Averaged: 1 (USB2+H05261)
Boxcar Smoothing: 0 (USB2+H05261)
Correct for Electrical Dark: No (USB2+H05261)
Strobe/Lamp Enabled: No (USB2+H05261)
Correct for Detector Non-linearity: No (USB2+H05261)
Correct for Stray Light: No (USB2+H05261)
Number of Pixels in Processed Spectrum: 2048
>>>>>Begin Processed Spectral Data<<<<<
365.73	0.00
365.92	0.00
366.12	0.00
366.32	0.00
366.52	0.00
366.72	0.00
366.91	0.00
367.11	0.00
367.31	0.00
367.51	0.00
367.70	0.00
367.90	0.00
368.10	0.00
368.30	0.00
368.49	0.00
368.69	0.00
368.89	0.00
369.09	0.00
369.28	0.00
369.48	0.00
369.68	0.00
369.87	0.00
370.07	0.00
370.27	0.00
370.47	0.00
370.66	70.22
370.86	163.84
371.06	138.09
371.25	140.43
371.45	147.45
371.65	177.88
371.84	60.85
372.04	182.56
372.24	161.50
372.44	159.16
372.63	177.88
372.83	194.26
373.03	234.05
373.22	205.97
373.42	229.37
373.62	154.48
373.81	304.27
374.01	276.18
374.21	273.84
374.40	236.39
374.60	163.84
374.79	180.22
374.99	283.20
375.19	255.12
375.38	243.42
375.58	285.55
375.78	220.01
375.97	271.50
376.17	283.20
376.37	212.99
376.56	210.65
376.76	222.35
376.95	278.52
377.15	292.57
377.35	322.99
377.54	248.10
377.74	205.97
377.93	278.52
378.13	278.52
378.33	259.80
378.52	311.29
378.72	250.44
378.91	362.78
379.11	327.68
379.31	210.65
379.50	297.25
379.70	330.02
379.89	227.03
380.09	262.14
380.28	304.27
380.48	339.38
380.68	243.42
380.87	365.12
381.07	330.02
381.26	346.40
381.46	383.85
381.65	322.99
381.85	362.78
382.04	374.49
382.24	344.06
382.43	287.89
382.63	311.29
382.83	278.52
383.02	395.55
383.22	337.04
383.41	381.51
383.61	271.50
383.80	369.80
384.00	334.70
384.19	283.20
384.39	341.72
384.58	397.89
384.78	388.53
384.97	372.15
385.17	407.25
385.36	451.72
385.56	376.83
385.75	437.68
385.95	407.25
386.14	437.68
386.34	428.32
386.53	430.66
386.72	395.55
386.92	458.74
387.11	465.77
387.31	477.47
387.50	423.64
387.70	374.49
387.89	379.17
388.09	468.11
388.28	468.11
388.48	386.19
388.67	496.19
388.86	496.19
389.06	393.21
389.25	454.06
389.45	397.89
389.64	482.15
389.84	533.64
390.03	376.83
390.22	465.77
390.42	475.13
390.61	496.19
390.81	552.37
391.00	458.74
391.19	531.30
391.39	493.85
391.58	489.17
391.78	503.22
391.97	526.62
392.16	491.51
392.36	543.00
392.55	601.52
392.75	585.13
392.94	528.96
393.13	603.86
393.33	575.77
393.52	533.64
393.71	535.98
393.91	575.77
394.10	594.50
394.29	559.39
394.49	540.66
394.68	667.05
394.88	568.75
395.07	653.01
395.26	594.50
395.46	557.05
395.65	603.86
395.84	580.45
396.04	685.78
396.23	688.12
396.42	592.16
396.62	610.88
396.81	615.56
397.00	746.63
397.19	671.73
397.39	648.33
397.58	718.54
397.77	734.93
397.97	725.57
398.16	725.57
398.35	725.57
398.55	727.91
398.74	688.12
398.93	798.12
399.12	725.57
399.32	709.18
399.51	697.48
399.70	798.12
399.90	697.48
400.09	730.25
400.28	748.97
400.47	779.40
400.67	788.76
400.86	774.72
401.05	851.96
401.24	798.12
401.44	760.67
401.63	760.67
401.82	812.17
402.01	858.98
402.21	805.14
402.40	767.70
402.59	826.21
402.78	844.93
402.97	877.70
403.17	844.93
403.36	908.13
403.55	901.11
403.74	950.26
403.93	898.77
404.13	985.37
404.32	840.25
404.51	856.64
404.70	938.55
404.89	959.62
405.09	943.24
405.28	940.90
405.47	933.87
405.66	1015.79
405.85	971.32
406.05	968.98
406.24	968.98
406.43	1029.84
406.62	964.30
406.81	1104.73
407.00	1095.37
407.20	980.68
407.39	1071.97
407.58	978.34
407.77	1109.41
407.96	1076.65
408.15	999.41
408.34	1107.07
408.54	1158.57
408.73	1165.59
408.92	1088.35
409.11	1107.07
409.30	1142.18
409.49	1121.12
409.68	1191.33
409.87	1156.22
410.07	1144.52
410.26	1256.87
410.45	1224.10
410.64	1266.23
410.83	1174.95
411.02	1221.76
411.21	1287.29
411.40	1306.02
411.59	1210.06
411.78	1362.19
411.98	1317.72
412.17	1306.02
412.36	1366.87
412.55	1406.66
412.74	1334.11
412.93	1329.42
413.12	1348.15
413.31	1444.11
413.50	1317.72
413.69	1401.98
413.88	1469.86
414.07	1434.75
414.26	1397.30
414.45	1413.68
414.64	1511.99
414.83	1446.45
415.02	1483.90
415.22	1561.14
415.41	1633.69
415.60	1598.59
415.79	1509.65
415.98	1629.01
416.17	1603.27
416.36	1603.27
416.55	1633.69
416.74	1544.75
416.93	1696.89
417.12	1589.22
417.31	1760.08
417.50	1664.12
417.69	1781.15
417.88	1734.34
418.07	1769.44
418.26	1846.68
418.45	1797.53
418.64	1806.89
418.83	1781.15
419.02	1785.83
419.21	1755.40
419.39	1893.49
419.58	1961.37
419.77	1795.19
419.96	1881.79
420.15	1954.35
420.34	1928.60
420.53	1895.83
420.72	1926.26
420.91	2008.18
421.10	1893.49
421.29	1949.67
421.48	1888.81
421.67	2066.69
421.86	1895.83
422.05	2040.95
422.24	1954.35
422.43	1959.03
422.61	1973.07
422.80	2064.35
422.99	1975.41
423.18	1977.75
423.37	2010.52
423.56	2054.99
423.75	2066.69
423.94	2043.29
424.13	1788.17
424.32	1898.17
424.50	1954.35
424.69	2045.63
424.88	2132.23
425.07	2118.18
425.26	2038.61
425.45	2129.89
425.64	1933.28
425.83	2270.32
426.01	2080.74
426.20	2118.18
426.39	2214.15
426.58	2043.29
426.77	2106.48
426.96	2085.42
427.15	2062.01
427.33	2073.71
427.52	2052.65
427.71	2214.15
427.90	2265.64
428.09	2218.83
428.28	2169.68
428.46	2305.43
428.65	2214.15
428.84	2359.26
429.03	2284.36
429.22	2230.53
429.40	2289.04
429.59	2403.73
429.78	2197.76
429.97	2256.28
430.16	2333.51
430.34	2342.88
430.53	2380.32
430.72	2424.80
430.91	2403.73
431.10	2232.87
431.28	2342.88
431.47	2392.03
431.66	2544.16
431.85	2370.96
432.03	2555.86
432.22	2490.33
432.41	2504.37
432.60	2478.63
432.79	2457.56
432.97	2546.50
433.16	2396.71
433.35	2530.12
433.54	2443.52
433.72	2553.52
433.91	2490.33
434.10	2441.18
434.28	2466.92
434.47	2574.59
434.66	2462.24
434.85	2553.52
435.03	2642.46
435.22	2682.25
435.41	2621.40
435.59	2579.27
435.78	2686.94
435.97	2609.70
436.16	2609.70
436.34	2654.17
436.53	2715.02
436.72	2764.17
436.90	2757.15
437.09	2715.02
437.28	2738.43
437.46	2754.81
437.65	2785.24
437.84	2843.75
438.02	2892.90
438.21	2956.10
438.40	2782.90
438.58	2944.39
438.77	2958.44
438.96	2871.84
439.14	2984.18
439.33	2909.29
439.52	2965.46
439.70	2883.54
439.89	2979.50
440.08	3126.96
440.26	2981.84
440.45	3094.19
440.63	3208.87
440.82	3066.10
441.01	3197.17
441.19	3138.66
441.38	3293.13
441.57	3281.43
441.75	3169.09
441.94	3358.67
442.12	3398.46
442.31	3379.73
442.50	3361.01
442.68	3440.59
442.87	3393.78
443.05	3272.07
443.24	3412.50
443.43	3283.77
443.61	3492.08
443.80	3569.32
443.98	3337.60
444.17	3225.26
444.35	3487.40
444.54	3543.57
444.73	3412.50
444.91	3555.27
445.10	3492.08
445.28	3332.92
445.47	3403.14
445.65	3456.97
445.84	3442.93
446.02	3566.98
446.21	3492.08
446.39	3487.40
446.58	3478.04
446.77	3550.59
446.95	3471.01
447.14	3552.93
447.32	3478.04
447.51	3613.79
447.69	3438.25
447.88	3602.08
448.06	3630.17
448.25	3559.95
448.43	3641.87
448.62	3499.10
448.80	3522.51
448.99	3557.61
449.17	3632.51
449.36	3698.05
449.54	3843.16
449.73	3770.60
449.91	3843.16
450.10	3714.43
450.28	3789.33
450.46	3815.07
450.65	3775.28
450.83	3810.39
451.02	3798.69
451.20	3794.01
451.39	3854.86
451.57	3786.99
451.76	3777.62
451.94	3817.41
452.13	3864.22
452.31	3873.59
452.49	3866.56
452.68	4028.06
452.86	4039.76
453.05	4037.42
453.23	4011.68
453.42	3817.41
453.60	3817.41
453.78	3999.98
453.97	4007.00
454.15	4046.79
454.34	3932.10
454.52	4095.94
454.70	4016.36
454.89	4187.22
455.07	4072.53
455.26	4149.77
455.44	4107.64
455.62	4084.23
455.81	4138.07
455.99	4016.36
456.17	4187.22
456.36	4205.94
456.54	4212.96
456.73	4325.31
456.91	4273.82
457.09	4381.48
457.28	4432.97
457.46	4325.31
457.64	4418.93
457.83	4489.15
458.01	4287.86
458.19	4505.53
458.38	4355.74
458.56	4435.32
458.74	4388.50
458.93	4542.98
459.11	4547.66
459.29	4461.06
459.48	4641.28
459.66	4479.79
459.84	4535.96
460.03	4587.45
460.21	4493.83
460.39	4734.90
460.57	4571.07
460.76	4645.96
460.94	4676.39
461.12	4718.52
461.31	4718.52
461.49	4657.67
461.67	4655.33
461.85	4800.44
462.04	4704.48
462.22	5142.16
462.40	4933.85
462.59	4713.84
462.77	4837.89
462.95	4765.33
463.13	4772.35
463.32	4903.42
463.50	4915.12
463.68	4964.28
463.86	5025.13
464.05	4741.93
464.23	4868.31
464.41	4924.49
464.59	4924.49
464.78	5118.75
464.96	4912.78
465.14	4837.89
465.32	5135.14
465.50	4997.04
465.69	5067.26
465.87	5008.75
466.05	4940.87
466.23	5011.09
466.41	5064.92
466.60	5207.69
466.78	5181.95
466.96	5128.11
467.14	5093.01
467.32	5188.97
467.51	5198.33
467.69	5200.67
467.87	5291.95
468.05	5303.65
468.23	5179.61
468.41	5095.35
468.60	5207.69
468.78	5401.96
468.96	5291.95
469.14	5256.84
469.32	5394.93
469.50	5352.81
469.69	5547.07
469.87	5507.28
470.05	5582.18
470.23	5376.21
470.41	5507.28
470.59	5668.78
470.77	5448.77
470.95	5458.13
471.14	5645.37
471.32	5589.20
471.50	5790.49
471.68	5568.13
471.86	5652.39
472.04	5799.85
472.22	5867.72
472.40	5664.10
472.58	5682.82
472.77	5717.93
472.95	5930.92
473.13	6153.27
473.31	5846.66
473.49	5914.53
473.67	6066.67
473.85	6001.13
474.03	6162.63
474.21	6043.26
474.39	6099.44
474.57	5966.03
474.75	6321.79
474.93	6349.87
475.12	6237.53
475.30	6408.39
475.48	6263.27
475.66	6202.42
475.84	6342.85
476.02	6518.39
476.20	6443.49
476.38	6513.71
476.56	6710.32
476.74	6588.61
476.92	6651.80
477.10	6572.22
477.28	6850.75
477.46	6717.34
477.64	6780.53
477.82	6974.80
478.00	7098.84
478.18	7061.40
478.36	7101.19
478.54	7241.62
478.72	7302.47
478.90	7377.37
479.08	7311.83
479.26	7150.34
479.44	7286.09
479.62	7232.26
479.80	7506.10
479.98	7499.08
480.16	7456.95
480.34	7529.50
480.52	7967.18
480.70	7775.26
480.88	7470.99
481.06	7775.26
481.24	7843.14
481.41	7747.17
481.59	8021.02
481.77	8102.93
481.95	8152.09
482.13	8564.02
482.31	8065.49
482.49	8404.86
482.67	8395.50
482.85	8578.06
483.03	8650.62
483.21	8592.11
483.39	8716.16
483.57	8652.96
483.74	8725.52
483.92	8748.92
484.10	8777.01
484.28	9111.71
484.46	9275.54
484.64	9383.21
484.82	9146.81
485.00	9135.11
485.18	9305.97
485.35	9687.48
485.53	9474.49
485.71	9420.66
485.89	9635.99
486.07	9720.24
486.25	9699.18
486.43	9870.04
486.61	9692.16
486.78	10176.65
486.96	10111.11
487.14	10188.35
487.32	10136.86
487.50	10155.58
487.68	10331.12
487.85	10415.38
488.03	10764.12
488.21	10740.72
488.39	10771.15
488.57	10906.90
488.75	10869.45
488.92	11056.69
489.10	10857.75
489.28	11157.33
489.46	11283.72
489.64	11044.99
489.81	11281.38
489.99	11265.00
490.17	11351.60
490.35	11590.33
490.53	11744.81
490.70	12004.61
490.88	11819.71
491.06	11934.39
491.24	11967.16
491.41	11936.73
491.59	12060.78
491.77	12322.92
491.95	12343.99
492.13	12465.69
492.30	12610.81
492.48	12540.59
492.66	12390.80
492.84	12423.56
493.01	12681.02
493.19	12671.66
493.37	12767.62
493.54	13050.83
493.72	13064.87
493.90	13146.79
494.08	13050.83
494.25	13228.71
494.43	13308.29
494.61	13500.21
494.79	13626.60
494.96	13614.90
495.14	13343.39
495.32	13860.65
495.49	13680.43
495.67	13998.74
495.85	14211.73
496.02	13846.61
496.20	14176.62
496.38	14321.74
496.55	13937.89
496.73	14469.19
496.91	14298.33
497.09	14485.58
497.26	14473.87
497.44	14436.42
497.62	14637.71
497.79	14668.14
497.97	14911.55
498.14	15016.88
498.32	15077.73
498.50	15215.82
498.67	15178.37
498.85	15154.97
499.03	15257.95
499.20	15171.35
499.38	15232.21
499.56	15234.55
499.73	15431.15
499.91	15641.80
500.08	15719.04
500.26	15695.63
500.44	15634.78
500.61	15950.75
500.79	15962.45
500.97	15960.11
501.14	15927.35
501.32	15971.82
501.49	16058.42
501.67	16042.03
501.84	16257.36
502.02	16425.88
502.20	16187.14
502.37	16425.88
502.55	16526.52
502.72	16350.98
502.90	16458.65
503.07	16437.58
503.25	16575.67
503.43	16781.64
503.60	16704.40
503.78	16704.40
503.95	16779.30
504.13	17165.49
504.30	16744.19
504.48	16781.64
504.65	16830.79
504.83	17312.94
505.01	17434.65
505.18	17046.12
505.36	17425.29
505.53	17165.49
505.71	17289.54
505.88	17598.49
506.06	17507.21
506.23	17579.76
506.41	17687.43
506.58	17673.39
506.76	17954.25
506.93	17949.57
507.11	17886.37
507.28	18174.26
507.46	17741.26
507.63	17975.31
507.81	18214.05
507.98	18050.21
508.16	17919.14
508.33	18036.17
508.50	18148.51
508.68	18178.94
508.85	18281.92
509.03	18340.44
509.20	18562.79
509.38	18682.16
509.55	18640.03
509.73	18307.67
509.90	18572.15
510.08	18923.23
510.25	18747.69
510.42	18766.42
510.60	18808.54
510.77	19208.78
510.95	18991.11
511.12	18679.82
511.30	19190.05
511.47	19091.75
511.64	19049.62
511.82	19271.97
511.99	19363.25
512.17	19473.26
512.34	19459.21
512.51	19438.15
512.69	19557.52
512.86	19412.40
513.04	19845.40
513.21	19655.82
513.38	19660.50
513.56	19967.11
513.73	19765.82
513.90	20002.22
514.08	19604.33
514.25	19819.66
514.43	19763.48
514.60	19950.73
514.77	20203.50
514.95	20500.75
515.12	19927.32
515.29	20247.97
515.47	20308.83
515.64	20346.28
515.81	20259.68
515.99	20449.26
516.16	20931.41
516.33	20425.86
516.51	20856.51
516.68	20428.20
516.85	20467.98
517.03	20760.55
517.20	20739.49
517.37	20893.96
517.54	20844.81
517.72	21303.56
517.89	21078.86
518.06	20917.37
518.24	21064.82
518.41	21207.59
518.58	21055.46
518.75	21020.35
518.93	21055.46
519.10	21142.06
519.27	20982.90
519.45	21146.74
519.62	21341.00
519.79	21120.99
519.96	21357.39
520.14	21584.42
520.31	21469.73
520.48	21518.89
520.65	21820.81
520.83	21855.92
521.00	21572.72
521.17	21731.87
521.34	21631.23
521.52	21759.96
521.69	22195.30
521.86	22047.85
522.03	22040.82
522.20	22188.28
522.38	22125.08
522.55	22270.20
522.72	21977.63
522.89	22265.52
523.07	22656.39
523.24	22560.42
523.41	22492.55
523.58	22422.33
523.75	22635.32
523.92	22483.19
524.10	22829.59
524.27	22581.49
524.44	22560.42
524.61	22918.53
524.78	22899.80
524.96	23154.92
525.13	23058.96
525.30	22864.69
525.47	22750.01
525.64	22630.64
525.81	23108.11
525.98	23012.15
526.16	23363.23
526.33	23243.86
526.50	23309.40
526.67	23112.79
526.84	23461.53
527.01	23311.74
527.18	23190.03
527.36	23307.05
527.53	23321.10
527.70	23922.62
527.87	23946.02
528.04	23803.25
528.21	23791.55
528.38	23522.38
528.55	23990.49
528.72	23845.38
528.89	23648.77
529.07	23934.32
529.24	23878.15
529.41	23833.68
529.58	23704.95
529.75	23967.09
529.92	23819.63
530.09	24049.00
530.26	24119.22
530.43	23782.18
530.60	24020.92
530.77	24446.90
530.94	24350.93
531.11	24074.75
531.28	24348.59
531.46	24318.17
531.63	24077.09
531.80	24528.81
531.97	24519.45
532.14	25078.84
532.31	24556.90
532.48	24322.85
532.65	24306.46
532.82	24060.71
532.99	24570.94
533.16	24496.05
533.33	24734.78
533.50	25156.08
533.67	25259.06
533.84	24680.95
534.01	24711.38
534.18	24922.02
534.35	24903.30
534.52	25179.48
534.69	24985.22
534.86	24891.60
535.03	25020.33
535.20	25053.09
535.37	25127.99
535.54	24748.82
535.71	25071.82
535.88	25308.21
536.05	25469.71
536.22	25427.58
536.38	25390.13
536.55	25425.24
536.72	25502.48
536.89	24662.22
537.06	25394.81
537.23	25556.31
537.40	25369.07
537.57	25640.57
537.74	25671.00
537.91	25703.76
538.08	25900.37
538.25	25458.01
538.42	25668.66
538.59	25818.45
538.75	25453.33
538.92	25818.45
539.09	25979.95
539.26	26071.23
539.43	25898.03
539.60	25916.75
539.77	25619.50
539.94	25984.63
540.11	25806.75
540.28	26082.93
540.44	26024.42
540.61	25888.67
540.78	26214.00
540.95	26326.35
541.12	26031.44
541.29	25851.22
541.46	26249.11
541.62	26223.36
541.79	25972.92
541.96	26015.05
542.13	26073.57
542.30	26436.35
542.47	26312.30
542.63	26614.23
542.80	26651.68
542.97	26878.71
543.14	26848.29
543.31	26717.22
543.48	26609.55
543.64	26881.05
543.81	26885.73
543.98	26824.88
544.15	27201.71
544.32	27157.24
544.48	27276.60
544.65	26764.03
544.82	27030.85
544.99	26813.18
545.16	26984.04
545.32	26974.67
545.49	27192.34
545.66	27213.41
545.83	27218.09
546.00	27325.75
546.16	27426.40
546.33	27309.37
546.50	27098.72
546.67	27400.65
546.83	26871.69
547.00	27431.08
547.17	27580.87
547.34	27337.46
547.50	27594.92
547.67	27419.38
547.84	27452.14
548.00	27723.65
548.17	27735.35
548.34	27810.25
548.51	27274.26
548.67	27861.74
548.84	27793.86
549.01	27522.36
549.18	27906.21
549.34	27728.33
549.51	28020.89
549.68	28034.94
549.84	27431.08
550.01	27477.89
550.18	27674.49
550.34	28128.56
550.51	28180.05
550.68	28034.94
550.84	27679.18
551.01	27482.57
551.18	27817.27
551.34	28343.89
551.51	27784.50
551.68	27974.08
551.84	28790.93
552.01	28109.83
552.18	28276.01
552.34	28065.36
552.51	28240.90
552.68	27983.44
552.84	27910.89
553.01	28535.81
553.18	28273.67
553.34	28472.62
553.51	28276.01
553.67	28458.57
553.84	28587.30
554.01	28519.43
554.17	28748.80
554.34	28617.73
554.51	28505.38
554.67	28458.57
554.84	28762.84
555.00	28584.96
555.17	28683.27
555.33	28697.31
555.50	28760.50
555.67	28706.67
555.83	28355.59
556.00	28622.41
556.16	29324.57
556.33	28790.93
556.50	28797.95
556.66	29055.41
556.83	28886.89
556.99	29001.58
557.16	29017.96
557.32	29032.00
557.49	28987.53
557.65	28884.55
557.82	28645.82
557.98	29266.06
558.15	28968.81
558.32	28968.81
558.48	29174.78
558.65	29214.57
558.81	29324.57
558.98	29064.77
559.14	29422.87
559.31	28877.53
559.47	29425.22
559.64	29158.39
559.80	28858.81
559.97	29659.27
560.13	29160.73
560.30	29448.62
560.46	29481.39
560.63	29149.03
560.79	28994.56
560.96	29495.43
561.12	29282.44
561.29	29270.74
561.45	29233.29
561.61	29579.69
561.78	29556.28
561.94	29851.19
562.11	29708.42
562.27	29392.45
562.44	29713.10
562.60	29308.19
562.77	29612.46
562.93	29462.66
563.10	29692.04
563.26	29633.52
563.42	29715.44
563.59	29530.54
563.75	29825.45
563.92	29928.43
564.08	29270.74
564.24	29439.26
564.41	29460.32
564.57	29357.34
564.74	29654.59
564.90	29991.62
565.07	29570.33
565.23	29647.57
565.39	29841.83
565.56	29816.08
565.72	29841.83
565.88	29677.99
566.05	29755.23
566.21	29872.26
566.38	29708.42
566.54	30181.21
566.70	30017.37
566.87	29813.74
567.03	30216.32
567.19	30274.83
567.36	30408.24
567.52	29762.25
567.68	30017.37
567.85	29888.64
568.01	29619.48
568.17	29956.52
568.34	29972.90
568.50	29668.63
568.66	30178.87
568.83	29736.51
568.99	29909.71
569.15	29811.40
569.32	29762.25
569.48	29890.98
569.64	30066.52
569.81	30115.67
569.97	30345.05
570.13	30253.76
570.30	29668.63
570.46	30160.14
570.62	30082.91
570.78	29921.41
570.95	30045.46
571.11	30096.95
571.27	29858.21
571.43	29724.80
571.60	30181.21
571.76	29862.90
571.92	30480.80
572.09	30089.93
572.25	30443.35
572.41	30115.67
572.57	30185.89
572.74	30183.55
572.90	29858.21
573.06	30148.44
573.22	30169.51
573.38	30370.79
573.55	30433.99
573.71	30422.28
573.87	30274.83
574.03	30333.34
574.20	29986.94
574.36	30127.38
574.52	30078.22
574.68	30225.68
574.84	30115.67
575.01	30300.58
575.17	29893.32
575.33	30075.88
575.49	30244.40
575.65	30316.96
575.82	30370.79
575.98	30529.95
576.14	30515.90
576.30	30267.81
576.46	30136.74
576.62	30223.34
576.79	30335.68
576.95	30057.16
577.11	30286.53
577.27	30452.71
577.43	30183.55
577.59	30714.85
577.75	30560.37
577.92	29975.24
578.08	30387.18
578.24	30228.02
578.40	30382.49
578.56	30543.99
578.72	30403.56
578.88	30546.33
579.04	30532.29
579.21	30237.38
579.37	30288.87
579.53	30555.69
579.69	30424.62
579.85	29940.13
580.01	30646.97
580.17	30192.91
580.33	30499.52
580.49	30635.27
580.65	30661.02
580.82	30525.27
580.98	30525.27
581.14	30579.10
581.30	30810.81
581.46	30639.95
581.62	30370.79
581.78	29940.13
581.94	30384.83
582.10	30370.79
582.26	30366.11
582.42	30258.45
582.58	30768.68
582.74	30513.56
582.90	30253.76
583.06	30455.05
583.22	30693.79
583.38	30321.64
583.54	30719.53
583.70	30211.64
583.86	30663.36
584.02	30237.38
584.18	30319.30
584.34	30913.80
584.50	30513.56
584.66	30895.07
584.82	30375.47
584.98	30969.97
585.14	30361.43
585.30	30309.94
585.46	30508.88
585.62	30389.52
585.78	30139.08
585.94	30768.68
586.10	30302.92
586.26	30277.17
586.42	30848.26
586.58	31208.70
586.74	30462.07
586.90	30632.93
587.06	30096.95
587.22	30377.81
587.38	30616.55
587.54	31147.85
587.70	30675.06
587.86	30572.08
588.02	30855.28
588.18	30698.47
588.34	30993.37
588.49	30529.95
588.65	30457.39
588.81	30993.37
588.97	30684.42
589.13	30541.65
589.29	30553.35
589.45	30574.42
589.61	30857.62
589.77	31054.23
589.93	30794.43
590.08	30356.75
590.24	31072.95
590.40	30787.41
590.56	30815.49
590.72	31014.44
590.88	30469.09
591.04	30600.16
591.20	30953.58
591.35	30810.81
591.51	31126.78
591.67	30960.61
591.83	31234.45
591.99	30927.84
592.15	31269.56
592.31	30845.92
592.46	30532.29
592.62	30775.70
592.78	30962.95
592.94	30668.04
593.10	31201.68
593.26	31084.65
593.41	31314.03
593.57	30944.22
593.73	30881.03
593.89	31335.09
594.05	31246.15
594.20	31035.50
594.36	31206.36
594.52	30979.33
594.68	30728.89
594.84	30920.82
594.99	30969.97
595.15	31098.70
595.31	31206.36
595.47	30787.41
595.62	31292.96
595.78	31072.95
595.94	31239.13
596.10	30939.54
596.25	30885.71
596.41	31082.31
596.57	30815.49
596.73	31098.70
596.88	31058.91
597.04	31690.85
597.20	31087.00
597.36	31466.16
597.51	31145.51
597.67	30939.54
597.83	31527.02
597.99	31211.04
598.14	30906.77
598.30	31215.72
598.46	31335.09
598.61	31058.91
598.77	30771.02
598.93	31098.70
599.09	31321.05
599.24	31653.40
599.40	31522.34
599.56	31566.81
599.71	31236.79
599.87	31264.88
600.03	31194.66
600.18	31119.76
600.34	31246.15
600.50	30998.06
600.65	31112.74
600.81	31321.05
600.97	31548.08
601.12	31419.35
601.28	31381.90
601.44	31517.65
601.59	31278.92
601.75	31281.26
601.91	31442.76
602.06	31087.00
602.22	31658.09
602.37	31248.49
602.53	30848.26
602.69	31197.00
602.84	31197.00
603.00	31257.85
603.16	31480.21
603.31	31611.28
603.47	31140.83
603.62	30955.93
603.78	31253.17
603.94	31061.25
604.09	30934.86
604.25	30988.69
604.40	31087.00
604.56	31110.40
604.71	31356.16
604.87	31318.71
605.03	31260.20
605.18	31180.62
605.34	31105.72
605.49	30813.15
605.65	31164.23
605.80	31110.40
605.96	31218.07
606.12	30979.33
606.27	31257.85
606.43	31278.92
606.58	31793.84
606.74	31197.00
606.89	30614.21
607.05	30803.79
607.20	31552.76
607.36	30986.35
607.51	31477.86
607.67	30958.27
607.82	30775.70
607.98	31197.00
608.13	31161.89
608.29	30986.35
608.44	31311.69
608.60	31199.34
608.75	30974.65
608.91	31054.23
609.06	30646.97
609.22	30951.24
609.37	30504.20
609.53	30986.35
609.68	30637.61
609.84	30794.43
609.99	30642.29
610.15	30937.20
610.30	31047.21
610.46	30661.02
610.61	31051.89
610.76	30866.98
610.92	31058.91
611.07	31079.97
611.23	30412.92
611.38	30668.04
611.54	30689.10
611.69	30698.47
611.84	30824.86
612.00	30845.92
612.15	30682.08
612.31	30850.60
612.46	30569.74
612.62	30773.36
612.77	30789.75
612.92	30925.50
613.08	30916.14
613.23	30962.95
613.39	30368.45
613.54	30429.30
613.69	30806.13
613.85	30511.22
614.00	30408.24
614.15	30967.63
614.31	30284.19
614.46	30677.40
614.62	30555.69
614.77	30672.72
614.92	30937.20
615.08	30553.35
615.23	30263.13
615.38	30602.50
615.54	30450.37
615.69	30340.36
615.84	30480.80
616.00	30492.50
616.15	30520.59
616.30	30202.27
616.46	30588.46
616.61	30391.86
616.76	30607.19
616.92	30583.78
617.07	30525.27
617.22	30026.73
617.37	29907.37
617.53	30167.16
617.68	30279.51
617.83	30253.76
617.99	30586.12
618.14	30246.74
618.29	30153.12
618.45	30256.11
618.60	30232.70
618.75	29860.55
618.90	30333.34
619.06	30288.87
619.21	30101.63
619.36	30735.92
619.51	30169.51
619.67	29610.12
619.82	30092.27
619.97	29846.51
620.12	29895.66
620.28	29844.17
620.43	30092.27
620.58	29937.79
620.73	30352.07
620.89	30164.82
621.04	30019.71
621.19	29993.97
621.34	29921.41
621.49	29816.08
621.65	29998.65
621.80	30029.07
621.95	29804.38
622.10	30000.99
622.25	29717.78
622.41	29890.98
622.56	29764.59
622.71	30073.54
622.86	29926.09
623.01	29640.54
623.16	29703.74
623.32	29729.48
623.47	29401.81
623.62	29474.37
623.77	29809.06
623.92	29619.48
624.07	29465.00
624.23	29539.90
624.38	29495.43
624.53	29631.18
624.68	29544.58
624.83	29874.60
624.98	29979.92
625.13	29652.25
625.29	29610.12
625.44	29598.41
625.59	29338.62
625.74	29329.25
625.89	29156.05
626.04	29493.09
626.19	29429.90
626.34	29450.96
626.49	29504.79
626.65	29195.84
626.80	29467.34
626.95	29099.88
627.10	29237.97
627.25	29467.34
627.40	29149.03
627.55	29029.66
627.70	28716.03
627.85	28903.28
628.00	29064.77
628.15	29270.74
628.30	28786.25
628.45	28858.81
628.60	28959.45
628.76	28753.48
628.91	29422.87
629.06	29120.95
629.21	29106.90
629.36	29193.50
629.51	28622.41
629.66	29092.86
629.81	28608.37
629.96	28580.28
630.11	28809.65
630.26	29001.58
630.41	29102.22
630.56	28538.15
630.71	28849.44
630.86	28762.84
631.01	28746.46
631.16	28662.20
631.31	28900.94
631.46	28388.36
631.61	28755.82
631.76	28996.90
631.91	28711.35
632.06	28510.07
632.21	28180.05
632.36	28699.65
632.51	28477.30
632.66	28329.84
632.81	28610.71
632.96	28732.42
633.10	28790.93
633.25	28746.46
633.40	28680.92
633.55	28776.89
633.70	28526.45
633.85	28163.67
634.00	28531.13
634.15	28177.71
634.30	28137.92
634.45	28233.88
634.60	28149.62
634.75	28212.82
634.90	28355.59
635.05	28418.78
635.19	28528.79
635.34	28500.70
635.49	28144.94
635.64	28442.19
635.79	28383.68
635.94	28100.47
636.09	28416.44
636.24	28334.53
636.39	27843.01
636.53	28203.46
636.68	27814.93
636.83	27868.76
636.98	28065.36
637.13	28151.96
637.28	28046.64
637.43	28411.76
637.57	28245.58
637.72	28231.54
637.87	27812.59
638.02	27730.67
638.17	27864.08
638.32	27576.19
638.46	27718.96
638.61	28072.39
638.76	27613.64
638.91	27513.00
639.06	27501.29
639.20	27686.20
639.35	27910.89
639.50	28093.45
639.65	28217.50
639.80	28416.44
639.94	27990.47
640.09	27941.32
640.24	27679.18
640.39	27417.04
640.54	27541.08
640.68	27630.02
640.83	27740.03
640.98	27573.85
641.13	27164.26
641.27	27421.72
641.42	27615.98
641.57	27768.12
641.72	27370.22
641.86	27199.37
642.01	27555.13
642.16	27517.68
642.31	26820.20
642.45	27431.08
642.60	27222.77
642.75	27000.42
642.90	27101.06
643.04	27517.68
643.19	27019.14
643.34	27072.98
643.48	27072.98
643.63	27243.84
643.78	27337.46
643.93	27208.73
644.07	27370.22
644.22	27344.48
644.37	27496.61
644.51	26876.37
644.66	27346.82
644.81	26948.93
644.95	27395.97
645.10	27098.72
645.25	27211.07
645.39	26874.03
645.54	27145.53
645.69	26782.75
645.83	27077.66
645.98	26984.04
646.13	27161.92
646.27	27395.97
646.42	27192.34
646.57	26768.71
646.71	27044.89
646.86	26988.72
647.00	26829.56
647.15	26778.07
647.30	27028.51
647.44	26967.65
647.59	26689.13
647.74	27159.58
647.88	26829.56
648.03	27133.83
648.17	26885.73
648.32	27201.71
648.47	26911.48
648.61	26852.97
648.76	27021.48
648.90	26707.85
649.05	26534.65
649.20	26696.15
649.34	26506.57
649.49	26384.86
649.63	26506.57
649.78	26410.60
649.92	26422.31
650.07	26740.62
650.21	26118.04
650.36	26511.25
650.51	26441.03
650.65	26588.49
650.80	26426.99
650.94	26391.88
651.09	26492.52
651.23	26448.05
651.38	26457.42
651.52	26312.30
651.67	26551.04
651.81	26298.26
651.96	26291.24
652.10	26286.56
652.25	26302.94
652.39	26426.99
652.54	26085.27
652.68	26319.32
652.83	26668.06
652.97	26497.20
653.12	26380.18
653.26	26202.30
653.41	26419.97
653.55	26216.34
653.70	26270.17
653.84	26134.42
653.99	26199.96
654.13	25951.86
654.27	26122.72
654.42	25734.19
654.56	26218.68
654.71	26223.36
654.85	26206.98
655.00	26244.43
655.14	26106.34
655.29	26265.49
655.43	26462.10
655.57	25752.91
655.72	25703.76
655.86	25867.60
656.01	26057.18
656.15	25820.79
656.30	25504.82
656.44	25851.22
656.58	25912.07
656.73	26101.65
656.87	25495.46
657.01	25490.77
657.16	25851.22
657.30	25614.82
657.45	26066.55
657.59	26218.68
657.73	25619.50
657.88	25652.27
658.02	25778.66
658.16	25565.67
658.31	25668.66
658.45	25521.20
658.60	25170.12
658.74	25242.68
658.88	25521.20
659.03	25294.17
659.17	25832.49
659.31	25373.75
659.46	25427.58
659.60	25458.01
659.74	25415.88
659.89	25113.95
660.03	25240.34
660.17	25254.38
660.32	25090.54
660.46	25247.36
660.60	24821.38
660.74	25411.20
660.89	25266.08
661.03	24641.16
661.17	25013.31
661.32	24938.41
661.46	25055.43
661.60	24907.98
661.74	25434.60
661.89	25207.57
662.03	25071.82
662.17	24929.05
662.31	24765.21
662.46	25132.67
662.60	24556.90
662.74	24599.03
662.88	24776.91
663.03	24655.20
663.17	24723.08
663.31	24144.97
663.45	24498.39
663.60	24058.37
663.74	24210.50
663.88	24283.06
664.02	24503.07
664.17	24643.50
664.31	24245.61
664.45	24128.58
664.59	24156.67
664.73	24477.32
664.88	24470.30
665.02	23768.14
665.16	24173.05
665.30	24400.08
665.44	24049.00
665.59	23686.22
665.73	23618.35
665.87	23723.67
666.01	24243.27
666.15	23758.78
666.29	23805.59
666.44	23749.42
666.58	23889.85
666.72	23716.65
666.86	24100.50
667.00	23950.70
667.14	23613.66
667.28	23718.99
667.43	23520.04
667.57	23623.03
667.71	23421.74
667.85	23557.49
667.99	23360.89
668.13	23716.65
668.27	23248.54
668.41	23489.62
668.56	23257.90
668.70	23779.84
668.84	23234.50
668.98	23229.82
669.12	23475.57
669.26	23372.59
669.40	23281.31
669.54	23405.36
669.68	23115.13
669.82	22857.67
669.96	22815.54
670.10	22782.77
670.25	22742.99
670.39	22773.41
670.53	22986.40
670.67	22590.85
670.81	22761.71
670.95	22808.52
671.09	22895.12
671.23	22747.67
671.37	22920.87
671.51	22860.01
671.65	22909.16
671.79	22635.32
671.93	22750.01
672.07	22595.53
672.21	22642.34
672.35	22239.77
672.49	22218.71
672.63	22307.65
672.77	22225.73
672.91	22178.92
673.05	22544.04
673.19	22232.75
673.33	22047.85
673.47	22094.66
673.61	22150.83
673.75	21816.13
673.89	22022.10
674.03	21963.59
674.17	22106.36
674.31	21816.13
674.45	21942.52
674.59	21654.64
674.73	21661.66
674.87	21523.57
675.01	21872.31
675.15	21385.47
675.29	21338.66
675.43	21460.37
675.56	21853.58
675.70	21647.61
675.84	21661.66
675.98	20870.56
676.12	21558.67
676.26	21392.50
676.40	21254.40
676.54	20999.29
676.68	21385.47
676.82	20503.09
676.96	20982.90
677.10	20711.40
677.23	20666.93
677.37	20723.10
677.51	20425.86
677.65	20758.21
677.79	20276.06
677.93	20451.60
678.07	20372.02
678.21	20247.97
678.34	20678.63
678.48	20259.68
678.62	20203.50
678.76	20114.56
678.90	20102.86
679.04	20411.81
679.18	20121.59
679.31	19826.68
679.45	19763.48
679.59	19632.41
679.73	19693.27
679.87	19555.18
680.00	19552.84
680.14	19836.04
680.28	19325.80
680.42	19477.94
680.56	19562.20
680.70	19599.65
680.83	19250.91
680.97	19131.54
681.11	19419.42
681.25	19386.66
681.39	18991.11
681.52	19316.44
681.66	18707.90
681.80	19241.54
681.94	19016.85
682.07	18890.46
682.21	18864.72
682.35	18466.83
682.49	18590.88
682.62	18218.73
682.76	18455.12
682.90	18593.22
683.04	18773.44
683.17	18457.46
683.31	18307.67
683.45	18504.28
683.59	18335.76
683.72	18029.15
683.86	18242.14
684.00	18417.68
684.13	18087.66
684.27	17879.35
684.41	17937.87
684.55	17832.54
684.68	18052.55
684.82	17774.03
684.96	17759.98
685.09	17523.59
685.23	17603.17
685.37	17509.55
685.50	17619.55
685.64	17645.30
685.78	17652.32
685.91	17348.05
686.05	17547.00
686.19	17291.88
686.32	17151.45
686.46	17202.94
686.60	16826.11
686.73	16926.75
686.87	16861.22
687.01	16697.38
687.14	16659.93
687.28	16805.05
687.42	16608.44
687.55	16610.78
687.69	16531.20
687.82	16545.25
687.96	16624.83
688.10	16451.63
688.23	16020.97
688.37	16262.04
688.50	16460.99
688.64	16390.77
688.78	16407.16
688.91	16095.86
689.05	16205.87
689.18	16126.29
689.32	15878.19
689.46	15557.54
689.59	15903.94
689.73	15920.32
689.86	15892.24
690.00	15515.41
690.13	15618.39
690.27	15667.55
690.41	15630.10
690.54	15585.63
690.68	15335.19
690.81	15279.02
690.95	15171.35
691.08	15442.85
691.22	15452.22
691.35	15349.23
691.49	15232.21
691.62	14995.81
691.76	14904.53
691.89	14754.74
692.03	14544.09
692.16	14796.87
692.30	14555.79
692.43	14434.08
692.57	14413.02
692.70	14544.09
692.84	14476.21
692.97	14408.34
693.11	14380.25
693.24	14476.21
693.38	14693.88
693.51	14314.72
693.65	14153.22
693.78	14478.55
693.92	14324.08
694.05	14043.21
694.19	13926.19
694.32	14024.49
694.45	13853.63
694.59	13832.57
694.72	13804.48
694.86	13916.83
694.99	13650.00
695.13	13617.24
695.26	13327.01
695.39	13268.50
695.53	13738.94
695.66	13532.98
695.80	13682.77
695.93	13521.27
696.07	13462.76
696.20	13238.07
696.33	12985.29
696.47	13226.37
696.60	13422.97
696.73	12999.34
696.87	12989.97
697.00	12765.28
697.14	12802.73
697.27	12800.39
697.40	12622.51
697.54	12456.33
697.67	12613.15
697.80	12409.52
697.94	12545.27
698.07	12477.40
698.21	12152.06
698.34	12470.37
698.47	12540.59
698.61	12472.71
698.74	12231.64
698.87	12315.90
699.01	12086.53
699.14	12095.89
699.27	12091.21
699.40	12166.10
699.54	11910.99
699.67	11817.36
699.80	11840.77
699.94	11978.86
700.07	11749.49
700.20	11412.45
700.34	11405.43
700.47	11737.79
700.60	11555.22
700.73	11852.47
700.87	11489.69
701.00	11602.04
701.13	11344.58
701.26	11463.94
701.40	11646.51
701.53	11180.74
701.66	11290.74
701.79	11206.48
701.93	11194.78
702.06	11044.99
702.19	10909.24
702.32	11077.76
702.46	10785.19
702.59	10696.25
702.72	10759.44
702.85	10707.95
702.99	10518.37
703.12	10803.91
703.25	10817.96
703.38	10775.83
703.51	10626.03
703.65	10562.84
703.78	10436.45
703.91	10572.20
704.04	10429.43
704.17	10356.87
704.31	10483.26
704.44	10305.38
704.57	10349.85
704.70	10080.69
704.83	10080.69
704.96	10012.81
705.10	10038.56
705.23	9984.73
>>>>>End Processed Spectral Data<<<<<
