SpectraSuite Data File
++++++++++++++++++++++++++++++++++++
Date: Fri Oct 18 13:58:25 GMT-05:00 2013
User: bianchi
Dark Spectrum Present: No
Reference Spectrum Present: No
Number of Sampled Component Spectra: 1
Spectrometers: USB2+H05261
Integration Time (usec): 50000 (USB2+H05261)
Spectra Averaged: 1 (USB2+H05261)
Boxcar Smoothing: 0 (USB2+H05261)
Correct for Electrical Dark: No (USB2+H05261)
Strobe/Lamp Enabled: No (USB2+H05261)
Correct for Detector Non-linearity: No (USB2+H05261)
Correct for Stray Light: No (USB2+H05261)
Number of Pixels in Processed Spectrum: 2048
>>>>>Begin Processed Spectral Data<<<<<
365.73	0.00
365.92	0.00
366.12	0.00
366.32	0.00
366.52	0.00
366.72	0.00
366.91	0.00
367.11	0.00
367.31	0.00
367.51	0.00
367.70	0.00
367.90	0.00
368.10	0.00
368.30	0.00
368.49	0.00
368.69	0.00
368.89	0.00
369.09	0.00
369.28	0.00
369.48	0.00
369.68	0.00
369.87	0.00
370.07	0.00
370.27	0.00
370.47	0.00
370.66	46.81
370.86	88.94
371.06	42.13
371.25	107.66
371.45	91.28
371.65	173.20
371.84	215.33
372.04	114.69
372.24	194.26
372.44	163.84
372.63	212.99
372.83	220.01
373.03	210.65
373.22	205.97
373.42	222.35
373.62	201.29
373.81	222.35
374.01	170.86
374.21	252.78
374.40	187.24
374.60	252.78
374.79	170.86
374.99	271.50
375.19	250.44
375.38	262.14
375.58	217.67
375.78	285.55
375.97	285.55
376.17	215.33
376.37	236.39
376.56	278.52
376.76	255.12
376.95	215.33
377.15	306.61
377.35	297.25
377.54	315.97
377.74	297.25
377.93	271.50
378.13	278.52
378.33	311.29
378.52	243.42
378.72	337.04
378.91	243.42
379.11	320.65
379.31	248.10
379.50	269.16
379.70	262.14
379.89	325.33
380.09	276.18
380.28	231.71
380.48	243.42
380.68	311.29
380.87	330.02
381.07	290.23
381.26	320.65
381.46	313.63
381.65	337.04
381.85	311.29
382.04	318.31
382.24	341.72
382.43	299.59
382.63	259.80
382.83	308.95
383.02	358.10
383.22	365.12
383.41	334.70
383.61	407.25
383.80	290.23
384.00	264.48
384.19	346.40
384.39	376.83
384.58	341.72
384.78	374.49
384.97	383.85
385.17	402.57
385.36	379.17
385.56	468.11
385.75	409.59
385.95	409.59
386.14	372.15
386.34	414.27
386.53	461.09
386.72	313.63
386.92	449.38
387.11	454.06
387.31	510.24
387.50	416.62
387.70	402.57
387.89	351.08
388.09	430.66
388.28	414.27
388.48	404.91
388.67	472.79
388.86	393.21
389.06	465.77
389.25	475.13
389.45	484.49
389.64	463.43
389.84	456.40
390.03	486.83
390.22	517.26
390.42	423.64
390.61	440.02
390.81	456.40
391.00	454.06
391.19	489.17
391.39	498.53
391.58	482.15
391.78	514.92
391.97	465.77
392.16	454.06
392.36	524.28
392.55	599.18
392.75	505.56
392.94	636.63
393.13	573.43
393.33	543.00
393.52	500.87
393.71	557.05
393.91	580.45
394.10	498.53
394.29	622.58
394.49	582.79
394.68	636.63
394.88	645.99
395.07	566.41
395.26	496.19
395.46	559.39
395.65	624.92
395.84	650.67
396.04	627.26
396.23	622.58
396.42	720.88
396.62	664.71
396.81	601.52
397.00	667.05
397.19	594.50
397.39	629.60
397.58	634.29
397.77	704.50
397.97	636.63
398.16	559.39
398.35	753.65
398.55	678.76
398.74	669.39
398.93	702.16
399.12	660.03
399.32	664.71
399.51	636.63
399.70	720.88
399.90	610.88
400.09	669.39
400.28	856.64
400.47	784.08
400.67	786.42
400.86	791.10
401.05	751.31
401.24	730.25
401.44	875.36
401.63	774.72
401.82	861.32
402.01	800.46
402.21	716.20
402.40	875.36
402.59	833.23
402.78	755.99
402.97	828.55
403.17	849.61
403.36	924.51
403.55	901.11
403.74	936.21
403.93	971.32
404.13	959.62
404.32	912.81
404.51	851.96
404.70	964.30
404.89	905.79
405.09	964.30
405.28	947.92
405.47	938.55
405.66	901.11
405.85	945.58
406.05	990.05
406.24	933.87
406.43	1015.79
406.62	1139.84
406.81	973.66
407.00	968.98
407.20	973.66
407.39	1004.09
407.58	1086.01
407.77	1146.86
407.96	1165.59
408.15	1123.46
408.34	1048.56
408.54	1135.16
408.73	1137.50
408.92	1203.04
409.11	1165.59
409.30	1184.31
409.49	1130.48
409.68	1188.99
409.87	1118.78
410.07	1196.01
410.26	1170.27
410.45	1153.88
410.64	1212.40
410.83	1203.04
411.02	1231.12
411.21	1221.76
411.40	1275.59
411.59	1107.07
411.78	1111.75
411.98	1228.78
412.17	1224.10
412.36	1247.51
412.55	1348.15
412.74	1322.40
412.93	1294.32
413.12	1310.70
413.31	1432.41
413.50	1423.05
413.69	1371.55
413.88	1390.28
414.07	1371.55
414.26	1364.53
414.45	1430.07
414.64	1430.07
414.83	1493.26
415.02	1416.02
415.22	1556.46
415.41	1593.90
415.60	1540.07
415.79	1579.86
415.98	1511.99
416.17	1481.56
416.36	1626.67
416.55	1657.10
416.74	1767.10
416.93	1640.72
417.12	1657.10
417.31	1727.32
417.50	1687.53
417.69	1696.89
417.88	1717.95
418.07	1743.70
418.26	1643.06
418.45	1732.00
418.64	1746.04
418.83	1661.78
419.02	1799.87
419.21	1856.04
419.39	1844.34
419.58	1881.79
419.77	1799.87
419.96	1750.72
420.15	1844.34
420.34	1816.26
420.53	1884.13
420.72	1849.02
420.91	1935.62
421.10	1870.09
421.29	1940.30
421.48	1900.52
421.67	1806.89
421.86	1989.46
422.05	1998.82
422.24	2047.97
422.43	2052.65
422.61	1959.03
422.80	2001.16
422.99	2031.58
423.18	1942.64
423.37	2045.63
423.56	2026.90
423.75	1991.80
423.94	2094.78
424.13	1802.21
424.32	1923.92
424.50	1942.64
424.69	2012.86
424.88	2062.01
425.07	2005.84
425.26	2038.61
425.45	1998.82
425.64	2033.93
425.83	2015.20
426.01	2111.16
426.20	2003.50
426.39	2099.46
426.58	2043.29
426.77	2008.18
426.96	2080.74
427.15	2054.99
427.33	2099.46
427.52	2040.95
427.71	2136.91
427.90	2134.57
428.09	2195.42
428.28	2214.15
428.46	2069.03
428.65	2162.66
428.84	2258.62
429.03	2244.57
429.22	2244.57
429.40	2246.91
429.59	2389.69
429.78	2258.62
429.97	2118.18
430.16	2230.53
430.34	2289.04
430.53	2410.75
430.72	2338.20
430.91	2279.68
431.10	2214.15
431.28	2387.35
431.47	2352.24
431.66	2473.95
431.85	2326.49
432.03	2443.52
432.22	2637.78
432.41	2471.61
432.60	2429.48
432.79	2347.56
432.97	2450.54
433.16	2319.47
433.35	2373.30
433.54	2420.11
433.72	2534.80
433.91	2497.35
434.10	2553.52
434.28	2464.58
434.47	2562.89
434.66	2476.29
434.85	2478.63
435.03	2649.49
435.22	2616.72
435.41	2810.98
435.59	2633.10
435.78	2684.59
435.97	2689.28
436.16	2745.45
436.34	2595.65
436.53	2693.96
436.72	2700.98
436.90	2679.91
437.09	2642.46
437.28	2640.12
437.46	2679.91
437.65	2764.17
437.84	2815.66
438.02	2754.81
438.21	2792.26
438.40	2754.81
438.58	2977.16
438.77	2963.12
438.96	2909.29
439.14	2848.43
439.33	2878.86
439.52	2869.50
439.70	3068.44
439.89	2998.23
440.08	3019.29
440.26	2995.89
440.45	3059.08
440.63	2946.73
440.82	3145.68
441.01	3063.76
441.19	3281.43
441.38	3201.85
441.57	3070.78
441.75	3276.75
441.94	3258.03
442.12	3232.28
442.31	3227.60
442.50	3251.00
442.68	3328.24
442.87	3283.77
443.05	3232.28
443.24	3396.12
443.43	3311.86
443.61	3276.75
443.80	3412.50
443.98	3349.31
444.17	3243.98
444.35	3468.67
444.54	3400.80
444.73	3438.25
444.91	3410.16
445.10	3318.88
445.28	3492.08
445.47	3351.65
445.65	3513.14
445.84	3449.95
446.02	3590.38
446.21	3489.74
446.39	3309.52
446.58	3400.80
446.77	3389.10
446.95	3419.52
447.14	3583.36
447.32	3527.19
447.51	3534.21
447.69	3487.40
447.88	3541.23
448.06	3611.45
448.25	3438.25
448.43	3557.61
448.62	3499.10
448.80	3365.69
448.99	3471.01
449.17	3613.79
449.36	3496.76
449.54	3569.32
449.73	3611.45
449.91	3719.11
450.10	3824.44
450.28	3698.05
450.46	3702.73
450.65	3545.91
450.83	3681.66
451.02	3691.02
451.20	3751.88
451.39	3833.80
451.57	3847.84
451.76	3634.85
451.94	3791.67
452.13	3854.86
452.31	3889.97
452.49	3723.79
452.68	3859.54
452.86	3775.28
453.05	3997.64
453.23	4018.70
453.42	4023.38
453.60	3630.17
453.78	3761.24
453.97	3843.16
454.15	3988.27
454.34	3906.35
454.52	3847.84
454.70	3969.55
454.89	4046.79
455.07	4135.73
455.26	4091.26
455.44	4173.18
455.62	4084.23
455.81	3960.19
455.99	4037.42
456.17	4084.23
456.36	4100.62
456.54	4168.49
456.73	4234.03
456.91	4250.41
457.09	4198.92
457.28	4610.86
457.46	4301.90
457.64	4344.03
457.83	4425.95
458.01	4182.54
458.19	4196.58
458.38	4262.12
458.56	4519.57
458.74	4428.29
458.93	4374.46
459.11	4386.16
459.29	4465.74
459.48	4519.57
459.66	4348.72
459.84	4360.42
460.03	4582.77
460.21	4573.41
460.39	4552.34
460.57	4451.70
460.76	4503.19
460.94	4592.13
461.12	4594.47
461.31	4533.62
461.49	4484.47
461.67	4507.87
461.85	4643.62
462.04	4798.10
462.22	4774.69
462.40	4800.44
462.59	4571.07
462.77	4791.08
462.95	4861.29
463.13	4669.37
463.32	4671.71
463.50	4720.86
463.68	4954.91
463.86	4828.53
464.05	4802.78
464.23	4826.18
464.41	4903.42
464.59	4821.50
464.78	4858.95
464.96	4880.02
465.14	4767.67
465.32	4980.66
465.50	4938.53
465.69	4999.38
465.87	4849.59
466.05	4905.76
466.23	5015.77
466.41	4898.74
466.60	4929.17
466.78	5027.47
466.96	4957.25
467.14	5078.96
467.32	5015.77
467.51	5116.41
467.69	4938.53
467.87	5095.35
468.05	5291.95
468.23	4983.00
468.41	5076.62
468.60	5128.11
468.78	5172.58
468.96	5165.56
469.14	5198.33
469.32	5397.28
469.50	5214.71
469.69	5228.76
469.87	5399.62
470.05	5352.81
470.23	5423.02
470.41	5289.61
470.59	5542.39
470.77	5380.89
470.95	5472.17
471.14	5577.50
471.32	5315.36
471.50	5511.96
471.68	5668.78
471.86	5523.66
472.04	5577.50
472.22	5811.55
472.40	5832.62
472.58	5577.50
472.77	5837.30
472.95	5795.17
473.13	5907.51
473.31	5788.14
473.49	5610.26
473.67	5738.99
473.85	5837.30
474.03	5961.34
474.21	5937.94
474.39	6073.69
474.57	6022.20
474.75	6179.01
474.93	6050.28
475.12	6092.41
475.30	6174.33
475.48	6169.65
475.66	6230.51
475.84	6396.68
476.02	6363.92
476.20	6387.32
476.38	6331.15
476.56	6539.46
476.74	6551.16
476.92	6373.28
477.10	6539.46
477.28	6576.91
477.46	6464.56
477.64	6754.79
477.82	6740.74
478.00	6881.18
478.18	6930.33
478.36	6913.94
478.54	6913.94
478.72	7054.37
478.90	6972.46
479.08	7267.36
479.26	7143.32
479.44	7080.12
479.62	7131.61
479.80	7349.28
479.98	7433.54
480.16	7728.45
480.34	7590.36
480.52	7550.57
480.70	7475.67
480.88	7545.89
481.06	7655.89
481.24	7531.84
481.41	7564.61
481.59	7946.12
481.77	7861.86
481.95	7859.52
482.13	8084.21
482.31	8046.76
482.49	8262.09
482.67	8271.45
482.85	8336.99
483.03	8369.76
483.21	8428.27
483.39	8603.81
483.57	8631.90
483.74	8685.73
483.92	8723.18
484.10	8503.17
484.28	8910.42
484.46	8929.14
484.64	9008.72
484.82	8819.14
485.00	9015.74
485.18	9371.50
485.35	9317.67
485.53	9413.63
485.71	9298.95
485.89	9397.25
486.07	9537.68
486.25	9430.02
486.43	9643.01
486.61	9715.56
486.78	9802.16
486.96	9877.06
487.14	10038.56
487.32	10001.11
487.50	10083.03
487.68	10090.05
487.85	10314.74
488.03	10370.91
488.21	10434.11
488.39	10469.22
488.57	10270.27
488.75	10656.46
488.92	10930.30
489.10	10883.49
489.28	10911.58
489.46	10848.38
489.64	11136.27
489.81	11164.36
489.99	11433.52
490.17	11346.92
490.35	11428.84
490.53	11468.62
490.70	11442.88
490.88	11438.20
491.06	11723.74
491.24	11602.04
491.41	11815.02
491.59	12091.21
491.77	11819.71
491.95	11934.39
492.13	12219.94
492.30	12028.01
492.48	12233.98
492.66	12004.61
492.84	12271.43
493.01	12320.58
493.19	12465.69
493.37	12718.47
493.54	12521.87
493.72	12645.91
493.90	12989.97
494.08	13071.89
494.25	12884.65
494.43	13132.75
494.61	12980.61
494.79	13303.60
494.96	12989.97
495.14	13296.58
495.32	13631.28
495.49	13596.17
495.67	13525.96
495.85	13659.37
496.02	13916.83
496.20	13731.92
496.38	13776.39
496.55	13886.40
496.73	14174.28
496.91	14118.11
497.09	14040.87
497.26	14122.79
497.44	14265.57
497.62	14403.66
497.79	14569.83
497.97	14312.38
498.14	14555.79
498.32	14579.20
498.50	14698.56
498.67	14871.76
498.85	14874.10
499.03	14768.78
499.20	14810.91
499.38	14686.86
499.56	15019.22
499.73	15077.73
499.91	15260.29
500.08	15374.98
500.26	15199.44
500.44	15311.78
500.61	15328.17
500.79	15400.72
500.97	15761.17
501.14	15716.70
501.32	15805.64
501.49	15695.63
501.67	15761.17
501.84	15550.52
502.02	15733.08
502.20	15896.92
502.37	16222.25
502.55	16084.16
502.72	16252.68
502.90	15899.26
503.07	16299.49
503.25	16276.09
503.43	16107.57
503.60	16243.32
503.78	16418.86
503.95	16489.07
504.13	16676.32
504.30	16805.05
504.48	16379.07
504.65	16442.26
504.83	16573.33
505.01	17076.55
505.18	16950.16
505.36	17277.83
505.53	16662.27
505.71	17039.10
505.88	16957.18
506.06	16753.55
506.23	17348.05
506.41	16844.84
506.58	17319.96
506.76	17451.03
506.93	17336.35
507.11	17509.55
507.28	17444.01
507.46	17507.21
507.63	17694.45
507.81	17699.13
507.98	17682.75
508.16	17696.79
508.33	17453.37
508.50	17912.12
508.68	17778.71
508.85	17919.14
509.03	17933.18
509.20	18050.21
509.38	18113.41
509.55	17837.22
509.73	18359.16
509.90	18071.28
510.08	18389.59
510.25	18132.13
510.42	18354.48
510.60	18492.57
510.77	18623.64
510.95	18398.95
511.12	18333.42
511.30	18331.08
511.47	18647.05
511.64	18740.67
511.82	19016.85
511.99	18895.14
512.17	19108.13
512.34	19117.50
512.51	19159.63
512.69	19129.20
512.86	19021.53
513.04	19267.29
513.21	19124.52
513.38	19253.25
513.56	19604.33
513.73	19278.99
513.90	19393.68
514.08	19594.96
514.25	19536.45
514.43	19468.58
514.60	19625.39
514.77	19639.44
514.95	19559.86
515.12	19438.15
515.29	19613.69
515.47	20018.60
515.64	19936.68
515.81	19990.52
515.99	20147.33
516.16	20187.12
516.33	20357.98
516.51	20395.43
516.68	20142.65
516.85	20006.90
517.03	20123.93
517.20	20208.19
517.37	20273.72
517.54	20348.62
517.72	20496.07
517.89	20327.55
518.06	20524.16
518.24	20318.19
518.41	20528.84
518.58	20688.00
518.75	20769.91
518.93	20594.37
519.10	20833.11
519.27	20872.90
519.45	20814.38
519.62	21118.65
519.79	20858.85
519.96	20912.69
520.14	20994.61
520.31	21142.06
520.48	21207.59
520.65	20893.96
520.83	21273.13
521.00	21371.43
521.17	21097.59
521.34	21184.19
521.52	21128.02
521.69	21282.49
521.86	21418.24
522.03	21561.02
522.20	21825.50
522.38	21696.77
522.55	21551.65
522.72	21558.67
522.89	21619.53
523.07	22113.38
523.24	22005.72
523.41	22087.64
523.58	21799.75
523.75	21944.86
523.92	22097.00
524.10	21876.99
524.27	22286.58
524.44	22218.71
524.61	22230.41
524.78	22197.64
524.96	22389.56
525.13	22354.46
525.30	22356.80
525.47	22499.57
525.64	22368.50
525.81	22677.45
525.98	22176.58
526.16	22473.82
526.33	22391.91
526.50	22607.23
526.67	22398.93
526.84	22621.28
527.01	22412.97
527.18	22782.77
527.36	22410.63
527.53	23110.45
527.70	23021.51
527.87	23138.54
528.04	23192.37
528.21	23021.51
528.38	22845.97
528.55	23026.19
528.72	23171.30
528.89	22855.33
529.07	23246.20
529.24	23374.93
529.41	23290.67
529.58	22897.46
529.75	23309.40
529.92	23171.30
530.09	23309.40
530.26	23204.07
530.43	23545.79
530.60	23384.29
530.77	23524.72
530.94	23625.37
531.11	23311.74
531.28	23480.25
531.46	23590.26
531.63	23421.74
531.80	23784.52
531.97	24247.95
532.14	23924.96
532.31	23814.95
532.48	23775.16
532.65	23735.37
532.82	23658.14
532.99	23789.20
533.16	24126.24
533.33	24257.31
533.50	24313.48
533.67	24065.39
533.84	24224.54
534.01	24046.66
534.18	24004.53
534.35	24339.23
534.52	24203.48
534.69	24505.41
534.86	24617.75
535.03	24573.28
535.20	24568.60
535.37	24650.52
535.54	24615.41
535.71	24311.14
535.88	24503.07
536.05	24418.81
536.22	24535.84
536.38	24809.68
536.55	24940.75
536.72	24706.70
536.89	24624.78
537.06	24844.79
537.23	24952.45
537.40	24891.60
537.57	24788.61
537.74	25312.89
537.91	25020.33
538.08	24886.92
538.25	24936.07
538.42	24868.19
538.59	25216.93
538.75	25020.33
538.92	24889.26
539.09	25209.91
539.26	25275.45
539.43	25303.53
539.60	25572.69
539.77	25357.36
539.94	25188.85
540.11	25373.75
540.28	25472.05
540.44	25326.94
540.61	25439.28
540.78	25432.26
540.95	24954.79
541.12	25591.42
541.29	25495.46
541.46	25577.37
541.62	25376.09
541.79	25467.37
541.96	25303.53
542.13	25607.80
542.30	25731.85
542.47	25738.87
542.63	25806.75
542.80	25759.94
542.97	25806.75
543.14	26066.55
543.31	26059.52
543.48	25799.73
543.64	26356.77
543.81	25865.26
543.98	26239.75
544.15	26221.02
544.32	26478.48
544.48	26522.95
544.65	26485.50
544.82	26286.56
544.99	25951.86
545.16	26274.85
545.32	26295.92
545.49	26864.67
545.66	26906.80
545.83	26480.82
546.00	26719.56
546.16	26431.67
546.33	26567.42
546.50	26319.32
546.67	26354.43
546.83	26473.80
547.00	26593.17
547.17	26616.57
547.34	26714.87
547.50	26724.24
547.67	27234.47
547.84	26962.97
548.00	27084.68
548.17	26874.03
548.34	26700.83
548.51	26862.33
548.67	26897.44
548.84	26775.73
549.01	26810.84
549.18	26930.20
549.34	26979.36
549.51	26972.33
549.68	26972.33
549.84	27068.30
550.01	27131.49
550.18	26801.47
550.34	27075.32
550.51	27124.47
550.68	27407.67
550.84	27185.32
551.01	27505.98
551.18	27253.20
551.34	27049.57
551.51	27316.39
551.68	27288.31
551.84	27632.36
552.01	27257.88
552.18	27828.97
552.34	27459.16
552.51	27889.82
552.68	27377.25
552.84	27440.44
553.01	27358.52
553.18	27433.42
553.34	27377.25
553.51	27690.88
553.67	27779.82
553.84	28109.83
554.01	27903.87
554.17	27688.54
554.34	27765.78
554.51	27599.60
554.67	27803.22
554.84	27559.81
555.00	27711.94
555.17	27931.95
555.33	27793.86
555.50	27721.30
555.67	28009.19
555.83	27934.29
556.00	27936.63
556.16	28002.17
556.33	27885.14
556.50	27971.74
556.66	28170.69
556.83	27974.08
556.99	28140.26
557.16	28327.50
557.32	28308.78
557.49	28357.93
557.65	28074.73
557.82	28063.02
557.98	28126.22
558.15	28048.98
558.32	28517.09
558.48	28109.83
558.65	28599.01
558.81	28114.52
558.98	28421.13
559.14	28563.90
559.31	28526.45
559.47	28594.32
559.64	28706.67
559.80	28697.31
559.97	28505.38
560.13	28472.62
560.30	28322.82
560.46	28709.01
560.63	28409.42
560.79	28861.15
560.96	28793.27
561.12	28521.77
561.29	28233.88
561.45	28151.96
561.61	28753.48
561.78	28599.01
561.94	28886.89
562.11	28971.15
562.27	28231.54
562.44	28243.24
562.60	28453.89
562.77	28821.36
562.93	27999.83
563.10	28753.48
563.26	28711.35
563.42	28833.06
563.59	28645.82
563.75	28704.33
563.92	28945.41
564.08	28404.74
564.24	28802.63
564.41	28807.31
564.57	28687.95
564.74	28411.76
564.90	28919.66
565.07	28671.56
565.23	28926.68
565.39	28950.09
565.56	28828.38
565.72	28704.33
565.88	28940.72
566.05	28732.42
566.21	28725.39
566.38	29064.77
566.54	28760.50
566.70	29338.62
566.87	28793.27
567.03	29027.32
567.19	29291.80
567.36	29322.23
567.52	29134.99
567.68	29247.33
567.85	29034.35
568.01	29116.26
568.17	28648.16
568.34	29486.07
568.50	29071.79
568.66	29350.32
568.83	29053.07
568.99	28999.24
569.15	29036.69
569.32	29060.09
569.48	29483.73
569.64	29048.39
569.81	29427.56
569.97	29305.85
570.13	29228.61
570.30	29134.99
570.46	29242.65
570.62	29359.68
570.78	29244.99
570.95	28947.75
571.11	29167.76
571.27	28952.43
571.43	28786.25
571.60	29092.86
571.76	29298.83
571.92	29336.27
572.09	29256.70
572.25	29202.86
572.41	29331.59
572.57	29188.82
572.74	29371.38
572.90	29324.57
573.06	29244.99
573.22	29277.76
573.38	29268.40
573.55	29237.97
573.71	29273.08
573.87	29359.68
574.03	29193.50
574.20	29043.71
574.36	28922.00
574.52	29057.75
574.68	29670.97
574.84	29694.38
575.01	29212.23
575.17	29490.75
575.33	29446.28
575.49	29336.27
575.65	29750.55
575.82	29432.24
575.98	28884.55
576.14	29727.14
576.30	29649.91
576.46	29181.80
576.62	29202.86
576.79	29392.45
576.95	29476.71
577.11	29343.30
577.27	29392.45
577.43	29790.34
577.59	29448.62
577.75	29465.00
577.92	29242.65
578.08	29291.80
578.24	29221.59
578.40	29275.42
578.56	29472.03
578.72	29549.26
578.88	30059.50
579.04	29401.81
579.21	29610.12
579.37	29530.54
579.53	29701.40
579.69	28989.88
579.85	29282.44
580.01	29586.71
580.17	29450.96
580.33	29675.65
580.49	29434.58
580.65	29790.34
580.82	29717.78
580.98	29731.83
581.14	29497.77
581.30	29624.16
581.46	29296.49
581.62	29457.98
581.78	29591.39
581.94	29888.64
582.10	29289.46
582.26	29668.63
582.42	29928.43
582.58	29682.67
582.74	29614.80
582.90	29930.77
583.06	29600.76
583.22	29537.56
583.38	29675.65
583.54	29834.81
583.70	29570.33
583.86	29720.12
584.02	29123.29
584.18	29926.09
584.34	29617.14
584.50	29855.87
584.66	29385.43
584.82	29872.26
584.98	29837.15
585.14	29230.95
585.30	29291.80
585.46	29680.33
585.62	29734.17
585.78	29415.85
585.94	29439.26
586.10	29778.64
586.26	29846.51
586.42	29972.90
586.58	29956.52
586.74	29654.59
586.90	29324.57
587.06	29516.50
587.22	29268.40
587.38	29567.99
587.54	29923.75
587.70	29949.50
587.86	29621.82
588.02	29933.11
588.18	30015.03
588.34	29766.93
588.49	29628.84
588.65	29500.11
588.81	29804.38
588.97	29823.11
589.13	29972.90
589.29	29642.88
589.45	29575.01
589.61	30019.71
589.77	29661.61
589.93	30085.25
590.08	30246.74
590.24	30438.67
590.40	30157.80
590.56	30040.78
590.72	30157.80
590.88	29862.90
591.04	29942.47
591.20	30057.16
591.35	29949.50
591.51	30338.02
591.67	30466.75
591.83	30469.09
591.99	30094.61
592.15	30195.25
592.31	30096.95
592.46	29778.64
592.62	29752.89
592.78	29586.71
592.94	29696.72
593.10	29731.83
593.26	30359.09
593.41	30206.95
593.57	30052.48
593.73	30125.04
593.89	29982.26
594.05	30331.00
594.20	30230.36
594.36	30277.17
594.52	29724.80
594.68	29832.47
594.84	29930.77
594.99	29996.31
595.15	29802.04
595.31	30185.89
595.47	30059.50
595.62	30218.66
595.78	30073.54
595.94	30050.14
596.10	30298.23
596.25	30157.80
596.41	30089.93
596.57	29890.98
596.73	30218.66
596.88	30101.63
597.04	30319.30
597.20	30424.62
597.36	30300.58
597.51	30230.36
597.67	30286.53
597.83	30169.51
597.99	30127.38
598.14	30043.12
598.30	30139.08
598.46	29893.32
598.61	30480.80
598.77	30237.38
598.93	30525.27
599.09	30309.94
599.24	30328.66
599.40	30462.07
599.56	30338.02
599.71	30115.67
599.87	30403.56
600.03	30183.55
600.18	30490.16
600.34	30017.37
600.50	30019.71
600.65	30253.76
600.81	30504.20
600.97	30600.16
601.12	30906.77
601.28	30574.42
601.44	30415.26
601.59	30256.11
601.75	30012.69
601.91	30155.46
602.06	30043.12
602.22	30197.59
602.37	30251.42
602.53	30162.48
602.69	30288.87
602.84	30202.27
603.00	29989.28
603.16	30487.82
603.31	30246.74
603.47	30085.25
603.62	30082.91
603.78	30150.78
603.94	29933.11
604.09	30136.74
604.25	30000.99
604.40	30216.32
604.56	30424.62
604.71	30394.20
604.87	30260.79
605.03	30223.34
605.18	30368.45
605.34	30174.19
605.49	29965.88
605.65	29926.09
605.80	30113.33
605.96	30281.85
606.12	30373.13
606.27	30279.51
606.43	30045.46
606.58	30387.18
606.74	30075.88
606.89	30328.66
607.05	30263.13
607.20	30242.06
607.36	30150.78
607.51	30127.38
607.67	29876.94
607.82	29689.70
607.98	30017.37
608.13	30265.47
608.29	30015.03
608.44	30185.89
608.60	30045.46
608.75	30216.32
608.91	29895.66
609.06	30057.16
609.22	30176.53
609.37	29846.51
609.53	29682.67
609.68	29692.04
609.84	29668.63
609.99	29619.48
610.15	29806.72
610.30	29790.34
610.46	29766.93
610.61	29853.53
610.76	29694.38
610.92	29998.65
611.07	30029.07
611.23	29748.21
611.38	29968.22
611.54	29820.77
611.69	29577.35
611.84	29619.48
612.00	29553.94
612.15	29855.87
612.31	29933.11
612.46	29638.20
612.62	29919.07
612.77	29738.85
612.92	30260.79
613.08	29542.24
613.23	29780.98
613.39	29612.46
613.54	29266.06
613.69	29675.65
613.85	29467.34
614.00	29532.88
614.15	29715.44
614.31	29605.44
614.46	29696.72
614.62	29266.06
614.77	29701.40
614.92	29572.67
615.08	29799.70
615.23	29659.27
615.38	29436.92
615.54	29219.25
615.69	29329.25
615.84	29507.13
616.00	29645.23
616.15	29577.35
616.30	29479.05
616.46	29399.47
616.61	29797.36
616.76	29806.72
616.92	29383.09
617.07	29479.05
617.22	29177.12
617.37	29127.97
617.53	29127.97
617.68	29207.55
617.83	29186.48
617.99	29387.77
618.14	29420.53
618.29	29340.96
618.45	29457.98
618.60	28992.22
618.75	29289.46
618.90	29163.08
619.06	29483.73
619.21	29050.73
619.36	29247.33
619.51	29039.03
619.67	28666.88
619.82	28730.08
619.97	28957.11
620.12	28903.28
620.28	28922.00
620.43	29371.38
620.58	29134.99
620.73	28914.98
620.89	29130.31
621.04	29071.79
621.19	29338.62
621.34	28917.32
621.49	28573.26
621.65	29252.02
621.80	28540.49
621.95	28940.72
622.10	28905.62
622.25	28723.05
622.41	28613.05
622.56	28744.12
622.71	29125.63
622.86	29081.16
623.01	29010.94
623.16	28678.58
623.32	28400.06
623.47	28594.32
623.62	28858.81
623.77	28762.84
623.92	28512.41
624.07	28540.49
624.23	28903.28
624.38	28746.46
624.53	28503.04
624.68	28744.12
624.83	28875.19
624.98	28943.06
625.13	28650.50
625.29	28561.56
625.44	28819.02
625.59	28444.53
625.74	27985.79
625.89	28313.46
626.04	28198.77
626.19	28343.89
626.34	28430.49
626.49	28128.56
626.65	28486.66
626.80	28449.21
626.95	28369.63
627.10	28531.13
627.25	28142.60
627.40	28336.87
627.55	28252.61
627.70	28006.85
627.85	28039.62
628.00	27784.50
628.15	28182.39
628.30	27957.70
628.45	28006.85
628.60	27927.27
628.76	28465.60
628.91	27915.57
629.06	28034.94
629.21	28044.30
629.36	27960.04
629.51	27992.81
629.66	27796.20
629.81	27747.05
629.96	27772.80
630.11	27955.36
630.26	27765.78
630.41	27695.56
630.56	27791.52
630.71	27974.08
630.86	27763.43
631.01	28390.70
631.16	27953.02
631.31	27662.79
631.46	27318.73
631.61	27758.75
631.76	27805.56
631.91	27470.87
632.06	27620.66
632.21	27632.36
632.36	27477.89
632.51	27466.19
632.66	27627.68
632.81	27524.70
632.96	27730.67
633.10	27211.07
633.25	27398.31
633.40	27742.37
633.55	27344.48
633.70	27248.52
633.85	27145.53
634.00	27566.83
634.15	27321.07
634.30	27330.44
634.45	27065.96
634.60	27592.58
634.75	27241.50
634.90	27374.91
635.05	27445.12
635.19	27620.66
635.34	27878.12
635.49	27709.60
635.64	27438.10
635.79	27040.21
635.94	27510.66
636.09	27438.10
636.24	26962.97
636.39	27250.86
636.53	27012.12
636.68	27227.45
636.83	26871.69
636.98	27466.19
637.13	27005.10
637.28	27218.09
637.43	27105.74
637.57	27145.53
637.72	27241.50
637.87	27077.66
638.02	27323.41
638.17	26864.67
638.32	26848.29
638.46	26499.55
638.61	26630.62
638.76	26279.54
638.91	26815.52
639.06	27040.21
639.20	27082.34
639.35	27007.44
639.50	27143.19
639.65	26794.45
639.80	26991.06
639.94	26707.85
640.09	26953.61
640.24	26955.95
640.39	26499.55
640.54	26335.71
640.68	26178.89
640.83	26544.02
640.98	26464.44
641.13	26497.20
641.27	26897.44
641.42	26223.36
641.57	26845.94
641.72	26565.08
641.86	26590.83
642.01	26574.44
642.16	26602.53
642.31	26352.09
642.45	26366.13
642.60	25951.86
642.75	26485.50
642.90	26288.90
643.04	26003.35
643.19	26324.01
643.34	26714.87
643.48	26230.38
643.63	26520.61
643.78	26118.04
643.93	26459.76
644.07	26443.37
644.22	26462.10
644.37	26199.96
644.51	26382.52
644.66	26342.73
644.81	26164.85
644.95	26148.46
645.10	26195.28
645.25	26071.23
645.39	26225.70
645.54	26237.41
645.69	25921.43
645.83	25881.64
645.98	26005.69
646.13	26595.51
646.27	26286.56
646.42	26127.40
646.57	26228.04
646.71	26188.25
646.86	25982.29
647.00	25900.37
647.15	25699.08
647.30	25813.77
647.44	26106.34
647.59	25965.90
647.74	25872.28
647.88	25762.28
648.03	26080.59
648.17	26061.87
648.32	26001.01
648.47	26078.25
648.61	25766.96
648.76	25933.14
648.90	25848.88
649.05	26099.31
649.20	25659.29
649.34	26204.64
649.49	26101.65
649.63	25528.22
649.78	25790.36
649.92	25509.50
650.07	25797.38
650.21	25359.70
650.36	25811.43
650.51	25584.40
650.65	25827.81
650.80	25624.18
650.94	25668.66
651.09	25593.76
651.23	25228.63
651.38	25603.12
651.52	25022.67
651.67	25284.81
651.81	25612.48
651.96	25369.07
652.10	25338.64
652.25	25486.09
652.39	25373.75
652.54	25572.69
652.68	25394.81
652.83	25680.36
652.97	25612.48
653.12	25380.77
653.26	25338.64
653.41	25415.88
653.55	24769.89
653.70	24931.39
653.84	25357.36
653.99	25092.88
654.13	25373.75
654.27	25397.15
654.42	25228.63
654.56	25184.16
654.71	25195.87
654.85	25207.57
655.00	25366.73
655.14	25439.28
655.29	25043.73
655.43	25001.60
655.57	24933.73
655.72	25120.97
655.86	25003.94
656.01	24975.86
656.15	24814.36
656.30	24893.94
656.44	24704.35
656.58	25083.52
656.73	24795.64
656.87	24872.87
657.01	25083.52
657.16	24966.49
657.30	24840.11
657.45	24905.64
657.59	24702.01
657.73	24800.32
657.88	24739.46
658.02	24524.13
658.16	24687.97
658.31	24709.04
658.45	24559.24
658.60	24154.33
658.74	24435.19
658.88	24652.86
659.03	24533.50
659.17	24491.37
659.31	24833.08
659.46	24496.05
659.60	24669.25
659.74	24664.57
659.89	24484.34
660.03	24348.59
660.17	24299.44
660.32	24350.93
660.46	24051.34
660.60	24226.89
660.74	23971.77
660.89	24135.60
661.03	23927.30
661.17	24238.59
661.32	24187.10
661.46	24180.07
661.60	24147.31
661.74	24339.23
661.89	24032.62
662.03	24041.98
662.17	23693.24
662.31	23847.72
662.46	24009.22
662.60	23796.23
662.74	23929.64
662.88	23721.33
663.03	23576.22
663.17	23304.71
663.31	23330.46
663.45	23569.19
663.60	23571.54
663.74	23545.79
663.88	23672.18
664.02	23700.26
664.17	23566.85
664.31	23325.78
664.45	23480.25
664.59	23599.62
664.73	23391.31
664.88	23288.33
665.02	23101.09
665.16	23201.73
665.30	22986.40
665.44	22977.04
665.59	23051.94
665.73	23349.18
665.87	22899.80
666.01	23183.01
666.15	23028.53
666.29	23365.57
666.44	23110.45
666.58	22855.33
666.72	22890.44
666.86	23077.68
667.00	23302.37
667.14	22843.63
667.28	23009.81
667.43	22611.92
667.57	22995.76
667.71	22604.89
667.85	22625.96
667.99	22572.13
668.13	22682.13
668.27	22841.29
668.41	22553.40
668.56	22230.41
668.70	22539.36
668.84	22710.22
668.98	22448.08
669.12	22668.09
669.26	22204.66
669.40	22324.03
669.54	22249.13
669.68	22410.63
669.82	22181.26
669.96	21986.99
670.10	22019.76
670.25	22314.67
670.39	22012.74
670.53	21837.20
670.67	21523.57
670.81	21970.61
670.95	21996.35
671.09	22036.14
671.23	21776.34
671.37	22024.44
671.51	22052.53
671.65	21881.67
671.79	21722.51
671.93	21755.28
672.07	21991.67
672.21	21481.44
672.35	21511.86
672.49	21291.85
672.63	21179.51
672.77	21184.19
672.91	21186.53
673.05	21139.72
673.19	21495.48
673.33	21413.56
673.47	21003.97
673.61	21411.22
673.75	21238.02
673.89	21181.85
674.03	20896.30
674.17	21181.85
674.31	21165.46
674.45	21139.72
674.59	20802.68
674.73	21036.74
674.87	21135.04
675.01	20816.72
675.15	20683.31
675.29	20652.89
675.43	20868.22
675.56	20819.07
675.70	20741.83
675.84	20414.15
675.98	19990.52
676.12	20582.67
676.26	20624.80
676.40	20954.82
676.54	20444.58
676.68	20489.05
676.82	19878.17
676.96	19871.15
677.10	20030.30
677.23	19934.34
677.37	19594.96
677.51	20051.37
677.65	20144.99
677.79	19754.12
677.93	19728.38
678.07	19550.49
678.21	19697.95
678.34	19632.41
678.48	19445.17
678.62	19459.21
678.76	19398.36
678.90	19330.48
679.04	19288.35
679.18	19290.70
679.31	19042.60
679.45	18876.42
679.59	18838.97
679.73	18796.84
679.87	18754.71
680.00	18717.26
680.14	18948.98
680.28	18974.72
680.42	18595.56
680.56	18572.15
680.70	18572.15
680.83	18913.87
680.97	18490.23
681.11	18647.05
681.25	18494.91
681.39	18326.39
681.52	18307.67
681.66	18181.28
681.80	17980.00
681.94	18174.26
682.07	18298.31
682.21	18270.22
682.35	17799.77
682.49	18078.30
682.62	17874.67
682.76	17830.20
682.90	17631.26
683.04	17720.20
683.17	17806.80
683.31	17755.30
683.45	17858.29
683.59	17788.07
683.72	17572.74
683.86	17820.84
684.00	17415.93
684.13	17357.41
684.27	17298.90
684.41	17231.02
684.55	16994.63
684.68	17020.38
684.82	17156.13
684.96	17121.02
685.09	16999.31
685.23	16819.09
685.37	16978.25
685.50	16821.43
685.64	16957.18
685.78	16835.47
685.91	16929.09
686.05	17039.10
686.19	16690.36
686.32	16570.99
686.46	16372.05
686.60	16336.94
686.73	16168.42
686.87	16042.03
687.01	16287.79
687.14	16283.11
687.28	16187.14
687.42	15810.32
687.55	15971.82
687.69	16311.19
687.82	15920.32
687.96	15749.46
688.10	15864.15
688.23	15882.88
688.37	15847.77
688.50	15660.52
688.64	15747.12
688.78	15651.16
688.91	15477.96
689.05	15335.19
689.18	15407.75
689.32	15208.80
689.46	15243.91
689.59	15147.95
689.73	15026.24
689.86	15297.74
690.00	14960.70
690.13	15016.88
690.27	14916.23
690.41	15140.93
690.54	14920.92
690.68	14787.50
690.81	14899.85
690.95	14909.21
691.08	14644.73
691.22	14661.12
691.35	14672.82
691.49	14499.62
691.62	14740.69
691.76	14331.10
691.89	14178.97
692.03	14232.80
692.16	14054.92
692.30	14153.22
692.43	14033.85
692.57	14043.21
692.70	13795.12
692.84	13968.32
692.97	14150.88
693.11	13898.10
693.24	13783.41
693.38	13834.91
693.51	13687.45
693.65	13774.05
693.78	13657.03
693.92	13675.75
694.05	13406.59
694.19	13422.97
694.32	13427.65
694.45	13460.42
694.59	13102.32
694.72	13156.15
694.86	13160.83
694.99	12882.31
695.13	12982.95
695.26	12952.52
695.39	13221.69
695.53	12858.90
695.66	12786.35
695.80	12905.71
695.93	12982.95
696.07	13069.55
696.20	12833.16
696.33	12901.03
696.47	12451.65
696.60	12683.36
696.73	12734.85
696.87	12517.18
697.00	12358.03
697.14	12540.59
697.27	12067.80
697.40	12131.00
697.54	12121.63
697.67	11882.90
697.80	11983.54
697.94	11957.80
698.07	11936.73
698.21	12072.48
698.34	12173.13
698.47	12105.25
698.61	12077.16
698.74	11953.12
698.87	11861.84
699.01	11447.56
699.14	11461.60
699.27	11592.67
699.40	11653.53
699.54	11765.87
699.67	11632.46
699.80	11276.70
699.94	11492.03
700.07	11173.72
700.20	11201.80
700.34	11112.86
700.47	10904.56
700.60	11265.00
700.73	11183.08
700.87	11206.48
701.00	11353.94
701.13	10839.02
701.26	11147.97
701.40	10970.09
701.53	10984.13
701.66	10881.15
701.79	10619.01
701.93	10665.82
702.06	10434.11
702.19	10541.77
702.32	10487.94
702.46	10436.45
702.59	10532.41
702.72	10153.24
702.85	10377.94
702.99	10289.00
703.12	10331.12
703.25	10193.03
703.38	10335.81
703.51	10207.08
703.65	10017.49
703.78	9998.77
703.91	10129.84
704.04	9930.89
704.17	9970.68
704.31	9870.04
704.44	9685.14
704.57	10097.07
704.70	9722.59
704.83	9591.52
704.96	9614.92
705.10	9458.10
705.23	9575.13
>>>>>End Processed Spectral Data<<<<<
