SpectraSuite Data File
++++++++++++++++++++++++++++++++++++
Date: Fri Oct 18 13:58:15 GMT-05:00 2013
User: bianchi
Dark Spectrum Present: No
Reference Spectrum Present: No
Number of Sampled Component Spectra: 1
Spectrometers: USB2+H05261
Integration Time (usec): 50000 (USB2+H05261)
Spectra Averaged: 1 (USB2+H05261)
Boxcar Smoothing: 0 (USB2+H05261)
Correct for Electrical Dark: No (USB2+H05261)
Strobe/Lamp Enabled: No (USB2+H05261)
Correct for Detector Non-linearity: No (USB2+H05261)
Correct for Stray Light: No (USB2+H05261)
Number of Pixels in Processed Spectrum: 2048
>>>>>Begin Processed Spectral Data<<<<<
365.73	0.00
365.92	0.00
366.12	0.00
366.32	0.00
366.52	0.00
366.72	0.00
366.91	0.00
367.11	0.00
367.31	0.00
367.51	0.00
367.70	0.00
367.90	0.00
368.10	0.00
368.30	0.00
368.49	0.00
368.69	0.00
368.89	0.00
369.09	0.00
369.28	0.00
369.48	0.00
369.68	0.00
369.87	0.00
370.07	0.00
370.27	0.00
370.47	0.00
370.66	86.60
370.86	231.71
371.06	65.54
371.25	72.56
371.45	128.73
371.65	140.43
371.84	241.08
372.04	215.33
372.24	149.79
372.44	163.84
372.63	222.35
372.83	205.97
373.03	170.86
373.22	180.22
373.42	248.10
373.62	145.11
373.81	285.55
374.01	252.78
374.21	224.69
374.40	222.35
374.60	201.29
374.79	280.86
374.99	294.91
375.19	271.50
375.38	252.78
375.58	266.82
375.78	292.57
375.97	198.95
376.17	351.08
376.37	224.69
376.56	290.23
376.76	201.29
376.95	231.71
377.15	299.59
377.35	252.78
377.54	318.31
377.74	257.46
377.93	220.01
378.13	285.55
378.33	322.99
378.52	285.55
378.72	257.46
378.91	271.50
379.11	259.80
379.31	318.31
379.50	308.95
379.70	294.91
379.89	280.86
380.09	339.38
380.28	266.82
380.48	339.38
380.68	334.70
380.87	327.68
381.07	280.86
381.26	381.51
381.46	330.02
381.65	227.03
381.85	355.76
382.04	252.78
382.24	404.91
382.43	346.40
382.63	290.23
382.83	355.76
383.02	418.96
383.22	374.49
383.41	365.12
383.61	327.68
383.80	318.31
384.00	358.10
384.19	327.68
384.39	339.38
384.58	355.76
384.78	346.40
384.97	397.89
385.17	393.21
385.36	393.21
385.56	402.57
385.75	374.49
385.95	423.64
386.14	379.17
386.34	416.62
386.53	437.68
386.72	393.21
386.92	393.21
387.11	393.21
387.31	454.06
387.50	421.30
387.70	402.57
387.89	421.30
388.09	416.62
388.28	379.17
388.48	362.78
388.67	463.43
388.86	468.11
389.06	512.58
389.25	425.98
389.45	458.74
389.64	440.02
389.84	484.49
390.03	528.96
390.22	503.22
390.42	521.94
390.61	437.68
390.81	535.98
391.00	519.60
391.19	479.81
391.39	470.45
391.58	491.51
391.78	407.25
391.97	491.51
392.16	486.83
392.36	568.75
392.55	528.96
392.75	561.73
392.94	547.69
393.13	533.64
393.33	545.34
393.52	503.22
393.71	610.88
393.91	528.96
394.10	503.22
394.29	470.45
394.49	664.71
394.68	638.97
394.88	559.39
395.07	566.41
395.26	620.24
395.46	585.13
395.65	550.03
395.84	641.31
396.04	660.03
396.23	664.71
396.42	594.50
396.62	568.75
396.81	643.65
397.00	695.14
397.19	643.65
397.39	641.31
397.58	690.46
397.77	641.31
397.97	713.86
398.16	678.76
398.35	716.20
398.55	662.37
398.74	746.63
398.93	608.54
399.12	664.71
399.32	603.86
399.51	683.44
399.70	765.36
399.90	716.20
400.09	683.44
400.28	763.01
400.47	763.01
400.67	830.89
400.86	674.07
401.05	791.10
401.24	821.53
401.44	870.68
401.63	842.59
401.82	791.10
402.01	795.78
402.21	877.70
402.40	809.83
402.59	788.76
402.78	795.78
402.97	807.48
403.17	844.93
403.36	858.98
403.55	870.68
403.74	807.48
403.93	910.47
404.13	788.76
404.32	917.49
404.51	858.98
404.70	884.72
404.89	933.87
405.09	898.77
405.28	931.53
405.47	976.00
405.66	943.24
405.85	971.32
406.05	994.73
406.24	1022.81
406.43	919.83
406.62	1039.20
406.81	1055.58
407.00	1029.84
407.20	943.24
407.39	1034.52
407.58	1027.50
407.77	1088.35
407.96	1100.05
408.15	994.73
408.34	1107.07
408.54	954.94
408.73	1006.43
408.92	1128.14
409.11	1165.59
409.30	1128.14
409.49	1088.35
409.68	1186.65
409.87	1193.67
410.07	1128.14
410.26	1203.04
410.45	1191.33
410.64	1167.93
410.83	1275.59
411.02	1196.01
411.21	1287.29
411.40	1238.14
411.59	1160.91
411.78	1172.61
411.98	1256.87
412.17	1313.04
412.36	1256.87
412.55	1350.49
412.74	1299.00
412.93	1235.80
413.12	1392.62
413.31	1380.92
413.50	1383.26
413.69	1399.64
413.88	1437.09
414.07	1444.11
414.26	1383.26
414.45	1418.36
414.64	1399.64
414.83	1481.56
415.02	1476.88
415.22	1387.94
415.41	1582.20
415.60	1502.62
415.79	1554.12
415.98	1446.45
416.17	1479.22
416.36	1640.72
416.55	1619.65
416.74	1617.31
416.93	1605.61
417.12	1673.48
417.31	1572.84
417.50	1664.12
417.69	1732.00
417.88	1764.76
418.07	1753.06
418.26	1724.97
418.45	1811.57
418.64	1867.75
418.83	1818.60
419.02	1769.44
419.21	1757.74
419.39	1727.32
419.58	1673.48
419.77	1870.09
419.96	1842.00
420.15	1834.98
420.34	1827.96
420.53	1919.24
420.72	1933.28
420.91	1994.14
421.10	1973.07
421.29	2019.88
421.48	2015.20
421.67	1940.30
421.86	1935.62
422.05	1987.11
422.24	1902.86
422.43	1984.77
422.61	1991.80
422.80	1944.99
422.99	2003.50
423.18	1984.77
423.37	2026.90
423.56	2045.63
423.75	2033.93
423.94	2017.54
424.13	1842.00
424.32	1926.26
424.50	2031.58
424.69	2225.85
424.88	2001.16
425.07	2003.50
425.26	1980.09
425.45	1940.30
425.64	1921.58
425.83	1977.75
426.01	2047.97
426.20	1970.73
426.39	2083.08
426.58	2104.14
426.77	2129.89
426.96	1961.37
427.15	2047.97
427.33	2122.87
427.52	2073.71
427.71	2190.74
427.90	2209.47
428.09	2176.70
428.28	2310.11
428.46	2218.83
428.65	2195.42
428.84	2239.89
429.03	2155.63
429.22	2214.15
429.40	2186.06
429.59	2267.98
429.78	2146.27
429.97	2150.95
430.16	2303.09
430.34	2181.38
430.53	2209.47
430.72	2204.78
430.91	2326.49
431.10	2209.47
431.28	2279.68
431.47	2361.60
431.66	2396.71
431.85	2361.60
432.03	2394.37
432.22	2340.54
432.41	2466.92
432.60	2349.90
432.79	2382.67
432.97	2403.73
433.16	2476.29
433.35	2366.28
433.54	2441.18
433.72	2415.43
433.91	2452.88
434.10	2532.46
434.28	2445.86
434.47	2464.58
434.66	2466.92
434.85	2492.67
435.03	2541.82
435.22	2668.21
435.41	2740.77
435.59	2605.02
435.78	2647.15
435.97	2679.91
436.16	2560.55
436.34	2677.57
436.53	2637.78
436.72	2729.06
436.90	2567.57
437.09	2619.06
437.28	2668.21
437.46	2619.06
437.65	2736.09
437.84	2857.79
438.02	2722.04
438.21	2752.47
438.40	2761.83
438.58	2792.26
438.77	2806.30
438.96	2862.48
439.14	2876.52
439.33	2864.82
439.52	2883.54
439.70	3035.67
439.89	2984.18
440.08	2991.20
440.26	3002.91
440.45	2998.23
440.63	3035.67
440.82	3091.85
441.01	3241.64
441.19	3192.49
441.38	3148.02
441.57	3152.70
441.75	3241.64
441.94	3365.69
442.12	3272.07
442.31	3267.39
442.50	3346.97
442.68	3276.75
442.87	3361.01
443.05	3176.11
443.24	3389.10
443.43	3339.94
443.61	3428.88
443.80	3475.70
443.98	3243.98
444.17	3246.32
444.35	3449.95
444.54	3562.30
444.73	3522.51
444.91	3506.12
445.10	3255.69
445.28	3293.13
445.47	3440.59
445.65	3480.38
445.84	3433.57
446.02	3201.85
446.21	3400.80
446.39	3496.76
446.58	3494.42
446.77	3506.12
446.95	3421.86
447.14	3466.33
447.32	3543.57
447.51	3445.27
447.69	3520.17
447.88	3609.11
448.06	3522.51
448.25	3449.95
448.43	3421.86
448.62	3524.85
448.80	3492.08
448.99	3562.30
449.17	3552.93
449.36	3445.27
449.54	3667.62
449.73	3693.37
449.91	3744.86
450.10	3602.08
450.28	3665.28
450.46	3805.71
450.65	3648.90
450.83	3714.43
451.02	3684.00
451.20	3763.58
451.39	3775.28
451.57	3604.42
451.76	3824.44
451.94	3735.50
452.13	3892.31
452.31	3866.56
452.49	3808.05
452.68	3777.62
452.86	3880.61
453.05	3847.84
453.23	3819.75
453.42	3978.91
453.60	3798.69
453.78	3969.55
453.97	3866.56
454.15	4117.00
454.34	3857.20
454.52	4135.73
454.70	3985.93
454.89	3974.23
455.07	4154.45
455.26	4025.72
455.44	4105.30
455.62	4065.51
455.81	4074.87
455.99	4112.32
456.17	4067.85
456.36	4159.13
456.54	4072.53
456.73	4278.50
456.91	4227.01
457.09	4227.01
457.28	4423.61
457.46	4257.43
457.64	4423.61
457.83	4147.43
458.01	4210.62
458.19	4234.03
458.38	4348.72
458.56	4369.78
458.74	4400.21
458.93	4367.44
459.11	4346.37
459.29	4444.68
459.48	4505.53
459.66	4461.06
459.84	4552.34
460.03	4627.24
460.21	4535.96
460.39	4454.04
460.57	4496.17
460.76	4507.87
460.94	4447.02
461.12	4674.05
461.31	4657.67
461.49	4606.17
461.67	4594.47
461.85	4720.86
462.04	4575.75
462.22	4910.44
462.40	4723.20
462.59	4704.48
462.77	4851.93
462.95	4678.73
463.13	4657.67
463.32	4910.44
463.50	4873.00
463.68	4770.01
463.86	4784.06
464.05	4704.48
464.23	4767.67
464.41	4844.91
464.59	4809.80
464.78	4807.46
464.96	4748.95
465.14	4830.87
465.32	4983.00
465.50	5020.45
465.69	5001.72
465.87	4896.40
466.05	5048.54
466.23	5004.07
466.41	5093.01
466.60	5076.62
466.78	4968.96
466.96	4912.78
467.14	4947.89
467.32	4957.25
467.51	5104.71
467.69	4851.93
467.87	5055.56
468.05	5212.37
468.23	5057.90
468.41	5034.49
468.60	5181.95
468.78	5221.74
468.96	5135.14
469.14	5184.29
469.32	5331.74
469.50	5275.57
469.69	5348.12
469.87	5277.91
470.05	5432.38
470.23	5385.57
470.41	5418.34
470.59	5298.97
470.77	5401.96
470.95	5401.96
471.14	5472.17
471.32	5341.10
471.50	5495.58
471.68	5561.11
471.86	5558.77
472.04	5638.35
472.22	5764.74
472.40	5710.91
472.58	5802.19
472.77	5703.89
472.95	5771.76
473.13	5961.34
473.31	5909.85
473.49	5853.68
473.67	5832.62
473.85	5834.96
474.03	5975.39
474.21	5891.13
474.39	6057.31
474.57	6150.93
474.75	5930.92
474.93	6193.06
475.12	6150.93
475.30	6427.11
475.48	6078.37
475.66	6246.89
475.84	6155.61
476.02	6207.10
476.20	6368.60
476.38	6452.86
476.56	6574.56
476.74	6654.14
476.92	6410.73
477.10	6567.54
477.28	6696.27
477.46	6619.04
477.64	6649.46
477.82	6820.32
478.00	6841.39
478.18	7075.44
478.36	7084.80
478.54	7037.99
478.72	6974.80
478.90	7042.67
479.08	7129.27
479.26	7068.42
479.44	7330.56
479.62	7365.67
479.80	7442.90
479.98	7468.65
480.16	7412.48
480.34	7403.11
480.52	7683.98
480.70	7618.44
480.88	7536.52
481.06	7595.04
481.24	7573.97
481.41	7784.62
481.59	7866.54
481.77	8044.42
481.95	7803.35
482.13	8184.85
482.31	8056.12
482.49	8198.90
482.67	8156.77
482.85	8411.89
483.03	8409.54
483.21	8496.14
483.39	8519.55
483.57	8638.92
483.74	8711.47
483.92	8681.05
484.10	8554.66
484.28	8879.99
484.46	8990.00
484.64	9114.05
484.82	8985.32
485.00	9081.28
485.18	9270.86
485.35	9432.36
485.53	9170.22
485.71	9249.80
485.89	9387.89
486.07	9647.69
486.25	9329.38
486.43	9671.09
486.61	9596.20
486.78	9895.78
486.96	9713.22
487.14	10029.20
487.32	10141.54
487.50	10312.40
487.68	10200.05
487.85	10303.04
488.03	10384.96
488.21	10436.45
488.39	10703.27
488.57	10611.99
488.75	10703.27
488.92	10768.80
489.10	10661.14
489.28	10700.93
489.46	11042.65
489.64	10902.22
489.81	11241.59
489.99	11204.14
490.17	11272.02
490.35	11370.32
490.53	11522.46
490.70	11506.07
490.88	11302.45
491.06	11992.90
491.24	11470.97
491.41	11669.91
491.59	11880.56
491.77	11749.49
491.95	11899.28
492.13	12126.32
492.30	12067.80
492.48	12360.37
492.66	12341.64
492.84	12285.47
493.01	12376.75
493.19	12610.81
493.37	12545.27
493.54	12905.71
493.72	12891.67
493.90	12788.69
494.08	12819.11
494.25	12695.07
494.43	13214.66
494.61	13097.64
494.79	13418.29
494.96	13006.36
495.14	13170.19
495.32	13378.50
495.49	13469.78
495.67	13451.06
495.85	13624.26
496.02	13657.03
496.20	13530.64
496.38	13764.69
496.55	13767.03
496.73	14457.49
496.91	14097.05
497.09	14059.60
497.26	14263.22
497.44	14059.60
497.62	14375.57
497.79	14352.16
497.97	14279.61
498.14	14792.19
498.32	14736.01
498.50	14696.22
498.67	14850.70
498.85	14930.28
499.03	14736.01
499.20	14897.51
499.38	14923.26
499.56	15164.33
499.73	15236.89
499.91	15566.90
500.08	15279.02
500.26	15159.65
500.44	15215.82
500.61	15587.97
500.79	15620.74
500.97	15452.22
501.14	15922.66
501.32	15480.30
501.49	15520.09
501.67	15735.42
501.84	15747.12
502.02	16006.92
502.20	15843.09
502.37	16121.61
502.55	16128.63
502.72	16248.00
502.90	15852.45
503.07	16023.31
503.25	16205.87
503.43	16460.99
503.60	16655.25
503.78	16519.50
503.95	16147.36
504.13	16479.71
504.30	16435.24
504.48	16669.30
504.65	16910.37
504.83	16648.23
505.01	16971.22
505.18	16922.07
505.36	17001.65
505.53	16975.91
505.71	17057.82
505.88	16842.50
506.06	16933.78
506.23	17013.35
506.41	17263.79
506.58	17191.23
506.76	17326.99
506.93	17490.82
507.11	17128.04
507.28	17476.78
507.46	17369.12
507.63	17523.59
507.81	17598.49
507.98	17642.96
508.16	17717.86
508.33	17554.02
508.50	17724.88
508.68	17806.80
508.85	18202.35
509.03	18164.90
509.20	17839.56
509.38	17827.86
509.55	18230.43
509.73	18155.54
509.90	18317.03
510.08	18024.47
510.25	18185.96
510.42	18370.86
510.60	18462.15
510.77	18677.48
510.95	18862.38
511.12	18497.25
511.30	18869.40
511.47	18546.40
511.64	18803.86
511.82	18824.93
511.99	18850.67
512.17	18934.93
512.34	18834.29
512.51	19021.53
512.69	19040.26
512.86	19147.92
513.04	19627.73
513.21	19428.79
513.38	19433.47
513.56	19440.49
513.73	19370.27
513.90	19477.94
514.08	19482.62
514.25	19417.08
514.43	19550.49
514.60	19779.87
514.77	19709.65
514.95	19932.00
515.12	19356.23
515.29	19737.74
515.47	19683.91
515.64	19924.98
515.81	19597.31
515.99	20051.37
516.16	20245.63
516.33	20238.61
516.51	20306.49
516.68	19964.77
516.85	20156.69
517.03	20088.82
517.20	20346.28
517.37	20290.10
517.54	20226.91
517.72	20814.38
517.89	20114.56
518.06	20486.71
518.24	20688.00
518.41	20444.58
518.58	20746.51
518.75	20318.19
518.93	20732.47
519.10	20666.93
519.27	20788.64
519.45	20587.35
519.62	21153.76
519.79	20624.80
519.96	20945.45
520.14	21010.99
520.31	20861.19
520.48	21544.63
520.65	20933.75
520.83	21502.50
521.00	21277.81
521.17	21163.12
521.34	21350.37
521.52	21303.56
521.69	21488.46
521.86	21930.82
522.03	21736.56
522.20	21956.57
522.38	21855.92
522.55	21713.15
522.72	21563.36
522.89	21612.51
523.07	21900.39
523.24	21659.32
523.41	22015.08
523.58	21926.14
523.75	22033.80
523.92	22073.59
524.10	22181.26
524.27	22160.19
524.44	22565.10
524.61	22307.65
524.78	22188.28
524.96	22251.47
525.13	22122.74
525.30	22607.23
525.47	22438.72
525.64	22462.12
525.81	22366.16
525.98	22553.40
526.16	22670.43
526.33	22766.39
526.50	23019.17
526.67	22665.75
526.84	22668.09
527.01	22649.36
527.18	22916.19
527.36	23065.98
527.53	22794.48
527.70	23124.49
527.87	23119.81
528.04	23026.19
528.21	22850.65
528.38	22918.53
528.55	23236.84
528.72	23110.45
528.89	23124.49
529.07	23311.74
529.24	23314.08
529.41	23646.43
529.58	23391.31
529.75	23274.29
529.92	23417.06
530.09	23426.42
530.26	23632.39
530.43	23847.72
530.60	23435.78
530.77	23342.16
530.94	23651.11
531.11	23592.60
531.28	23618.35
531.46	23599.62
531.63	23894.53
531.80	23630.05
531.97	23756.44
532.14	24177.73
532.31	23981.13
532.48	24065.39
532.65	24482.00
532.82	23779.84
532.99	23917.93
533.16	23894.53
533.33	24542.86
533.50	24292.42
533.67	24114.54
533.84	24208.16
534.01	23964.75
534.18	24039.64
534.35	24320.51
534.52	24514.77
534.69	24453.92
534.86	24563.92
535.03	24341.57
535.20	24421.15
535.37	24760.53
535.54	24400.08
535.71	24079.43
535.88	24599.03
536.05	24395.40
536.22	24809.68
536.38	24856.49
536.55	24687.97
536.72	24975.86
536.89	24617.75
537.06	24814.36
537.23	24856.49
537.40	24947.77
537.57	24870.53
537.74	25120.97
537.91	25462.69
538.08	25216.93
538.25	24947.77
538.42	25298.85
538.59	24978.20
538.75	24762.87
538.92	25027.35
539.09	25163.10
539.26	25750.57
539.43	25298.85
539.60	25420.56
539.77	25310.55
539.94	25387.79
540.11	25156.08
540.28	25649.93
540.44	25699.08
540.61	25266.08
540.78	25539.93
540.95	25591.42
541.12	25322.26
541.29	25277.79
541.46	25898.03
541.62	25553.97
541.79	25605.46
541.96	25558.65
542.13	25785.68
542.30	25853.56
542.47	26033.78
542.63	25832.49
542.80	26125.06
542.97	26012.71
543.14	26328.69
543.31	26085.27
543.48	25830.15
543.64	26314.64
543.81	26466.78
543.98	26494.86
544.15	26391.88
544.32	26426.99
544.48	26558.06
544.65	26534.65
544.82	26389.54
544.99	25898.03
545.16	26368.48
545.32	26181.23
545.49	26527.63
545.66	26742.96
545.83	26771.05
546.00	26476.14
546.16	26590.83
546.33	26583.80
546.50	26169.53
546.67	26906.80
546.83	26377.84
547.00	26838.92
547.17	26852.97
547.34	26761.69
547.50	26834.24
547.67	27166.60
547.84	27061.27
548.00	26642.32
548.17	26867.01
548.34	26806.16
548.51	27187.66
548.67	26944.25
548.84	27021.48
549.01	27344.48
549.18	27051.91
549.34	26829.56
549.51	27152.55
549.68	27253.20
549.84	27218.09
550.01	27271.92
550.18	26834.24
550.34	27356.18
550.51	27288.31
550.68	27527.04
550.84	26855.31
551.01	27405.33
551.18	27447.46
551.34	27187.66
551.51	27356.18
551.68	27522.36
551.84	27267.24
552.01	27435.76
552.18	27318.73
552.34	27615.98
552.51	27590.24
552.68	27559.81
552.84	27960.04
553.01	27697.90
553.18	27484.91
553.34	27791.52
553.51	27637.05
553.67	27630.02
553.84	27613.64
554.01	27866.42
554.17	27777.48
554.34	27536.40
554.51	27562.15
554.67	27742.37
554.84	27857.06
555.00	27861.74
555.17	28018.55
555.33	27992.81
555.50	27990.47
555.67	28212.82
555.83	28072.39
556.00	27868.76
556.16	28400.06
556.33	28304.10
556.50	28357.93
556.66	28505.38
556.83	28233.88
556.99	28657.52
557.16	28243.24
557.32	28126.22
557.49	28158.99
557.65	28217.50
557.82	27873.44
557.98	28189.41
558.15	27971.74
558.32	28329.84
558.48	28147.28
558.65	28444.53
558.81	28254.95
558.98	28395.38
559.14	28481.98
559.31	28629.43
559.47	28140.26
559.64	28521.77
559.80	28329.84
559.97	28982.85
560.13	28481.98
560.30	28697.31
560.46	28627.09
560.63	28610.71
560.79	28584.96
560.96	28652.84
561.12	28563.90
561.29	28465.60
561.45	28755.82
561.61	28531.13
561.78	28924.34
561.94	28596.67
562.11	28900.94
562.27	28847.10
562.44	28793.27
562.60	28774.55
562.77	28886.89
562.93	28657.52
563.10	28657.52
563.26	28758.16
563.42	29202.86
563.59	29057.75
563.75	28489.00
563.92	29050.73
564.08	28505.38
564.24	28926.68
564.41	29034.35
564.57	28388.36
564.74	28833.06
564.90	28924.34
565.07	28655.18
565.23	28694.97
565.39	29055.41
565.56	29015.62
565.72	28980.51
565.88	28891.57
566.05	28917.32
566.21	29230.95
566.38	29144.35
566.54	28828.38
566.70	29167.76
566.87	29500.11
567.03	28957.11
567.19	29355.00
567.36	29200.52
567.52	29127.97
567.68	29029.66
567.85	29216.91
568.01	28982.85
568.17	29137.33
568.34	29338.62
568.50	29111.58
568.66	29200.52
568.83	29647.57
568.99	29048.39
569.15	29074.13
569.32	28893.91
569.48	29053.07
569.64	29296.49
569.81	29263.72
569.97	29228.61
570.13	29387.77
570.30	29371.38
570.46	29240.31
570.62	29366.70
570.78	29160.73
570.95	29308.19
571.11	29465.00
571.27	29237.97
571.43	29036.69
571.60	29490.75
571.76	29062.43
571.92	29006.26
572.09	29748.21
572.25	29369.04
572.41	29563.31
572.57	29626.50
572.74	29404.15
572.90	29109.24
573.06	29127.97
573.22	29282.44
573.38	29472.03
573.55	29546.92
573.71	29685.01
573.87	29453.30
574.03	29301.17
574.20	29055.41
574.36	29090.52
574.52	29659.27
574.68	29289.46
574.84	29242.65
575.01	29600.76
575.17	29476.71
575.33	29450.96
575.49	29497.77
575.65	29579.69
575.82	29619.48
575.98	29757.57
576.14	29488.41
576.30	29584.37
576.46	29149.03
576.62	29745.87
576.79	29972.90
576.95	29181.80
577.11	29441.60
577.27	29764.59
577.43	29832.47
577.59	29600.76
577.75	29692.04
577.92	29146.69
578.08	29116.26
578.24	29408.83
578.40	29357.34
578.56	30015.03
578.72	29841.83
578.88	29720.12
579.04	29827.79
579.21	29390.11
579.37	29516.50
579.53	29755.23
579.69	29184.14
579.85	29439.26
580.01	29556.28
580.17	29535.22
580.33	29502.45
580.49	29511.81
580.65	29685.01
580.82	29958.86
580.98	29766.93
581.14	29682.67
581.30	29486.07
581.46	29338.62
581.62	29521.18
581.78	29427.56
581.94	29844.17
582.10	29626.50
582.26	29972.90
582.42	29472.03
582.58	29874.60
582.74	29820.77
582.90	29792.68
583.06	29771.61
583.22	29603.10
583.38	29780.98
583.54	29788.00
583.70	29507.13
583.86	29755.23
584.02	29448.62
584.18	29495.43
584.34	29898.00
584.50	29869.92
584.66	29965.88
584.82	29521.18
584.98	29654.59
585.14	29497.77
585.30	29720.12
585.46	29614.80
585.62	29741.19
585.78	30398.88
585.94	29390.11
586.10	29734.17
586.26	29743.53
586.42	30206.95
586.58	29673.31
586.74	29806.72
586.90	29797.36
587.06	29434.58
587.22	29663.95
587.38	29830.13
587.54	30008.01
587.70	30115.67
587.86	30010.35
588.02	30012.69
588.18	30139.08
588.34	30099.29
588.49	29827.79
588.65	29944.81
588.81	29890.98
588.97	29677.99
589.13	30022.05
589.29	29785.66
589.45	29869.92
589.61	29837.15
589.77	30110.99
589.93	30246.74
590.08	30312.28
590.24	30188.23
590.40	30228.02
590.56	30302.92
590.72	29752.89
590.88	29989.28
591.04	30176.53
591.20	30045.46
591.35	30096.95
591.51	30169.51
591.67	30120.35
591.83	30562.72
591.99	30251.42
592.15	30249.08
592.31	30078.22
592.46	29685.01
592.62	29640.54
592.78	29963.54
592.94	30096.95
593.10	29830.13
593.26	30110.99
593.41	29989.28
593.57	30256.11
593.73	30192.91
593.89	30363.77
594.05	30277.17
594.20	30073.54
594.36	30370.79
594.52	30022.05
594.68	29813.74
594.84	29970.56
594.99	30398.88
595.15	30382.49
595.31	30370.79
595.47	30511.22
595.62	30356.75
595.78	30387.18
595.94	30235.04
596.10	30192.91
596.25	30043.12
596.41	29879.28
596.57	29811.40
596.73	30185.89
596.88	30075.88
597.04	30419.94
597.20	30675.06
597.36	30251.42
597.51	30237.38
597.67	30396.54
597.83	30022.05
597.99	30211.64
598.14	30347.39
598.30	30017.37
598.46	30366.11
598.61	30403.56
598.77	30316.96
598.93	30342.70
599.09	30272.49
599.24	30511.22
599.40	30604.84
599.56	30614.21
599.71	30417.60
599.87	30312.28
600.03	30410.58
600.18	30319.30
600.34	30349.73
600.50	30279.51
600.65	29914.39
600.81	30810.81
600.97	30618.89
601.12	30525.27
601.28	30862.30
601.44	30677.40
601.59	30649.32
601.75	30410.58
601.91	30316.96
602.06	30506.54
602.22	30384.83
602.37	30195.25
602.53	30469.09
602.69	30499.52
602.84	30340.36
603.00	30075.88
603.16	30352.07
603.31	30438.67
603.47	29961.20
603.62	29937.79
603.78	30286.53
603.94	30401.22
604.09	30211.64
604.25	30258.45
604.40	30134.40
604.56	30513.56
604.71	30551.01
604.87	30583.78
605.03	30417.60
605.18	30157.80
605.34	30160.14
605.49	30122.69
605.65	30307.60
605.80	30038.44
605.96	30448.03
606.12	29970.56
606.27	30543.99
606.43	29825.45
606.58	30455.05
606.74	30541.65
606.89	30185.89
607.05	30375.47
607.20	30438.67
607.36	30181.21
607.51	30508.88
607.67	29963.54
607.82	30029.07
607.98	29977.58
608.13	30267.81
608.29	30068.86
608.44	30263.13
608.60	29998.65
608.75	30389.52
608.91	30008.01
609.06	30340.36
609.22	30260.79
609.37	29860.55
609.53	30281.85
609.68	29998.65
609.84	30010.35
609.99	30024.39
610.15	29853.53
610.30	29956.52
610.46	29853.53
610.61	30345.05
610.76	29862.90
610.92	30073.54
611.07	30092.27
611.23	29736.51
611.38	29706.08
611.54	29998.65
611.69	30080.56
611.84	29764.59
612.00	29797.36
612.15	29799.70
612.31	30237.38
612.46	29553.94
612.62	29830.13
612.77	29935.45
612.92	29855.87
613.08	29961.20
613.23	30183.55
613.39	29596.07
613.54	29539.90
613.69	29867.58
613.85	29839.49
614.00	29937.79
614.15	30094.61
614.31	29736.51
614.46	29898.00
614.62	29790.34
614.77	29596.07
614.92	29645.23
615.08	29823.11
615.23	29577.35
615.38	29895.66
615.54	29273.08
615.69	29546.92
615.84	29530.54
616.00	29558.63
616.15	29736.51
616.30	29626.50
616.46	29188.82
616.61	29535.22
616.76	30022.05
616.92	29504.79
617.07	29783.32
617.22	29132.65
617.37	29493.09
617.53	29640.54
617.68	29146.69
617.83	29310.53
617.99	29481.39
618.14	29177.12
618.29	29191.16
618.45	29273.08
618.60	29411.17
618.75	29586.71
618.90	29486.07
619.06	29177.12
619.21	29280.10
619.36	29359.68
619.51	29214.57
619.67	28870.51
619.82	28746.46
619.97	29275.42
620.12	28662.20
620.28	28938.38
620.43	28980.51
620.58	29156.05
620.73	29326.91
620.89	29486.07
621.04	29448.62
621.19	29373.72
621.34	29207.55
621.49	28882.21
621.65	28833.06
621.80	29249.67
621.95	28840.08
622.10	29116.26
622.25	28414.10
622.41	28533.47
622.56	28886.89
622.71	29188.82
622.86	29205.20
623.01	28898.59
623.16	29202.86
623.32	28685.61
623.47	28404.74
623.62	28914.98
623.77	28877.53
623.92	28811.99
624.07	28739.44
624.23	28547.51
624.38	28865.83
624.53	28709.01
624.68	29216.91
624.83	28996.90
624.98	29017.96
625.13	28774.55
625.29	28680.92
625.44	28790.93
625.59	28718.37
625.74	28355.59
625.89	28512.41
626.04	28606.03
626.19	28545.17
626.34	28563.90
626.49	28231.54
626.65	28400.06
626.80	28758.16
626.95	28683.27
627.10	28591.98
627.25	28503.04
627.40	28208.14
627.55	28301.76
627.70	28343.89
627.85	28032.60
628.00	28297.08
628.15	28329.84
628.30	28308.78
628.45	27646.41
628.60	28161.33
628.76	28266.65
628.91	28210.48
629.06	28470.28
629.21	28439.85
629.36	28065.36
629.51	28123.88
629.66	27999.83
629.81	27990.47
629.96	28252.61
630.11	28254.95
630.26	27868.76
630.41	27648.75
630.56	27882.80
630.71	27878.12
630.86	28009.19
631.01	27714.28
631.16	28070.04
631.31	28086.43
631.46	27819.61
631.61	28151.96
631.76	27730.67
631.91	27728.33
632.06	27676.83
632.21	27740.03
632.36	28072.39
632.51	27594.92
632.66	27730.67
632.81	27625.34
632.96	27669.81
633.10	28315.80
633.25	27981.10
633.40	27864.08
633.55	27718.96
633.70	27594.92
633.85	27480.23
634.00	27573.85
634.15	27431.08
634.30	27281.28
634.45	27608.96
634.60	27828.97
634.75	27388.95
634.90	28018.55
635.05	27660.45
635.19	27412.35
635.34	27522.36
635.49	27864.08
635.64	27583.21
635.79	28107.49
635.94	27330.44
636.09	27545.76
636.24	27421.72
636.39	27260.22
636.53	26939.57
636.68	27445.12
636.83	27278.94
636.98	27529.38
637.13	27534.06
637.28	27417.04
637.43	27449.80
637.57	27229.79
637.72	27508.32
637.87	27264.90
638.02	27386.61
638.17	27197.02
638.32	26902.12
638.46	27056.59
638.61	26553.38
638.76	27138.51
638.91	26918.50
639.06	27094.04
639.20	26991.06
639.35	26960.63
639.50	27136.17
639.65	26927.86
639.80	27431.08
639.94	26927.86
640.09	27028.51
640.24	26859.99
640.39	26628.27
640.54	26754.66
640.68	26958.29
640.83	26621.25
640.98	26792.11
641.13	26316.98
641.27	26757.00
641.42	26717.22
641.57	26939.57
641.72	27108.08
641.86	26728.92
642.01	26810.84
642.16	26450.39
642.31	26445.71
642.45	26654.02
642.60	26396.56
642.75	26239.75
642.90	26251.45
643.04	26438.69
643.19	26780.41
643.34	26668.06
643.48	26518.27
643.63	26511.25
643.78	26232.72
643.93	26944.25
644.07	26434.01
644.22	26707.85
644.37	26075.91
644.51	26581.46
644.66	26817.86
644.81	26199.96
644.95	25865.26
645.10	26497.20
645.25	25986.97
645.39	26195.28
645.54	26377.84
645.69	26279.54
645.83	26462.10
645.98	26574.44
646.13	26115.70
646.27	26394.22
646.42	26541.68
646.57	26356.77
646.71	26160.17
646.86	26246.77
647.00	26155.49
647.15	26431.67
647.30	26001.01
647.44	26232.72
647.59	25998.67
647.74	25666.31
647.88	26075.91
648.03	25998.67
648.17	25886.32
648.32	26106.34
648.47	26150.81
648.61	26237.41
648.76	26462.10
648.90	26164.85
649.05	25993.99
649.20	25949.52
649.34	26080.59
649.49	25935.48
649.63	25860.58
649.78	25813.77
649.92	25572.69
650.07	26270.17
650.21	25883.98
650.36	25942.50
650.51	25387.79
650.65	25661.63
650.80	25893.35
650.94	25469.71
651.09	25652.27
651.23	25685.04
651.38	25586.74
651.52	25303.53
651.67	25493.12
651.81	25682.70
651.96	25362.04
652.10	25652.27
652.25	25537.59
652.39	25385.45
652.54	25682.70
652.68	25502.48
652.83	25495.46
652.97	26047.82
653.12	25565.67
653.26	25319.92
653.41	25298.85
653.55	25357.36
653.70	25071.82
653.84	25268.42
653.99	25455.67
654.13	25343.32
654.27	25448.64
654.42	25415.88
654.56	25139.69
654.71	25399.49
654.85	25359.70
655.00	25364.39
655.14	25120.97
655.29	25130.33
655.43	25209.91
655.57	25340.98
655.72	25116.29
655.86	25013.31
656.01	25312.89
656.15	25179.48
656.30	25254.38
656.44	25083.52
656.58	25214.59
656.73	24968.84
656.87	24945.43
657.01	24978.20
657.16	25301.19
657.30	24819.04
657.45	24826.06
657.59	24828.40
657.73	24800.32
657.88	24699.67
658.02	24746.48
658.16	24734.78
658.31	25032.03
658.45	24891.60
658.60	24456.26
658.74	24556.90
658.88	24783.93
659.03	24776.91
659.17	24680.95
659.31	24922.02
659.46	24664.57
659.60	24758.19
659.74	24690.31
659.89	24636.48
660.03	24432.85
660.17	24854.15
660.32	24166.03
660.46	24566.26
660.60	24009.22
660.74	24177.73
660.89	24322.85
661.03	23716.65
661.17	24151.99
661.32	24126.24
661.46	24489.03
661.60	24306.46
661.74	24126.24
661.89	24439.87
662.03	24037.30
662.17	24088.79
662.31	24306.46
662.46	24166.03
662.60	24369.66
662.74	24044.32
662.88	23562.17
663.03	24109.86
663.17	23583.24
663.31	23501.32
663.45	23398.34
663.60	23782.18
663.74	23983.47
663.88	23494.30
664.02	23812.61
664.17	24053.69
664.31	23513.02
664.45	23679.20
664.59	23761.12
664.73	23438.12
664.88	23580.90
665.02	23218.11
665.16	23438.12
665.30	23342.16
665.44	23269.61
665.59	23190.03
665.73	23204.07
665.87	22834.27
666.01	23370.25
666.15	23171.30
666.29	23241.52
666.44	23208.75
666.58	22890.44
666.72	23082.36
666.86	23138.54
667.00	23131.51
667.14	22918.53
667.28	23183.01
667.43	22963.00
667.57	22792.14
667.71	22981.72
667.85	23087.04
667.99	22602.55
668.13	22464.46
668.27	23073.00
668.41	22939.59
668.56	22455.10
668.70	22637.66
668.84	22843.63
668.98	22752.35
669.12	22735.96
669.26	22539.36
669.40	22232.75
669.54	22649.36
669.68	22345.09
669.82	22319.35
669.96	22221.05
670.10	22132.11
670.25	22122.74
670.39	22359.14
670.53	22298.28
670.67	21635.91
670.81	22221.05
670.95	21851.24
671.09	21972.95
671.23	21837.20
671.37	22111.04
671.51	21771.66
671.65	21907.41
671.79	22012.74
671.93	22001.04
672.07	21713.15
672.21	21551.65
672.35	21769.32
672.49	21525.91
672.63	21724.85
672.77	21518.89
672.91	21530.59
673.05	21209.93
673.19	21561.02
673.33	21495.48
673.47	21647.61
673.61	21624.21
673.75	21570.38
673.89	21462.71
674.03	21413.56
674.17	21420.58
674.31	21156.10
674.45	20999.29
674.59	21095.25
674.73	21083.55
674.87	21116.31
675.01	20830.77
675.15	20638.84
675.29	20919.71
675.43	20601.40
675.56	20599.05
675.70	20908.01
675.84	20915.03
675.98	20292.44
676.12	20786.30
676.26	20779.28
676.40	20844.81
676.54	20592.03
676.68	20393.09
676.82	19817.32
676.96	20269.04
677.10	20058.39
677.23	20180.10
677.37	20042.01
677.51	19992.86
677.65	20152.01
677.79	19800.93
677.93	19784.55
678.07	19744.76
678.21	19833.70
678.34	19419.42
678.48	19648.80
678.62	19360.91
678.76	19367.93
678.90	19433.47
679.04	19321.12
679.18	18960.68
679.31	19000.47
679.45	19218.14
679.59	18986.43
679.73	19307.08
679.87	18951.32
680.00	18988.77
680.14	18824.93
680.28	18988.77
680.42	18836.63
680.56	18848.33
680.70	18719.60
680.83	18862.38
680.97	18780.46
681.11	18752.37
681.25	18506.62
681.39	18485.55
681.52	18745.35
681.66	18207.03
681.80	18441.08
681.94	18178.94
682.07	18324.05
682.21	18380.23
682.35	17752.96
682.49	17909.78
682.62	17891.06
682.76	17825.52
682.90	18153.20
683.04	18010.42
683.17	17818.50
683.31	17654.66
683.45	17778.71
683.59	17535.29
683.72	17556.36
683.86	17675.73
684.00	17408.90
684.13	17600.83
684.27	17352.73
684.41	17434.65
684.55	17245.07
684.68	17048.46
684.82	16933.78
684.96	17247.41
685.09	16964.20
685.23	16947.82
685.37	17200.60
685.50	16741.85
685.64	16837.81
685.78	16847.18
685.91	17046.12
686.05	16596.74
686.19	16664.61
686.32	16486.73
686.46	16449.28
686.60	16514.82
686.73	16538.23
686.87	16276.09
687.01	16374.39
687.14	16259.70
687.28	16145.02
687.42	16212.89
687.55	16063.10
687.69	16222.25
687.82	15971.82
687.96	16327.58
688.10	15744.78
688.23	16039.69
688.37	15908.62
688.50	15742.44
688.64	15939.05
688.78	15707.34
688.91	16002.24
689.05	15325.83
689.18	15775.21
689.32	14946.66
689.46	15264.97
689.59	15084.75
689.73	15234.55
689.86	15241.57
690.00	15218.16
690.13	15119.86
690.27	14820.27
690.41	15145.61
690.54	15026.24
690.68	15211.14
690.81	15037.94
690.95	15201.78
691.08	14831.97
691.22	14878.79
691.35	14724.31
691.49	14670.48
691.62	14455.15
691.76	14574.52
691.89	14541.75
692.03	14375.57
692.16	14136.84
692.30	14216.41
692.43	14113.43
692.57	14085.34
692.70	13942.57
692.84	14078.32
692.97	14003.43
693.11	13813.84
693.24	13771.71
693.38	13642.98
693.51	13724.90
693.65	14099.39
693.78	13799.80
693.92	13851.29
694.05	13760.01
694.19	13603.19
694.32	13584.47
694.45	13355.10
694.59	13357.44
694.72	13177.22
694.86	13425.31
694.99	13055.51
695.13	12894.01
695.26	13172.54
695.39	13116.36
695.53	13104.66
695.66	13060.19
695.80	12886.99
695.93	13032.10
696.07	12978.27
696.20	12896.35
696.33	12709.11
696.47	12720.81
696.60	12863.58
696.73	12596.76
696.87	12643.57
697.00	12407.18
697.14	12390.80
697.27	12336.96
697.40	12334.62
697.54	12255.04
697.67	12358.03
697.80	12079.50
697.94	12133.34
698.07	11918.01
698.21	12072.48
698.34	11946.09
698.47	12224.62
698.61	12028.01
698.74	12072.48
698.87	11885.24
699.01	11784.60
699.14	11573.95
699.27	11786.94
699.40	11815.02
699.54	11463.94
699.67	11377.34
699.80	11438.20
699.94	11346.92
700.07	11360.96
700.20	11384.37
700.34	10993.50
700.47	11110.52
700.60	11171.38
700.73	11325.85
700.87	11351.60
701.00	10932.64
701.13	10904.56
701.26	10799.23
701.40	10972.43
701.53	10913.92
701.66	10848.38
701.79	10782.85
701.93	10714.97
702.06	10658.80
702.19	10583.90
702.32	10640.08
702.46	10705.61
702.59	10382.62
702.72	10544.11
702.85	10274.95
702.99	10260.91
703.12	10010.47
703.25	10403.68
703.38	10277.29
703.51	10146.22
703.65	10347.51
703.78	10326.44
703.91	9865.36
704.04	10040.90
704.17	10270.27
704.31	10064.30
704.44	10031.54
704.57	9818.55
704.70	9685.14
704.83	9813.87
704.96	9891.10
705.10	9628.96
705.23	9561.09
>>>>>End Processed Spectral Data<<<<<
