SpectraSuite Data File
++++++++++++++++++++++++++++++++++++
Date: Fri Oct 18 13:58:39 GMT-05:00 2013
User: bianchi
Dark Spectrum Present: No
Reference Spectrum Present: No
Number of Sampled Component Spectra: 1
Spectrometers: USB2+H05261
Integration Time (usec): 50000 (USB2+H05261)
Spectra Averaged: 1 (USB2+H05261)
Boxcar Smoothing: 0 (USB2+H05261)
Correct for Electrical Dark: No (USB2+H05261)
Strobe/Lamp Enabled: No (USB2+H05261)
Correct for Detector Non-linearity: No (USB2+H05261)
Correct for Stray Light: No (USB2+H05261)
Number of Pixels in Processed Spectrum: 2048
>>>>>Begin Processed Spectral Data<<<<<
365.73	0.00
365.92	0.00
366.12	0.00
366.32	0.00
366.52	0.00
366.72	0.00
366.91	0.00
367.11	0.00
367.31	0.00
367.51	0.00
367.70	0.00
367.90	0.00
368.10	0.00
368.30	0.00
368.49	0.00
368.69	0.00
368.89	0.00
369.09	0.00
369.28	0.00
369.48	0.00
369.68	0.00
369.87	0.00
370.07	0.00
370.27	0.00
370.47	0.00
370.66	25.75
370.86	124.05
371.06	175.54
371.25	208.31
371.45	140.43
371.65	107.66
371.84	81.92
372.04	180.22
372.24	149.79
372.44	198.95
372.63	210.65
372.83	248.10
373.03	124.05
373.22	196.60
373.42	191.92
373.62	163.84
373.81	215.33
374.01	276.18
374.21	315.97
374.40	194.26
374.60	290.23
374.79	231.71
374.99	330.02
375.19	278.52
375.38	248.10
375.58	273.84
375.78	271.50
375.97	220.01
376.17	283.20
376.37	243.42
376.56	210.65
376.76	297.25
376.95	248.10
377.15	273.84
377.35	180.22
377.54	203.63
377.74	224.69
377.93	234.05
378.13	287.89
378.33	222.35
378.52	269.16
378.72	278.52
378.91	278.52
379.11	402.57
379.31	255.12
379.50	283.20
379.70	264.48
379.89	299.59
380.09	297.25
380.28	301.93
380.48	252.78
380.68	339.38
380.87	407.25
381.07	308.95
381.26	381.51
381.46	290.23
381.65	372.15
381.85	257.46
382.04	301.93
382.24	390.87
382.43	271.50
382.63	285.55
382.83	404.91
383.02	365.12
383.22	365.12
383.41	358.10
383.61	346.40
383.80	365.12
384.00	348.74
384.19	330.02
384.39	379.17
384.58	355.76
384.78	400.23
384.97	374.49
385.17	320.65
385.36	395.55
385.56	416.62
385.75	353.42
385.95	372.15
386.14	402.57
386.34	397.89
386.53	369.80
386.72	444.70
386.92	411.93
387.11	425.98
387.31	423.64
387.50	379.17
387.70	433.00
387.89	404.91
388.09	411.93
388.28	482.15
388.48	500.87
388.67	447.04
388.86	451.72
389.06	472.79
389.25	519.60
389.45	451.72
389.64	425.98
389.84	503.22
390.03	484.49
390.22	491.51
390.42	484.49
390.61	491.51
390.81	416.62
391.00	519.60
391.19	535.98
391.39	547.69
391.58	514.92
391.78	512.58
391.97	547.69
392.16	482.15
392.36	613.22
392.55	498.53
392.75	512.58
392.94	587.47
393.13	606.20
393.33	582.79
393.52	566.41
393.71	545.34
393.91	582.79
394.10	472.79
394.29	585.13
394.49	566.41
394.68	547.69
394.88	620.24
395.07	589.82
395.26	610.88
395.46	636.63
395.65	641.31
395.84	638.97
396.04	589.82
396.23	716.20
396.42	606.20
396.62	645.99
396.81	704.50
397.00	648.33
397.19	641.31
397.39	732.59
397.58	741.95
397.77	770.04
397.97	641.31
398.16	634.29
398.35	645.99
398.55	690.46
398.74	732.59
398.93	699.82
399.12	716.20
399.32	669.39
399.51	706.84
399.70	688.12
399.90	727.91
400.09	720.88
400.28	770.04
400.47	746.63
400.67	828.55
400.86	781.74
401.05	720.88
401.24	805.14
401.44	746.63
401.63	821.53
401.82	737.27
402.01	814.51
402.21	875.36
402.40	791.10
402.59	844.93
402.78	856.64
402.97	873.02
403.17	812.17
403.36	926.85
403.55	910.47
403.74	826.21
403.93	849.61
404.13	905.79
404.32	835.57
404.51	884.72
404.70	912.81
404.89	851.96
405.09	952.60
405.28	922.17
405.47	973.66
405.66	1020.47
405.85	1048.56
406.05	1041.54
406.24	945.58
406.43	1067.28
406.62	1004.09
406.81	1095.37
407.00	968.98
407.20	1029.84
407.39	938.55
407.58	1088.35
407.77	1029.84
407.96	1055.58
408.15	1011.11
408.34	1069.62
408.54	1107.07
408.73	1076.65
408.92	1064.94
409.11	1088.35
409.30	1177.29
409.49	1053.24
409.68	1144.52
409.87	1078.99
410.07	1245.16
410.26	1125.80
410.45	1235.80
410.64	1242.82
410.83	1158.57
411.02	1181.97
411.21	1125.80
411.40	1238.14
411.59	1299.00
411.78	1289.64
411.98	1203.04
412.17	1336.45
412.36	1207.72
412.55	1348.15
412.74	1380.92
412.93	1301.34
413.12	1301.34
413.31	1355.17
413.50	1322.40
413.69	1392.62
413.88	1434.75
414.07	1406.66
414.26	1401.98
414.45	1364.53
414.64	1416.02
414.83	1509.65
415.02	1476.88
415.22	1516.67
415.41	1582.20
415.60	1533.05
415.79	1610.29
415.98	1589.22
416.17	1523.69
416.36	1556.46
416.55	1600.93
416.74	1572.84
416.93	1619.65
417.12	1813.92
417.31	1680.50
417.50	1694.55
417.69	1720.29
417.88	1706.25
418.07	1739.02
418.26	1703.91
418.45	1703.91
418.64	1797.53
418.83	1696.89
419.02	1884.13
419.21	1825.62
419.39	1790.51
419.58	1710.93
419.77	1837.32
419.96	1778.81
420.15	1872.43
420.34	1858.39
420.53	1820.94
420.72	1795.19
420.91	1874.77
421.10	2008.18
421.29	1916.90
421.48	1879.45
421.67	1928.60
421.86	1926.26
422.05	1893.49
422.24	1900.52
422.43	1973.07
422.61	1954.35
422.80	1952.01
422.99	1952.01
423.18	2038.61
423.37	2008.18
423.56	1975.41
423.75	1940.30
423.94	1961.37
424.13	1930.94
424.32	1860.73
424.50	1935.62
424.69	2127.55
424.88	2129.89
425.07	1877.11
425.26	1912.22
425.45	1900.52
425.64	2118.18
425.83	1961.37
426.01	2003.50
426.20	1940.30
426.39	2108.82
426.58	2162.66
426.77	2040.95
426.96	2090.10
427.15	2143.93
427.33	2181.38
427.52	2029.24
427.71	2143.93
427.90	2045.63
428.09	2073.71
428.28	2181.38
428.46	2183.72
428.65	2204.78
428.84	2200.10
429.03	2207.13
429.22	2146.27
429.40	2242.23
429.59	2193.08
429.78	2127.55
429.97	2125.21
430.16	2214.15
430.34	2237.55
430.53	2324.15
430.72	2342.88
430.91	2324.15
431.10	2202.44
431.28	2403.73
431.47	2406.07
431.66	2443.52
431.85	2314.79
432.03	2375.64
432.22	2464.58
432.41	2480.97
432.60	2417.77
432.79	2340.54
432.97	2413.09
433.16	2408.41
433.35	2527.78
433.54	2457.56
433.72	2532.46
433.91	2328.83
434.10	2516.08
434.28	2492.67
434.47	2511.39
434.66	2534.80
434.85	2693.96
435.03	2654.17
435.22	2485.65
435.41	2588.63
435.59	2630.76
435.78	2712.68
435.97	2663.53
436.16	2567.57
436.34	2541.82
436.53	2630.76
436.72	2597.99
436.90	2619.06
437.09	2698.64
437.28	2647.15
437.46	2612.04
437.65	2775.88
437.84	2925.67
438.02	2773.53
438.21	2675.23
438.40	2722.04
438.58	2946.73
438.77	2850.77
438.96	2836.73
439.14	2925.67
439.33	2888.22
439.52	3009.93
439.70	2911.63
439.89	3091.85
440.08	3066.10
440.26	3026.31
440.45	2988.86
440.63	3089.51
440.82	3176.11
441.01	3075.46
441.19	3089.51
441.38	3234.62
441.57	3272.07
441.75	3269.73
441.94	3375.05
442.12	3274.41
442.31	3370.37
442.50	3162.06
442.68	3265.05
442.87	3335.26
443.05	3330.58
443.24	3316.54
443.43	3358.67
443.61	3311.86
443.80	3330.58
443.98	3335.26
444.17	3185.47
444.35	3339.94
444.54	3503.78
444.73	3356.33
444.91	3300.16
445.10	3384.41
445.28	3447.61
445.47	3473.36
445.65	3358.67
445.84	3557.61
446.02	3480.38
446.21	3417.18
446.39	3562.30
446.58	3438.25
446.77	3480.38
446.95	3218.24
447.14	3487.40
447.32	3356.33
447.51	3480.38
447.69	3473.36
447.88	3440.59
448.06	3365.69
448.25	3499.10
448.43	3382.07
448.62	3520.17
448.80	3471.01
448.99	3562.30
449.17	3571.66
449.36	3588.04
449.54	3644.21
449.73	3679.32
449.91	3822.09
450.10	3742.52
450.28	3712.09
450.46	3723.79
450.65	3854.86
450.83	3782.31
451.02	3716.77
451.20	3840.82
451.39	3843.16
451.57	3644.21
451.76	3616.13
451.94	3695.71
452.13	3796.35
452.31	3805.71
452.49	3770.60
452.68	3941.46
452.86	3854.86
453.05	3791.67
453.23	3929.76
453.42	3920.40
453.60	3826.78
453.78	3735.50
453.97	3847.84
454.15	3962.53
454.34	3936.78
454.52	4014.02
454.70	3929.76
454.89	3918.06
455.07	3915.72
455.26	3946.14
455.44	4023.38
455.62	4032.74
455.81	4077.21
455.99	4152.11
456.17	4304.25
456.36	4135.73
456.54	4131.05
456.73	4128.70
456.91	4238.71
457.09	4271.48
457.28	4238.71
457.46	4212.96
457.64	4311.27
457.83	4315.95
458.01	4231.69
458.19	4461.06
458.38	4227.01
458.56	4428.29
458.74	4393.19
458.93	4367.44
459.11	4435.32
459.29	4430.63
459.48	4404.89
459.66	4442.34
459.84	4374.46
460.03	4465.74
460.21	4498.51
460.39	4526.60
460.57	4540.64
460.76	4498.51
460.94	4542.98
461.12	4606.17
461.31	4545.32
461.49	4650.64
461.67	4587.45
461.85	4718.52
462.04	4573.41
462.22	4844.91
462.40	4795.76
462.59	4690.43
462.77	4772.35
462.95	4690.43
463.13	4582.77
463.32	4732.56
463.50	4746.61
463.68	4681.07
463.86	4898.74
464.05	4748.95
464.23	4711.50
464.41	4901.08
464.59	4772.35
464.78	4992.36
464.96	4786.40
465.14	4861.29
465.32	5020.45
465.50	5011.09
465.69	4922.15
465.87	4884.70
466.05	4936.19
466.23	4800.44
466.41	4926.83
466.60	5252.16
466.78	5008.75
466.96	5097.69
467.14	4882.36
467.32	5001.72
467.51	5104.71
467.69	5053.22
467.87	5036.83
468.05	5139.82
468.23	4997.04
468.41	5088.32
468.60	5158.54
468.78	5263.86
468.96	5186.63
469.14	5156.20
469.32	5329.40
469.50	5123.43
469.69	5352.81
469.87	5404.30
470.05	5355.15
470.23	5481.53
470.41	5348.12
470.59	5416.00
470.77	5408.98
470.95	5554.09
471.14	5376.21
471.32	5378.55
471.50	5596.22
471.68	5586.86
471.86	5650.05
472.04	5535.37
472.22	5888.79
472.40	5605.58
472.58	5575.16
472.77	5762.40
472.95	5930.92
473.13	5813.89
473.31	5867.72
473.49	5724.95
473.67	5701.54
473.85	5849.00
474.03	5912.19
474.21	5907.51
474.39	5959.00
474.57	5984.75
474.75	6087.73
474.93	6122.84
475.12	6057.31
475.30	6176.67
475.48	6043.26
475.66	6176.67
475.84	6155.61
476.02	6324.13
476.20	6260.93
476.38	6516.05
476.56	6328.81
476.74	6576.91
476.92	6352.21
477.10	6560.52
477.28	6743.08
477.46	6553.50
477.64	6562.86
477.82	6773.51
478.00	7068.42
478.18	6927.99
478.36	6846.07
478.54	7037.99
478.72	7009.90
478.90	7049.69
479.08	7054.37
479.26	7178.42
479.44	7304.81
479.62	7178.42
479.80	7485.03
479.98	7346.94
480.16	7604.40
480.34	7431.20
480.52	7588.02
480.70	7403.11
480.88	7552.91
481.06	7513.12
481.24	7761.22
481.41	7723.77
481.59	7744.83
481.77	8051.44
481.95	7981.23
482.13	7894.63
482.31	7932.08
482.49	8276.13
482.67	8269.11
482.85	8329.97
483.03	8035.06
483.21	8334.65
483.39	8657.64
483.57	8528.91
483.74	8753.60
483.92	8681.05
484.10	8580.40
484.28	8840.20
484.46	8922.12
484.64	8994.68
484.82	9011.06
485.00	8863.61
485.18	9275.54
485.35	9343.42
485.53	9252.14
485.71	9235.75
485.89	9462.79
486.07	9380.87
486.25	9509.60
486.43	9472.15
486.61	9673.43
486.78	9633.64
486.96	10050.26
487.14	9987.07
487.32	10083.03
487.50	10017.49
487.68	10097.07
487.85	10214.10
488.03	10415.38
488.21	10373.25
488.39	10611.99
488.57	10539.43
488.75	10593.26
488.92	10644.76
489.10	10902.22
489.28	10977.11
489.46	11009.88
489.64	11021.58
489.81	11122.23
489.99	11215.85
490.17	11164.36
490.35	11489.69
490.53	11435.86
490.70	11555.22
490.88	11709.70
491.06	11927.37
491.24	11440.54
491.41	11815.02
491.59	11740.13
491.77	11941.41
491.95	12135.68
492.13	12091.21
492.30	12074.82
492.48	12315.90
492.66	12189.51
492.84	12067.80
493.01	12451.65
493.19	12205.89
493.37	12821.45
493.54	12652.94
493.72	12753.58
493.90	12879.97
494.08	12676.34
494.25	12762.94
494.43	13109.34
494.61	13130.41
494.79	13530.64
494.96	13151.47
495.14	13357.44
495.32	13144.45
495.49	13638.30
495.67	13607.87
495.85	13556.38
496.02	13589.15
496.20	14108.75
496.38	13874.70
496.55	14157.90
496.73	13989.38
496.91	14111.09
497.09	14218.75
497.26	14450.47
497.44	14270.25
497.62	14183.65
497.79	14384.93
497.97	14586.22
498.14	14497.28
498.32	14841.34
498.50	14796.87
498.67	14796.87
498.85	14874.10
499.03	14707.93
499.20	14974.75
499.38	14988.79
499.56	15396.04
499.73	15314.13
499.91	15330.51
500.08	15398.38
500.26	15232.21
500.44	15304.76
500.61	15630.10
500.79	15206.46
500.97	15606.69
501.14	15934.37
501.32	15564.56
501.49	15573.92
501.67	15456.90
501.84	15829.04
502.02	15634.78
502.20	15761.17
502.37	16198.85
502.55	16386.09
502.72	16042.03
502.90	15927.35
503.07	15871.17
503.25	16004.58
503.43	16152.04
503.60	16409.50
503.78	16294.81
503.95	16493.76
504.13	16365.03
504.30	16458.65
504.48	16563.97
504.65	16695.04
504.83	16940.80
505.01	16980.59
505.18	16959.52
505.36	17137.40
505.53	16868.24
505.71	16886.97
505.88	16903.35
506.06	17085.91
506.23	17195.92
506.41	17224.00
506.58	17343.37
506.76	17050.80
506.93	17413.59
507.11	17401.88
507.28	17514.23
507.46	17476.78
507.63	17584.44
507.81	17792.75
507.98	17596.15
508.16	17542.32
508.33	17619.55
508.50	17942.55
508.68	18068.94
508.85	17914.46
509.03	17715.51
509.20	18223.41
509.38	18270.22
509.55	18162.56
509.73	18405.97
509.90	18129.79
510.08	17905.10
510.25	18183.62
510.42	18412.99
510.60	18508.96
510.77	18441.08
510.95	18745.35
511.12	18391.93
511.30	18487.89
511.47	18476.19
511.64	18724.29
511.82	19058.98
511.99	18876.42
512.17	18930.25
512.34	19063.66
512.51	19370.27
512.69	18991.11
512.86	19133.88
513.04	19197.07
513.21	19180.69
513.38	19150.26
513.56	19257.93
513.73	19578.58
513.90	19651.14
514.08	19255.59
514.25	19609.01
514.43	19456.87
514.60	19634.75
514.77	19571.56
514.95	19791.57
515.12	19470.92
515.29	19922.64
515.47	19915.62
515.64	20081.80
515.81	19999.88
515.99	20091.16
516.16	20250.32
516.33	20053.71
516.51	20294.79
516.68	19878.17
516.85	19974.13
517.03	20407.13
517.20	20514.80
517.37	20439.90
517.54	20442.24
517.72	20510.11
517.89	20585.01
518.06	20444.58
518.24	20531.18
518.41	20809.70
518.58	20475.01
518.75	20570.97
518.93	20776.94
519.10	20772.25
519.27	20900.98
519.45	20762.89
519.62	20795.66
519.79	21158.44
519.96	20786.30
520.14	20776.94
520.31	21071.84
520.48	21238.02
520.65	20945.45
520.83	21593.78
521.00	21151.42
521.17	21345.69
521.34	21329.30
521.52	21181.85
521.69	21294.19
521.86	21818.47
522.03	21600.80
522.20	21759.96
522.38	21851.24
522.55	21846.56
522.72	21376.11
522.89	21685.06
523.07	21830.18
523.24	21909.75
523.41	22164.87
523.58	21598.46
523.75	21766.98
523.92	21778.68
524.10	22036.14
524.27	22295.94
524.44	21872.31
524.61	22415.31
524.78	22309.99
524.96	22153.17
525.13	22745.33
525.30	22356.80
525.47	22415.31
525.64	22115.72
525.81	22679.79
525.98	22712.56
526.16	22724.26
526.33	22848.31
526.50	22576.81
526.67	22307.65
526.84	22773.41
527.01	22658.73
527.18	23098.75
527.36	23309.40
527.53	22998.10
527.70	22995.76
527.87	23058.96
528.04	22960.66
528.21	22979.38
528.38	23136.20
528.55	23075.34
528.72	23220.45
528.89	23122.15
529.07	23353.87
529.24	23026.19
529.41	23431.10
529.58	23201.73
529.75	23360.89
529.92	23065.98
530.09	23304.71
530.26	23344.50
530.43	23695.58
530.60	23356.21
530.77	23503.66
530.94	23587.92
531.11	23662.82
531.28	23403.02
531.46	23690.90
531.63	23599.62
531.80	23880.49
531.97	24137.94
532.14	23833.68
532.31	23730.69
532.48	23754.10
532.65	24079.43
532.82	23948.36
532.99	23985.81
533.16	23798.57
533.33	23967.09
533.50	24191.78
533.67	24294.76
533.84	24266.67
534.01	24084.11
534.18	23934.32
534.35	24264.33
534.52	24549.88
534.69	24411.79
534.86	24552.22
535.03	24444.56
535.20	24334.55
535.37	25057.78
535.54	24673.93
535.71	24273.70
535.88	24514.77
536.05	24458.60
536.22	24938.41
536.38	24975.86
536.55	24779.25
536.72	25167.78
536.89	24875.21
537.06	24875.21
537.23	24957.13
537.40	24596.69
537.57	24807.34
537.74	25001.60
537.91	25343.32
538.08	25177.14
538.25	25123.31
538.42	25099.90
538.59	25296.51
538.75	24797.98
538.92	25273.10
539.09	25055.43
539.26	25495.46
539.43	25270.76
539.60	25420.56
539.77	25249.70
539.94	25640.57
540.11	25532.90
540.28	25689.72
540.44	25399.49
540.61	25497.80
540.78	25362.04
540.95	25710.78
541.12	25717.81
541.29	25469.71
541.46	25734.19
541.62	25348.00
541.79	25605.46
541.96	25069.48
542.13	25450.99
542.30	25521.20
542.47	25818.45
542.63	25926.11
542.80	26115.70
542.97	26359.11
543.14	26031.44
543.31	26529.97
543.48	26361.45
543.64	25930.80
543.81	26029.10
543.98	26382.52
544.15	26286.56
544.32	26590.83
544.48	26539.33
544.65	26015.05
544.82	26497.20
544.99	25993.99
545.16	26436.35
545.32	26354.43
545.49	26560.40
545.66	26752.32
545.83	26511.25
546.00	26448.05
546.16	26539.33
546.33	26609.55
546.50	26267.83
546.67	26473.80
546.83	26326.35
547.00	26827.22
547.17	26621.25
547.34	26698.49
547.50	27147.87
547.67	26881.05
547.84	26731.26
548.00	27002.76
548.17	27028.51
548.34	26918.50
548.51	27269.58
548.67	27421.72
548.84	26944.25
549.01	27234.47
549.18	27122.13
549.34	27035.53
549.51	27131.49
549.68	27182.98
549.84	26899.78
550.01	27103.40
550.18	27328.10
550.34	26934.88
550.51	27440.44
550.68	27070.64
550.84	27292.99
551.01	27283.62
551.18	27194.68
551.34	27206.39
551.51	27199.37
551.68	27321.07
551.84	27826.63
552.01	27637.05
552.18	27477.89
552.34	27302.35
552.51	27620.66
552.68	27297.67
552.84	27335.12
553.01	27522.36
553.18	28051.32
553.34	27763.43
553.51	27845.35
553.67	27985.79
553.84	27758.75
554.01	27377.25
554.17	27997.49
554.34	27964.72
554.51	27913.23
554.67	28016.21
554.84	27901.53
555.00	28023.23
555.17	28121.54
555.33	27819.61
555.50	28280.69
555.67	27803.22
555.83	28093.45
556.00	27908.55
556.16	28374.31
556.33	27938.97
556.50	27901.53
556.66	28423.47
556.83	28229.20
556.99	28175.37
557.16	28215.16
557.32	28350.91
557.49	28318.14
557.65	27873.44
557.82	27964.72
557.98	27985.79
558.15	28238.56
558.32	28524.11
558.48	27800.88
558.65	28393.04
558.81	28526.45
558.98	28107.49
559.14	27971.74
559.31	27913.23
559.47	28676.24
559.64	28474.96
559.80	28652.84
559.97	28315.80
560.13	28535.81
560.30	28549.85
560.46	28493.68
560.63	28222.18
560.79	28542.83
560.96	28493.68
561.12	28407.08
561.29	28355.59
561.45	28690.29
561.61	28865.83
561.78	28645.82
561.94	28891.57
562.11	28650.50
562.27	29174.78
562.44	28631.77
562.60	28945.41
562.77	28582.62
562.93	28687.95
563.10	28779.23
563.26	28739.44
563.42	28816.68
563.59	28821.36
563.75	28535.81
563.92	28718.37
564.08	28704.33
564.24	28760.50
564.41	28545.17
564.57	28629.43
564.74	28851.78
564.90	28978.17
565.07	29024.98
565.23	29046.05
565.39	28959.45
565.56	29010.94
565.72	28870.51
565.88	28858.81
566.05	28659.86
566.21	28931.36
566.38	28879.87
566.54	28797.95
566.70	29095.20
566.87	29436.92
567.03	29127.97
567.19	29420.53
567.36	29397.13
567.52	28823.70
567.68	29380.74
567.85	28765.18
568.01	29259.04
568.17	29144.35
568.34	29200.52
568.50	29305.85
568.66	28975.83
568.83	29455.64
568.99	29137.33
569.15	28943.06
569.32	29142.01
569.48	28975.83
569.64	29277.76
569.81	29118.60
569.97	29113.92
570.13	29017.96
570.30	29024.98
570.46	29586.71
570.62	29062.43
570.78	29380.74
570.95	29385.43
571.11	29076.48
571.27	28830.72
571.43	29039.03
571.60	29659.27
571.76	29317.55
571.92	29289.46
572.09	29411.17
572.25	29607.78
572.41	29200.52
572.57	29305.85
572.74	29469.69
572.90	29041.37
573.06	29439.26
573.22	29240.31
573.38	29649.91
573.55	28704.33
573.71	29715.44
573.87	29656.93
574.03	29701.40
574.20	29446.28
574.36	28903.28
574.52	29453.30
574.68	29223.93
574.84	29127.97
575.01	29420.53
575.17	29593.73
575.33	29146.69
575.49	29294.14
575.65	29563.31
575.82	29535.22
575.98	29493.09
576.14	29577.35
576.30	29333.93
576.46	29106.90
576.62	29399.47
576.79	29619.48
576.95	29493.09
577.11	29539.90
577.27	29366.70
577.43	29472.03
577.59	29542.24
577.75	29577.35
577.92	29364.36
578.08	29282.44
578.24	29411.17
578.40	29441.60
578.56	29748.21
578.72	29488.41
578.88	29874.60
579.04	29759.91
579.21	29881.62
579.37	29755.23
579.53	29783.32
579.69	29329.25
579.85	29502.45
580.01	29429.90
580.17	29200.52
580.33	29448.62
580.49	29851.19
580.65	29422.87
580.82	29565.65
580.98	29626.50
581.14	29551.60
581.30	29769.27
581.46	29762.25
581.62	29680.33
581.78	29261.38
581.94	29652.25
582.10	29390.11
582.26	29886.30
582.42	29338.62
582.58	29710.76
582.74	29827.79
582.90	29542.24
583.06	29834.81
583.22	29708.42
583.38	29766.93
583.54	29963.54
583.70	29668.63
583.86	29516.50
584.02	29490.75
584.18	29900.34
584.34	29902.68
584.50	29837.15
584.66	29418.19
584.82	29266.06
584.98	29631.18
585.14	29654.59
585.30	29252.02
585.46	29621.82
585.62	29441.60
585.78	29790.34
585.94	29450.96
586.10	29710.76
586.26	29722.46
586.42	29905.02
586.58	29827.79
586.74	29455.64
586.90	29909.71
587.06	29460.32
587.22	29689.70
587.38	29673.31
587.54	29783.32
587.70	30169.51
587.86	29759.91
588.02	30052.48
588.18	30284.19
588.34	29956.52
588.49	30026.73
588.65	29811.40
588.81	29500.11
588.97	29869.92
589.13	29933.11
589.29	29703.74
589.45	29869.92
589.61	30284.19
589.77	30141.42
589.93	29926.09
590.08	30033.75
590.24	30230.36
590.40	30232.70
590.56	30169.51
590.72	29668.63
590.88	29759.91
591.04	29682.67
591.20	30333.34
591.35	30321.64
591.51	30424.62
591.67	30593.14
591.83	30120.35
591.99	30192.91
592.15	30167.16
592.31	30398.88
592.46	29647.57
592.62	29853.53
592.78	29670.97
592.94	30061.84
593.10	29790.34
593.26	30529.95
593.41	30167.16
593.57	30258.45
593.73	30139.08
593.89	30387.18
594.05	29785.66
594.20	29963.54
594.36	29886.30
594.52	30342.70
594.68	30260.79
594.84	29947.15
594.99	30323.98
595.15	29881.62
595.31	30235.04
595.47	30588.46
595.62	30497.18
595.78	29858.21
595.94	29865.24
596.10	29834.81
596.25	29769.27
596.41	30059.50
596.57	30199.93
596.73	29996.31
596.88	30232.70
597.04	29972.90
597.20	30490.16
597.36	30450.37
597.51	30242.06
597.67	30293.55
597.83	30291.21
597.99	30527.61
598.14	30204.61
598.30	30249.08
598.46	30153.12
598.61	30174.19
598.77	30022.05
598.93	30110.99
599.09	30038.44
599.24	30532.29
599.40	30553.35
599.56	30281.85
599.71	30321.64
599.87	30448.03
600.03	30195.25
600.18	30075.88
600.34	29989.28
600.50	30101.63
600.65	30532.29
600.81	30387.18
600.97	30719.53
601.12	30352.07
601.28	30122.69
601.44	30134.40
601.59	30555.69
601.75	30113.33
601.91	30185.89
602.06	30082.91
602.22	30471.43
602.37	30223.34
602.53	30237.38
602.69	30305.26
602.84	30054.82
603.00	30452.71
603.16	29858.21
603.31	30485.48
603.47	30394.20
603.62	30277.17
603.78	30061.84
603.94	30377.81
604.09	30258.45
604.25	29813.74
604.40	30113.33
604.56	30108.65
604.71	30551.01
604.87	30609.53
605.03	30616.55
605.18	30377.81
605.34	30143.76
605.49	29909.71
605.65	30185.89
605.80	30202.27
605.96	30293.55
606.12	30066.52
606.27	30326.32
606.43	30000.99
606.58	30593.14
606.74	30150.78
606.89	30167.16
607.05	30183.55
607.20	30141.42
607.36	29825.45
607.51	30008.01
607.67	30099.29
607.82	29867.58
607.98	29809.06
608.13	30167.16
608.29	30146.10
608.44	30155.46
608.60	29965.88
608.75	30359.09
608.91	30075.88
609.06	29977.58
609.22	30314.62
609.37	29415.85
609.53	30019.71
609.68	30099.29
609.84	29912.05
609.99	29958.86
610.15	29659.27
610.30	29785.66
610.46	29851.19
610.61	30204.61
610.76	29869.92
610.92	30101.63
611.07	30309.94
611.23	29813.74
611.38	29626.50
611.54	29553.94
611.69	29968.22
611.84	29785.66
612.00	29982.26
612.15	29605.44
612.31	30125.04
612.46	29605.44
612.62	30089.93
612.77	29895.66
612.92	29975.24
613.08	30160.14
613.23	29893.32
613.39	29518.84
613.54	29598.41
613.69	29689.70
613.85	29858.21
614.00	29570.33
614.15	29666.29
614.31	29619.48
614.46	29895.66
614.62	29715.44
614.77	29591.39
614.92	30047.80
615.08	29670.97
615.23	29785.66
615.38	29628.84
615.54	29202.86
615.69	29401.81
615.84	29413.51
616.00	29886.30
616.15	29542.24
616.30	29834.81
616.46	29462.66
616.61	29399.47
616.76	29792.68
616.92	29605.44
617.07	29376.06
617.22	29081.16
617.37	29186.48
617.53	29493.09
617.68	29013.28
617.83	29041.37
617.99	29446.28
618.14	29209.89
618.29	29144.35
618.45	29324.57
618.60	29326.91
618.75	29364.36
618.90	29364.36
619.06	29233.29
619.21	29369.04
619.36	29263.72
619.51	29228.61
619.67	28786.25
619.82	28723.05
619.97	29188.82
620.12	29134.99
620.28	29102.22
620.43	29015.62
620.58	29502.45
620.73	29123.29
620.89	29137.33
621.04	29125.63
621.19	29352.66
621.34	28865.83
621.49	29090.52
621.65	28985.19
621.80	29247.33
621.95	28678.58
622.10	29116.26
622.25	28856.46
622.41	28884.55
622.56	29111.58
622.71	29024.98
622.86	29034.35
623.01	29020.30
623.16	29177.12
623.32	28975.83
623.47	28912.64
623.62	28786.25
623.77	29062.43
623.92	28954.77
624.07	28584.96
624.23	28954.77
624.38	28474.96
624.53	28741.78
624.68	29165.42
624.83	28739.44
624.98	28739.44
625.13	28500.70
625.29	29081.16
625.44	28435.17
625.59	28327.50
625.74	28521.77
625.89	28283.03
626.04	28388.36
626.19	28603.69
626.34	28201.11
626.49	28222.18
626.65	28460.91
626.80	28514.75
626.95	28409.42
627.10	28271.33
627.25	28147.28
627.40	28641.14
627.55	28191.75
627.70	28044.30
627.85	28257.29
628.00	28229.20
628.15	28084.09
628.30	28327.50
628.45	28191.75
628.60	28063.02
628.76	28018.55
628.91	28432.83
629.06	28217.50
629.21	28339.21
629.36	28369.63
629.51	28273.67
629.66	27899.19
629.81	27880.46
629.96	27819.61
630.11	27908.55
630.26	27756.41
630.41	27838.33
630.56	28196.43
630.71	27679.18
630.86	27990.47
631.01	28114.52
631.16	27920.25
631.31	27962.38
631.46	27964.72
631.61	28107.49
631.76	27679.18
631.91	27241.50
632.06	27564.49
632.21	27728.33
632.36	27725.99
632.51	27704.92
632.66	27658.11
632.81	27482.57
632.96	27623.00
633.10	27447.46
633.25	27611.30
633.40	27695.56
633.55	27950.68
633.70	27527.04
633.85	27435.76
634.00	27075.32
634.15	27618.32
634.30	27494.27
634.45	27346.82
634.60	27648.75
634.75	27229.79
634.90	27070.64
635.05	27557.47
635.19	27391.29
635.34	27887.48
635.49	27639.39
635.64	27461.51
635.79	27491.93
635.94	27367.88
636.09	27101.06
636.24	27096.38
636.39	27190.00
636.53	27185.32
636.68	27395.97
636.83	27171.28
636.98	27080.00
637.13	27087.02
637.28	27007.44
637.43	27498.95
637.57	27316.39
637.72	27124.47
637.87	26991.06
638.02	27131.49
638.17	27012.12
638.32	27051.91
638.46	26838.92
638.61	26979.36
638.76	26904.46
638.91	27051.91
639.06	26677.43
639.20	26780.41
639.35	26913.82
639.50	27014.46
639.65	27215.75
639.80	27112.77
639.94	27192.34
640.09	27096.38
640.24	27026.17
640.39	26885.73
640.54	26962.97
640.68	26677.43
640.83	26759.34
640.98	26518.27
641.13	26368.48
641.27	26827.22
641.42	26785.09
641.57	26747.64
641.72	26859.99
641.86	26609.55
642.01	26682.11
642.16	26546.36
642.31	26544.02
642.45	26480.82
642.60	26359.11
642.75	25902.71
642.90	26534.65
643.04	26529.97
643.19	26120.38
643.34	26455.08
643.48	26003.35
643.63	26431.67
643.78	26476.14
643.93	26572.10
644.07	26609.55
644.22	26340.39
644.37	26298.26
644.51	26302.94
644.66	26349.75
644.81	26295.92
644.95	26202.30
645.10	25914.41
645.25	26132.08
645.39	26249.11
645.54	25862.92
645.69	26515.93
645.83	26253.79
645.98	26005.69
646.13	26417.63
646.27	26347.41
646.42	26228.04
646.57	25984.63
646.71	26242.09
646.86	25820.79
647.00	26120.38
647.15	25823.13
647.30	26036.12
647.44	25621.84
647.59	25923.77
647.74	26010.37
647.88	26026.76
648.03	26022.08
648.17	26408.26
648.32	25844.20
648.47	26031.44
648.61	26029.10
648.76	26185.91
648.90	26141.44
649.05	26038.46
649.20	25762.28
649.34	25865.26
649.49	25790.36
649.63	25474.39
649.78	25462.69
649.92	25355.02
650.07	25993.99
650.21	25666.31
650.36	26139.10
650.51	25869.94
650.65	25301.19
650.80	25706.10
650.94	25706.10
651.09	25493.12
651.23	25741.21
651.38	25387.79
651.52	25399.49
651.67	25486.09
651.81	25750.57
651.96	25811.43
652.10	25568.01
652.25	25708.44
652.39	25902.71
652.54	25806.75
652.68	25563.33
652.83	25745.89
652.97	25656.95
653.12	25806.75
653.26	25539.93
653.41	25359.70
653.55	25230.98
653.70	25099.90
653.84	25179.48
653.99	25191.19
654.13	25394.81
654.27	25270.76
654.42	25668.66
654.56	25284.81
654.71	25432.26
654.85	24971.18
655.00	25245.02
655.14	25163.10
655.29	25209.91
655.43	25273.10
655.57	24971.18
655.72	24907.98
655.86	25104.59
656.01	25083.52
656.15	25205.23
656.30	24924.36
656.44	24844.79
656.58	25081.18
656.73	24922.02
656.87	25050.75
657.01	24957.13
657.16	24987.56
657.30	25289.49
657.45	25160.76
657.59	24900.96
657.73	24748.82
657.88	24973.52
658.02	24624.78
658.16	24936.07
658.31	24732.44
658.45	24938.41
658.60	24226.89
658.74	24374.34
658.88	24952.45
659.03	24678.61
659.17	24573.28
659.31	24615.41
659.46	24720.74
659.60	24865.85
659.74	24800.32
659.89	24645.84
660.03	24540.52
660.17	24507.75
660.32	24479.66
660.46	24407.11
660.60	24294.76
660.74	24320.51
660.89	24264.33
661.03	24030.28
661.17	24114.54
661.32	24194.12
661.46	24318.17
661.60	24334.55
661.74	24315.83
661.89	24056.03
662.03	24063.05
662.17	23784.52
662.31	23967.09
662.46	24011.56
662.60	23920.28
662.74	23908.57
662.88	23964.75
663.03	24016.24
663.17	23868.78
663.31	23342.16
663.45	23857.08
663.60	23786.86
663.74	23800.91
663.88	23506.00
664.02	23398.34
664.17	23543.45
664.31	23571.54
664.45	23639.41
664.59	23969.43
664.73	23257.90
664.88	23388.97
665.02	23131.51
665.16	22927.89
665.30	22988.74
665.44	23033.21
665.59	23009.81
665.73	23089.38
665.87	23103.43
666.01	23300.03
666.15	23075.34
666.29	22836.61
666.44	23445.15
666.58	22972.36
666.72	22895.12
666.86	22789.80
667.00	23583.24
667.14	22927.89
667.28	22927.89
667.43	22492.55
667.57	22923.21
667.71	22822.56
667.85	22726.60
667.99	22960.66
668.13	22925.55
668.27	22740.64
668.41	23082.36
668.56	22836.61
668.70	22665.75
668.84	22815.54
668.98	22600.21
669.12	22632.98
669.26	22476.16
669.40	22298.28
669.54	22700.86
669.68	22356.80
669.82	22382.54
669.96	21888.69
670.10	22209.34
670.25	22031.46
670.39	22125.08
670.53	22162.53
670.67	21783.37
670.81	22164.87
670.95	22113.38
671.09	22101.68
671.23	22333.39
671.37	22216.36
671.51	22162.53
671.65	22073.59
671.79	21685.06
671.93	21750.60
672.07	21928.48
672.21	21671.02
672.35	21762.30
672.49	21635.91
672.63	21687.40
672.77	21406.54
672.91	21453.35
673.05	21575.06
673.19	21357.39
673.33	21317.60
673.47	21254.40
673.61	21493.14
673.75	21312.92
673.89	21474.42
674.03	21331.64
674.17	21158.44
674.31	21153.76
674.45	21064.82
674.59	20945.45
674.73	20978.22
674.87	20788.64
675.01	20903.32
675.15	20798.00
675.29	20940.77
675.43	20622.46
675.56	21003.97
675.70	20664.59
675.84	20493.73
675.98	20072.43
676.12	20954.82
676.26	20673.95
676.40	20409.47
676.54	20655.23
676.68	20393.09
676.82	19917.96
676.96	20098.18
677.10	20264.36
677.23	19971.79
677.37	20044.35
677.51	19798.59
677.65	19964.77
677.79	19810.29
677.93	19887.53
678.07	19667.52
678.21	19609.01
678.34	19679.22
678.48	19527.09
678.62	19379.64
678.76	19468.58
678.90	19398.36
679.04	19344.53
679.18	19393.68
679.31	19241.54
679.45	19391.34
679.59	19030.90
679.73	18946.64
679.87	19211.12
680.00	19171.33
680.14	19014.51
680.28	18771.10
680.42	19124.52
680.56	18878.76
680.70	18806.20
680.83	18806.20
680.97	18686.84
681.11	18799.18
681.25	18464.49
681.39	18476.19
681.52	18368.52
681.66	18567.47
681.80	17928.50
681.94	18190.64
682.07	18129.79
682.21	17975.31
682.35	18118.09
682.49	17961.27
682.62	17902.76
682.76	17865.31
682.90	18019.78
683.04	17647.64
683.17	17813.82
683.31	17703.81
683.45	18090.00
683.59	17738.92
683.72	18127.45
683.86	17387.84
684.00	17605.51
684.13	17565.72
684.27	17362.09
684.41	17289.54
684.55	17130.38
684.68	17212.30
684.82	16856.54
684.96	16982.93
685.09	17097.61
685.23	16788.66
685.37	16809.73
685.50	17233.36
685.64	16821.43
685.78	16933.78
685.91	16844.84
686.05	16821.43
686.19	16950.16
686.32	16791.00
686.46	16575.67
686.60	16430.56
686.73	16503.12
686.87	16182.46
687.01	16435.24
687.14	16231.62
687.28	16226.93
687.42	16074.80
687.55	15981.18
687.69	16297.15
687.82	15988.20
687.96	15941.39
688.10	16032.67
688.23	15571.58
688.37	15819.68
688.50	15840.75
688.64	15466.26
688.78	15611.37
688.91	15646.48
689.05	15229.87
689.18	15412.43
689.32	15159.65
689.46	15117.52
689.59	15234.55
689.73	15501.37
689.86	15005.17
690.00	15131.56
690.13	15180.71
690.27	15133.90
690.41	15166.67
690.54	15009.86
690.68	14871.76
690.81	14932.62
690.95	14703.25
691.08	14789.85
691.22	14303.01
691.35	14750.06
691.49	14761.76
691.62	14633.03
691.76	14366.21
691.89	14321.74
692.03	14307.69
692.16	14380.25
692.30	13951.93
692.43	14033.85
692.57	14001.08
692.70	14061.94
692.84	14326.42
692.97	14050.24
693.11	14057.26
693.24	13745.97
693.38	13839.59
693.51	13909.80
693.65	14003.43
693.78	13528.30
693.92	13987.04
694.05	13781.07
694.19	13593.83
694.32	13582.13
694.45	13329.35
694.59	13327.01
694.72	13294.24
694.86	13130.41
694.99	13104.66
695.13	12950.18
695.26	13245.09
695.39	12784.01
695.53	13020.40
695.66	13001.68
695.80	12847.20
695.93	13001.68
696.07	13104.66
696.20	12938.48
696.33	12901.03
696.47	12671.66
696.60	12723.15
696.73	12489.10
696.87	12540.59
697.00	12425.90
697.14	12414.20
697.27	12198.87
697.40	12123.98
697.54	12266.75
697.67	12205.89
697.80	12133.34
697.94	12011.63
698.07	12011.63
698.21	12109.93
698.34	12128.66
698.47	11906.31
698.61	11793.96
698.74	12044.40
698.87	11765.87
699.01	11903.96
699.14	11770.55
699.27	11705.02
699.40	11800.98
699.54	11595.01
699.67	11452.24
699.80	11482.67
699.94	11375.00
700.07	11332.87
700.20	11293.08
700.34	11030.94
700.47	11154.99
700.60	11061.37
700.73	11110.52
700.87	10956.05
701.00	11096.48
701.13	11089.46
701.26	10993.50
701.40	11222.87
701.53	11190.10
701.66	10806.25
701.79	10747.74
701.93	10754.76
702.06	10684.55
702.19	10590.92
702.32	10588.58
702.46	10188.35
702.59	10527.73
702.72	10359.21
702.85	10237.50
702.99	10352.19
703.12	10406.02
703.25	10298.36
703.38	10197.71
703.51	10153.24
703.65	10083.03
703.78	10054.94
703.91	10253.89
704.04	10113.45
704.17	10176.65
704.31	9912.17
704.44	9811.53
704.57	9944.94
704.70	9678.12
704.83	9795.14
704.96	9715.56
705.10	9734.29
705.23	9610.24
>>>>>End Processed Spectral Data<<<<<
