SpectraSuite Data File
++++++++++++++++++++++++++++++++++++
Date: Fri Oct 18 13:58:00 GMT-05:00 2013
User: bianchi
Dark Spectrum Present: No
Reference Spectrum Present: No
Number of Sampled Component Spectra: 1
Spectrometers: USB2+H05261
Integration Time (usec): 50000 (USB2+H05261)
Spectra Averaged: 1 (USB2+H05261)
Boxcar Smoothing: 0 (USB2+H05261)
Correct for Electrical Dark: No (USB2+H05261)
Strobe/Lamp Enabled: No (USB2+H05261)
Correct for Detector Non-linearity: No (USB2+H05261)
Correct for Stray Light: No (USB2+H05261)
Number of Pixels in Processed Spectrum: 2048
>>>>>Begin Processed Spectral Data<<<<<
365.73	0.00
365.92	0.00
366.12	0.00
366.32	0.00
366.52	0.00
366.72	0.00
366.91	0.00
367.11	0.00
367.31	0.00
367.51	0.00
367.70	0.00
367.90	0.00
368.10	0.00
368.30	0.00
368.49	0.00
368.69	0.00
368.89	0.00
369.09	0.00
369.28	0.00
369.48	0.00
369.68	0.00
369.87	0.00
370.07	0.00
370.27	0.00
370.47	0.00
370.66	100.64
370.86	95.96
371.06	168.52
371.25	152.13
371.45	77.24
371.65	79.58
371.84	152.13
372.04	77.24
372.24	138.09
372.44	198.95
372.63	168.52
372.83	234.05
373.03	215.33
373.22	156.82
373.42	241.08
373.62	187.24
373.81	212.99
374.01	292.57
374.21	227.03
374.40	252.78
374.60	236.39
374.79	276.18
374.99	306.61
375.19	257.46
375.38	271.50
375.58	222.35
375.78	229.37
375.97	264.48
376.17	234.05
376.37	273.84
376.56	229.37
376.76	287.89
376.95	250.44
377.15	322.99
377.35	236.39
377.54	313.63
377.74	227.03
377.93	266.82
378.13	334.70
378.33	308.95
378.52	234.05
378.72	283.20
378.91	332.36
379.11	341.72
379.31	227.03
379.50	215.33
379.70	262.14
379.89	278.52
380.09	273.84
380.28	231.71
380.48	346.40
380.68	308.95
380.87	381.51
381.07	280.86
381.26	283.20
381.46	339.38
381.65	358.10
381.85	301.93
382.04	320.65
382.24	390.87
382.43	372.15
382.63	227.03
382.83	369.80
383.02	273.84
383.22	348.74
383.41	372.15
383.61	278.52
383.80	351.08
384.00	304.27
384.19	271.50
384.39	362.78
384.58	346.40
384.78	393.21
384.97	353.42
385.17	334.70
385.36	440.02
385.56	423.64
385.75	337.04
385.95	344.06
386.14	374.49
386.34	400.23
386.53	362.78
386.72	416.62
386.92	421.30
387.11	397.89
387.31	393.21
387.50	358.10
387.70	411.93
387.89	379.17
388.09	486.83
388.28	475.13
388.48	358.10
388.67	496.19
388.86	486.83
389.06	489.17
389.25	437.68
389.45	496.19
389.64	458.74
389.84	442.36
390.03	433.00
390.22	533.64
390.42	479.81
390.61	489.17
390.81	463.43
391.00	486.83
391.19	395.55
391.39	557.05
391.58	533.64
391.78	547.69
391.97	571.09
392.16	559.39
392.36	589.82
392.55	547.69
392.75	540.66
392.94	554.71
393.13	622.58
393.33	507.90
393.52	608.54
393.71	550.03
393.91	634.29
394.10	517.26
394.29	617.90
394.49	643.65
394.68	561.73
394.88	505.56
395.07	720.88
395.26	545.34
395.46	564.07
395.65	713.86
395.84	608.54
396.04	650.67
396.23	688.12
396.42	660.03
396.62	631.94
396.81	685.78
397.00	634.29
397.19	674.07
397.39	690.46
397.58	709.18
397.77	699.82
397.97	746.63
398.16	709.18
398.35	720.88
398.55	713.86
398.74	688.12
398.93	685.78
399.12	664.71
399.32	690.46
399.51	793.44
399.70	795.78
399.90	812.17
400.09	805.14
400.28	842.59
400.47	779.40
400.67	847.27
400.86	856.64
401.05	770.04
401.24	709.18
401.44	758.33
401.63	734.93
401.82	753.65
402.01	791.10
402.21	788.76
402.40	819.19
402.59	786.42
402.78	873.02
402.97	873.02
403.17	779.40
403.36	849.61
403.55	844.93
403.74	873.02
403.93	903.45
404.13	968.98
404.32	826.21
404.51	950.26
404.70	987.71
404.89	990.05
405.09	1004.09
405.28	997.07
405.47	966.64
405.66	901.11
405.85	1008.77
406.05	964.30
406.24	957.28
406.43	1006.43
406.62	1013.45
406.81	1064.94
407.00	1004.09
407.20	976.00
407.39	1013.45
407.58	1043.88
407.77	1062.60
407.96	1069.62
408.15	1095.37
408.34	1013.45
408.54	1109.41
408.73	1083.67
408.92	1224.10
409.11	1123.46
409.30	1067.28
409.49	1095.37
409.68	1132.82
409.87	1125.80
410.07	1118.78
410.26	1158.57
410.45	1207.72
410.64	1121.12
410.83	1240.48
411.02	1221.76
411.21	1212.40
411.40	1299.00
411.59	1299.00
411.78	1259.21
411.98	1296.66
412.17	1301.34
412.36	1212.40
412.55	1423.05
412.74	1252.19
412.93	1392.62
413.12	1364.53
413.31	1495.60
413.50	1378.58
413.69	1481.56
413.88	1401.98
414.07	1427.73
414.26	1451.13
414.45	1406.66
414.64	1411.34
414.83	1516.67
415.02	1533.05
415.22	1565.82
415.41	1542.41
415.60	1561.14
415.79	1596.25
415.98	1533.05
416.17	1497.94
416.36	1610.29
416.55	1586.88
416.74	1593.90
416.93	1577.52
417.12	1699.23
417.31	1605.61
417.50	1727.32
417.69	1701.57
417.88	1682.85
418.07	1811.57
418.26	1783.49
418.45	1739.02
418.64	1879.45
418.83	1724.97
419.02	1781.15
419.21	1778.81
419.39	1734.34
419.58	1863.07
419.77	1849.02
419.96	1834.98
420.15	1942.64
420.34	1802.21
420.53	1856.04
420.72	1919.24
420.91	1998.82
421.10	1842.00
421.29	1998.82
421.48	1767.10
421.67	1888.81
421.86	1900.52
422.05	1956.69
422.24	1942.64
422.43	1970.73
422.61	2026.90
422.80	1893.49
422.99	2064.35
423.18	2139.25
423.37	2050.31
423.56	2001.16
423.75	1961.37
423.94	1954.35
424.13	1919.24
424.32	1928.60
424.50	1970.73
424.69	1980.09
424.88	2026.90
425.07	1987.11
425.26	2076.06
425.45	2083.08
425.64	2029.24
425.83	2019.88
426.01	2104.14
426.20	2078.40
426.39	2092.44
426.58	1926.26
426.77	2036.27
426.96	2132.23
427.15	2083.08
427.33	2066.69
427.52	2132.23
427.71	2115.84
427.90	2179.04
428.09	2052.65
428.28	2186.06
428.46	2174.36
428.65	2155.63
428.84	2293.72
429.03	2216.49
429.22	2120.53
429.40	2246.91
429.59	2373.30
429.78	2214.15
429.97	2202.44
430.16	2174.36
430.34	2310.11
430.53	2296.07
430.72	2211.81
430.91	2242.23
431.10	2282.02
431.28	2298.41
431.47	2380.32
431.66	2340.54
431.85	2457.56
432.03	2422.45
432.22	2495.01
432.41	2312.45
432.60	2504.37
432.79	2424.80
432.97	2338.20
433.16	2431.82
433.35	2509.05
433.54	2457.56
433.72	2438.84
433.91	2410.75
434.10	2417.77
434.28	2485.65
434.47	2555.86
434.66	2583.95
434.85	2579.27
435.03	2588.63
435.22	2607.36
435.41	2710.34
435.59	2555.86
435.78	2647.15
435.97	2715.02
436.16	2637.78
436.34	2715.02
436.53	2635.44
436.72	2670.55
436.90	2642.46
437.09	2726.72
437.28	2649.49
437.46	2778.22
437.65	2724.38
437.84	2808.64
438.02	2672.89
438.21	2813.32
438.40	2754.81
438.58	2967.80
438.77	2909.29
438.96	2642.46
439.14	2960.78
439.33	2958.44
439.52	2963.12
439.70	2977.16
439.89	2906.95
440.08	2874.18
440.26	3021.63
440.45	2958.44
440.63	3073.12
440.82	3157.38
441.01	3159.72
441.19	3094.19
441.38	3279.09
441.57	3183.13
441.75	3293.13
441.94	3276.75
442.12	3269.73
442.31	3346.97
442.50	3220.58
442.68	3243.98
442.87	3286.11
443.05	3276.75
443.24	3309.52
443.43	3255.69
443.61	3398.46
443.80	3487.40
443.98	3297.81
444.17	3325.90
444.35	3356.33
444.54	3391.44
444.73	3414.84
444.91	3559.95
445.10	3531.87
445.28	3396.12
445.47	3555.27
445.65	3454.63
445.84	3459.31
446.02	3513.14
446.21	3496.76
446.39	3487.40
446.58	3585.70
446.77	3363.35
446.95	3487.40
447.14	3447.61
447.32	3508.46
447.51	3407.82
447.69	3438.25
447.88	3459.31
448.06	3456.97
448.25	3503.78
448.43	3489.74
448.62	3468.67
448.80	3400.80
448.99	3541.23
449.17	3543.57
449.36	3475.70
449.54	3782.31
449.73	3648.90
449.91	3749.54
450.10	3761.24
450.28	3611.45
450.46	3826.78
450.65	3616.13
450.83	3798.69
451.02	3723.79
451.20	3744.86
451.39	3880.61
451.57	3761.24
451.76	3744.86
451.94	3810.39
452.13	3803.37
452.31	3904.01
452.49	3676.98
452.68	3737.84
452.86	3852.52
453.05	3866.56
453.23	3974.23
453.42	3929.76
453.60	3847.84
453.78	3899.33
453.97	3763.58
454.15	3882.95
454.34	3978.91
454.52	4007.00
454.70	3943.80
454.89	3988.27
455.07	3904.01
455.26	4025.72
455.44	3990.61
455.62	4098.28
455.81	4070.19
455.99	4086.58
456.17	4046.79
456.36	4297.22
456.54	4138.07
456.73	4072.53
456.91	4140.41
457.09	4234.03
457.28	4381.48
457.46	4187.22
457.64	4283.18
457.83	4308.93
458.01	4301.90
458.19	4500.85
458.38	4404.89
458.56	4472.76
458.74	4587.45
458.93	4505.53
459.11	4512.55
459.29	4517.23
459.48	4465.74
459.66	4547.66
459.84	4456.38
460.03	4603.83
460.21	4528.94
460.39	4524.26
460.57	4461.06
460.76	4671.71
460.94	4730.22
461.12	4585.11
461.31	4461.06
461.49	4643.62
461.67	4667.03
461.85	4641.28
462.04	4620.22
462.22	4891.72
462.40	4903.42
462.59	4795.76
462.77	4699.80
462.95	4816.82
463.13	4784.06
463.32	4877.68
463.50	4697.46
463.68	4798.10
463.86	4861.29
464.05	4945.55
464.23	4915.12
464.41	4975.98
464.59	4798.10
464.78	5081.30
464.96	4870.65
465.14	4828.53
465.32	4873.00
465.50	4882.36
465.69	5069.60
465.87	4898.74
466.05	5104.71
466.23	5004.07
466.41	5071.94
466.60	5130.45
466.78	5025.13
466.96	5085.98
467.14	5036.83
467.32	5179.61
467.51	5151.52
467.69	4947.89
467.87	5259.18
468.05	5224.08
468.23	5137.48
468.41	5118.75
468.60	5214.71
468.78	5217.05
468.96	5043.85
469.14	5329.40
469.32	5214.71
469.50	5296.63
469.69	5406.64
469.87	5420.68
470.05	5408.98
470.23	5401.96
470.41	5427.70
470.59	5331.74
470.77	5359.83
470.95	5418.34
471.14	5490.90
471.32	5469.83
471.50	5673.46
471.68	5584.52
471.86	5537.71
472.04	5645.37
472.22	5626.65
472.40	5729.63
472.58	5797.51
472.77	5727.29
472.95	5717.93
473.13	5994.11
473.31	5598.56
473.49	5689.84
473.67	5830.27
473.85	5839.64
474.03	6026.88
474.21	5891.13
474.39	6050.28
474.57	6010.50
474.75	6246.89
474.93	6141.57
475.12	6083.05
475.30	6129.86
475.48	6108.80
475.66	6221.14
475.84	6139.23
476.02	6525.41
476.20	6422.43
476.38	6394.34
476.56	6511.37
476.74	6635.42
476.92	6480.94
477.10	6509.03
477.28	6703.29
477.46	6569.88
477.64	6644.78
477.82	6850.75
478.00	6946.71
478.18	7021.61
478.36	6939.69
478.54	7185.44
478.72	7014.59
478.90	7096.50
479.08	7185.44
479.26	7222.89
479.44	7328.22
479.62	7253.32
479.80	7239.28
479.98	7466.31
480.16	7581.00
480.34	7466.31
480.52	7602.06
480.70	7578.65
480.88	7492.05
481.06	7627.81
481.24	7658.23
481.41	7889.95
481.59	7871.22
481.77	7861.86
481.95	8098.25
482.13	7999.95
482.31	8201.24
482.49	8154.43
482.67	8266.77
482.85	8386.14
483.03	8493.80
483.21	8512.53
483.39	8491.46
483.57	8411.89
483.74	8751.26
483.92	8774.67
484.10	8531.25
484.28	9027.45
484.46	9092.98
484.64	9163.20
484.82	9039.15
485.00	9153.84
485.18	9289.59
485.35	9338.74
485.53	9266.18
485.71	9273.20
485.89	9504.92
486.07	9647.69
486.25	9591.52
486.43	9645.35
486.61	9689.82
486.78	9788.12
486.96	10008.13
487.14	10040.90
487.32	10099.41
487.50	10263.25
487.68	9991.75
487.85	10281.97
488.03	10616.67
488.21	10663.48
488.39	10572.20
488.57	10492.62
488.75	10600.29
488.92	10759.44
489.10	10871.79
489.28	10991.16
489.46	11159.67
489.64	11232.23
489.81	11367.98
489.99	11267.34
490.17	11351.60
490.35	11515.44
490.53	11503.73
490.70	11613.74
490.88	11602.04
491.06	11740.13
491.24	11683.95
491.41	11791.62
491.59	12121.63
491.77	11822.05
491.95	11913.33
492.13	12287.81
492.30	12280.79
492.48	12114.61
492.66	12435.27
492.84	12594.42
493.01	12760.60
493.19	12566.34
493.37	12833.16
493.54	12746.56
493.72	12659.96
493.90	12753.58
494.08	13046.15
494.25	13018.06
494.43	12915.08
494.61	13221.69
494.79	13336.37
494.96	13240.41
495.14	13422.97
495.32	13598.51
495.49	13462.76
495.67	13586.81
495.85	13895.76
496.02	13799.80
496.20	13916.83
496.38	13846.61
496.55	13862.99
496.73	14211.73
496.91	14033.85
497.09	14335.78
497.26	14200.03
497.44	14370.89
497.62	14288.97
497.79	14450.47
497.97	14230.46
498.14	14958.36
498.32	14867.08
498.50	14764.10
498.67	14782.82
498.85	14827.29
499.03	14944.32
499.20	14857.72
499.38	14817.93
499.56	15204.12
499.73	15192.42
499.91	15351.57
500.08	15248.59
500.26	15318.81
500.44	15349.23
500.61	15522.43
500.79	15566.90
500.97	15353.91
501.14	15969.48
501.32	15749.46
501.49	15730.74
501.67	16018.63
501.84	16039.69
502.02	15915.64
502.20	16067.78
502.37	16449.28
502.55	16137.99
502.72	16088.84
502.90	16065.44
503.07	16290.13
503.25	16341.62
503.43	16049.05
503.60	16662.27
503.78	16336.94
503.95	16676.32
504.13	16697.38
504.30	16617.80
504.48	16517.16
504.65	16837.81
504.83	16884.62
505.01	17069.53
505.18	16765.26
505.36	17205.28
505.53	16779.30
505.71	17275.49
505.88	17186.55
506.06	16767.60
506.23	17570.40
506.41	17153.79
506.58	17493.16
506.76	17451.03
506.93	17455.72
507.11	17673.39
507.28	17724.88
507.46	17846.58
507.63	17547.00
507.81	17874.67
507.98	17886.37
508.16	17687.43
508.33	17811.48
508.50	17724.88
508.68	18092.34
508.85	17982.34
509.03	18221.07
509.20	18181.28
509.38	18310.01
509.55	18408.31
509.73	18347.46
509.90	18361.50
510.08	18235.11
510.25	18335.76
510.42	18347.46
510.60	18572.15
510.77	18787.48
510.95	18906.85
511.12	19051.96
511.30	18511.30
511.47	18822.59
511.64	18857.70
511.82	18867.06
511.99	18881.10
512.17	19253.25
512.34	18829.61
512.51	19391.34
512.69	19213.46
512.86	19075.37
513.04	19506.02
513.21	19384.32
513.38	19508.37
513.56	19431.13
513.73	19353.89
513.90	19328.14
514.08	19639.44
514.25	19747.10
514.43	19672.20
514.60	19969.45
514.77	19730.72
514.95	19740.08
515.12	20058.39
515.29	20147.33
515.47	20152.01
515.64	19829.02
515.81	20114.56
515.99	20002.22
516.16	20088.82
516.33	20152.01
516.51	20463.30
516.68	20299.47
516.85	20159.03
517.03	20252.66
517.20	20231.59
517.37	20566.29
517.54	20648.21
517.72	20519.48
517.89	20695.02
518.06	20748.85
518.24	20673.95
518.41	20137.97
518.58	20898.64
518.75	20706.72
518.93	20833.11
519.10	20973.54
519.27	20961.84
519.45	20910.35
519.62	21191.21
519.79	21027.37
519.96	21256.75
520.14	21153.76
520.31	21373.77
520.48	21355.05
520.65	21156.10
520.83	21542.29
521.00	21369.09
521.17	21172.49
521.34	21308.24
521.52	21509.52
521.69	21656.98
521.86	21802.09
522.03	22073.59
522.20	21624.21
522.38	22052.53
522.55	21551.65
522.72	21734.21
522.89	22153.17
523.07	22092.32
523.24	22176.58
523.41	22106.36
523.58	22164.87
523.75	22291.26
523.92	22286.58
524.10	22178.92
524.27	22197.64
524.44	22436.38
524.61	22579.15
524.78	22876.40
524.96	22361.48
525.13	22417.65
525.30	22108.70
525.47	22476.16
525.64	22478.50
525.81	22717.24
525.98	22815.54
526.16	22927.89
526.33	22768.73
526.50	23194.71
526.67	22632.98
526.84	23056.62
527.01	22586.17
527.18	22768.73
527.36	22892.78
527.53	23267.27
527.70	23271.95
527.87	23173.64
528.04	23117.47
528.21	23068.32
528.38	23419.40
528.55	23309.40
528.72	23157.26
528.89	23913.25
529.07	23419.40
529.24	23346.84
529.41	23281.31
529.58	23381.95
529.75	23358.55
529.92	23833.68
530.09	23660.48
530.26	23522.38
530.43	23527.06
530.60	23498.98
530.77	23646.43
530.94	23924.96
531.11	23625.37
531.28	23594.94
531.46	23777.50
531.63	24009.22
531.80	23988.15
531.97	23857.08
532.14	24147.31
532.31	24240.93
532.48	24027.94
532.65	23775.16
532.82	24049.00
532.99	23882.83
533.16	24135.60
533.33	24269.01
533.50	24636.48
533.67	24643.50
533.84	23939.00
534.01	24112.20
534.18	24477.32
534.35	24608.39
534.52	24226.89
534.69	24828.40
534.86	24809.68
535.03	24496.05
535.20	24776.91
535.37	24526.47
535.54	25039.05
535.71	24549.88
535.88	24762.87
536.05	24753.51
536.22	24996.92
536.38	24891.60
536.55	24563.92
536.72	24992.24
536.89	24837.76
537.06	25118.63
537.23	25116.29
537.40	24851.81
537.57	25273.10
537.74	25476.73
537.91	25170.12
538.08	25678.02
538.25	25348.00
538.42	25408.86
538.59	25366.73
538.75	24907.98
538.92	25469.71
539.09	25221.61
539.26	25401.83
539.43	25230.98
539.60	25862.92
539.77	25500.14
539.94	25490.77
540.11	25516.52
540.28	25553.97
540.44	25778.66
540.61	25575.03
540.78	25460.35
540.95	25523.54
541.12	25734.19
541.29	25727.17
541.46	25771.64
541.62	25689.72
541.79	25984.63
541.96	25617.16
542.13	26033.78
542.30	25741.21
542.47	25963.56
542.63	25928.45
542.80	26127.40
542.97	26178.89
543.14	26401.24
543.31	25795.04
543.48	26033.78
543.64	26548.70
543.81	26415.29
543.98	26579.12
544.15	26515.93
544.32	26490.18
544.48	26696.15
544.65	26494.86
544.82	26801.47
544.99	26328.69
545.16	26735.94
545.32	26469.12
545.49	26752.32
545.66	27044.89
545.83	27002.76
546.00	26782.75
546.16	26815.52
546.33	26455.08
546.50	26586.15
546.67	26937.23
546.83	26672.74
547.00	26913.82
547.17	26909.14
547.34	27171.28
547.50	27190.00
547.67	27292.99
547.84	26969.99
548.00	26925.52
548.17	27234.47
548.34	26930.20
548.51	27222.77
548.67	27342.14
548.84	27339.80
549.01	26916.16
549.18	27000.42
549.34	27386.61
549.51	27208.73
549.68	27358.52
549.84	27239.15
550.01	27285.97
550.18	27206.39
550.34	27283.62
550.51	27910.89
550.68	27693.22
550.84	27037.87
551.01	27438.10
551.18	27335.12
551.34	27414.69
551.51	27466.19
551.68	27721.30
551.84	27632.36
552.01	27630.02
552.18	27833.65
552.34	27683.86
552.51	27711.94
552.68	27775.14
552.84	27763.43
553.01	27721.30
553.18	27655.77
553.34	27988.13
553.51	27889.82
553.67	28238.56
553.84	28437.51
554.01	27978.76
554.17	28079.41
554.34	28023.23
554.51	28070.04
554.67	28077.07
554.84	28535.81
555.00	28173.03
555.17	28194.09
555.33	27852.38
555.50	27852.38
555.67	28613.05
555.83	27917.91
556.00	28201.11
556.16	28496.02
556.33	28350.91
556.50	28254.95
556.66	28697.31
556.83	28290.06
556.99	28114.52
557.16	28526.45
557.32	28751.14
557.49	28173.03
557.65	28329.84
557.82	27999.83
557.98	27992.81
558.15	28561.56
558.32	28627.09
558.48	28561.56
558.65	28870.51
558.81	28580.28
558.98	28386.02
559.14	28755.82
559.31	28650.50
559.47	28362.61
559.64	28652.84
559.80	28758.16
559.97	28669.22
560.13	28769.86
560.30	28545.17
560.46	28893.91
560.63	28765.18
560.79	28786.25
560.96	28905.62
561.12	28713.69
561.29	28835.40
561.45	28666.88
561.61	28900.94
561.78	28870.51
561.94	29102.22
562.11	29130.31
562.27	28952.43
562.44	28893.91
562.60	29034.35
562.77	28950.09
562.93	28835.40
563.10	29017.96
563.26	28879.87
563.42	29394.79
563.59	29177.12
563.75	28842.42
563.92	28900.94
564.08	28645.82
564.24	29149.03
564.41	29151.37
564.57	29125.63
564.74	29008.60
564.90	29888.64
565.07	29090.52
565.23	29252.02
565.39	29450.96
565.56	29137.33
565.72	29509.47
565.88	29252.02
566.05	29408.83
566.21	29146.69
566.38	29039.03
566.54	29214.57
566.70	29659.27
566.87	29766.93
567.03	29741.19
567.19	29350.32
567.36	29766.93
567.52	29252.02
567.68	29191.16
567.85	29315.21
568.01	29240.31
568.17	29324.57
568.34	29326.91
568.50	29097.54
568.66	29539.90
568.83	29488.41
568.99	29610.12
569.15	29226.27
569.32	29612.46
569.48	29544.58
569.64	29296.49
569.81	29614.80
569.97	29420.53
570.13	29626.50
570.30	29298.83
570.46	29795.02
570.62	29425.22
570.78	29319.89
570.95	29195.84
571.11	29670.97
571.27	29333.93
571.43	29219.25
571.60	29373.72
571.76	29640.54
571.92	29244.99
572.09	29305.85
572.25	29909.71
572.41	29846.51
572.57	29364.36
572.74	29570.33
572.90	29237.97
573.06	29174.78
573.22	29390.11
573.38	29769.27
573.55	29741.19
573.71	29788.00
573.87	29689.70
574.03	29621.82
574.20	29649.91
574.36	29858.21
574.52	29273.08
574.68	29771.61
574.84	29743.53
575.01	29528.20
575.17	29783.32
575.33	29495.43
575.49	29521.18
575.65	30106.31
575.82	29804.38
575.98	29488.41
576.14	29560.97
576.30	29813.74
576.46	29645.23
576.62	29404.15
576.79	29582.03
576.95	29614.80
577.11	30099.29
577.27	29984.60
577.43	29970.56
577.59	29912.05
577.75	29549.26
577.92	29198.18
578.08	29584.37
578.24	29319.89
578.40	29799.70
578.56	29668.63
578.72	29795.02
578.88	30323.98
579.04	30319.30
579.21	29713.10
579.37	29979.92
579.53	29722.46
579.69	29692.04
579.85	29879.28
580.01	29591.39
580.17	29727.14
580.33	29759.91
580.49	29860.55
580.65	29834.81
580.82	29949.50
580.98	30122.69
581.14	30036.09
581.30	30075.88
581.46	29752.89
581.62	29654.59
581.78	29956.52
581.94	29888.64
582.10	29673.31
582.26	30120.35
582.42	30171.85
582.58	30012.69
582.74	29677.99
582.90	29582.03
583.06	29865.24
583.22	29935.45
583.38	30438.67
583.54	29806.72
583.70	29816.08
583.86	29762.25
584.02	29942.47
584.18	30183.55
584.34	30125.04
584.50	29792.68
584.66	30160.14
584.82	29584.37
584.98	30251.42
585.14	29560.97
585.30	29776.30
585.46	29668.63
585.62	29979.92
585.78	30164.82
585.94	29567.99
586.10	29951.84
586.26	30054.82
586.42	30171.85
586.58	30384.83
586.74	29806.72
586.90	29907.37
587.06	30031.41
587.22	30197.59
587.38	29593.73
587.54	30260.79
587.70	29902.68
587.86	30295.89
588.02	30295.89
588.18	30462.07
588.34	30010.35
588.49	30118.01
588.65	30089.93
588.81	29996.31
588.97	30223.34
589.13	30305.26
589.29	29677.99
589.45	30033.75
589.61	30176.53
589.77	30307.60
589.93	30075.88
590.08	30419.94
590.24	30380.15
590.40	30373.13
590.56	30450.37
590.72	30174.19
590.88	30211.64
591.04	30604.84
591.20	30572.08
591.35	30600.16
591.51	30707.83
591.67	30237.38
591.83	30352.07
591.99	30602.50
592.15	29921.41
592.31	30164.82
592.46	30316.96
592.62	30480.80
592.78	30178.87
592.94	30494.84
593.10	30284.19
593.26	30398.88
593.41	30576.76
593.57	30675.06
593.73	30363.77
593.89	30338.02
594.05	30356.75
594.20	30270.15
594.36	30642.29
594.52	29940.13
594.68	30146.10
594.84	30293.55
594.99	30469.09
595.15	30565.06
595.31	30522.93
595.47	30586.12
595.62	30450.37
595.78	30525.27
595.94	30218.66
596.10	30309.94
596.25	30792.09
596.41	30616.55
596.57	30487.82
596.73	30555.69
596.88	30359.09
597.04	30305.26
597.20	30637.61
597.36	30373.13
597.51	30817.83
597.67	30438.67
597.83	30637.61
597.99	30401.22
598.14	30583.78
598.30	30766.34
598.46	30579.10
598.61	30717.19
598.77	30558.03
598.93	30670.38
599.09	30759.32
599.24	30532.29
599.40	30314.62
599.56	30525.27
599.71	30658.68
599.87	30852.94
600.03	30677.40
600.18	30536.97
600.34	30403.56
600.50	30513.56
600.65	30129.72
600.81	30621.23
600.97	30588.46
601.12	30735.92
601.28	30466.75
601.44	30462.07
601.59	30572.08
601.75	30682.08
601.91	30611.87
602.06	30487.82
602.22	30469.09
602.37	30572.08
602.53	30590.80
602.69	30703.15
602.84	30728.89
603.00	30574.42
603.16	31021.46
603.31	30429.30
603.47	30904.43
603.62	30485.48
603.78	30775.70
603.94	30242.06
604.09	30017.37
604.25	30302.92
604.40	30539.31
604.56	30574.42
604.71	30651.66
604.87	30450.37
605.03	30644.63
605.18	30267.81
605.34	30628.25
605.49	30190.57
605.65	30134.40
605.80	30118.01
605.96	30267.81
606.12	30522.93
606.27	30583.78
606.43	30396.54
606.58	30515.90
606.74	30368.45
606.89	30422.28
607.05	30668.04
607.20	30642.29
607.36	30230.36
607.51	30363.77
607.67	30211.64
607.82	30256.11
607.98	30183.55
608.13	30656.34
608.29	30288.87
608.44	30438.67
608.60	30649.32
608.75	30581.44
608.91	30668.04
609.06	30473.78
609.22	30199.93
609.37	30326.32
609.53	29982.26
609.68	30490.16
609.84	30122.69
609.99	29972.90
610.15	29972.90
610.30	30213.98
610.46	30022.05
610.61	30405.90
610.76	30270.15
610.92	30218.66
611.07	30176.53
611.23	30298.23
611.38	30202.27
611.54	29972.90
611.69	30195.25
611.84	30125.04
612.00	30019.71
612.15	30045.46
612.31	30199.93
612.46	29785.66
612.62	30359.09
612.77	30085.25
612.92	30403.56
613.08	30274.83
613.23	30108.65
613.39	29778.64
613.54	29951.84
613.69	30274.83
613.85	30082.91
614.00	29773.95
614.15	29972.90
614.31	29818.42
614.46	30068.86
614.62	30139.08
614.77	30101.63
614.92	30089.93
615.08	30146.10
615.23	29883.96
615.38	30066.52
615.54	29605.44
615.69	29525.86
615.84	29603.10
616.00	29869.92
616.15	29535.22
616.30	29603.10
616.46	29425.22
616.61	30221.00
616.76	30239.72
616.92	29813.74
617.07	29820.77
617.22	29788.00
617.37	29792.68
617.53	29649.91
617.68	29692.04
617.83	29673.31
617.99	29610.12
618.14	29355.00
618.29	29385.43
618.45	29490.75
618.60	29469.69
618.75	29418.19
618.90	29638.20
619.06	29776.30
619.21	29565.65
619.36	29408.83
619.51	29516.50
619.67	28828.38
619.82	29347.98
619.97	29092.86
620.12	29252.02
620.28	29137.33
620.43	29284.78
620.58	29170.10
620.73	29949.50
620.89	29343.30
621.04	29462.66
621.19	29266.06
621.34	29586.71
621.49	29177.12
621.65	29521.18
621.80	29219.25
621.95	29371.38
622.10	29153.71
622.25	28929.02
622.41	29085.84
622.56	29156.05
622.71	29340.96
622.86	28872.85
623.01	29188.82
623.16	29167.76
623.32	29357.34
623.47	29137.33
623.62	29071.79
623.77	28992.22
623.92	28877.53
624.07	28573.26
624.23	28816.68
624.38	29099.88
624.53	28919.66
624.68	29116.26
624.83	28842.42
624.98	29144.35
625.13	29418.19
625.29	29287.12
625.44	28765.18
625.59	28685.61
625.74	28514.75
625.89	28566.24
626.04	28638.80
626.19	28732.42
626.34	28467.94
626.49	28690.29
626.65	28474.96
626.80	29074.13
626.95	28608.37
627.10	28678.58
627.25	28739.44
627.40	28573.26
627.55	28596.67
627.70	28142.60
627.85	28531.13
628.00	28133.24
628.15	28584.96
628.30	28142.60
628.45	28299.42
628.60	28264.31
628.76	28395.38
628.91	28320.48
629.06	28292.40
629.21	28386.02
629.36	28533.47
629.51	28498.36
629.66	28505.38
629.81	28367.29
629.96	28149.62
630.11	28245.58
630.26	28603.69
630.41	28163.67
630.56	28203.46
630.71	28271.33
630.86	28386.02
631.01	28161.33
631.16	28364.95
631.31	28315.80
631.46	28006.85
631.61	28264.31
631.76	28376.66
631.91	27866.42
632.06	28114.52
632.21	27985.79
632.36	28158.99
632.51	27634.71
632.66	28219.84
632.81	27960.04
632.96	28009.19
633.10	27962.38
633.25	28538.15
633.40	28252.61
633.55	28063.02
633.70	27435.76
633.85	27686.20
634.00	28018.55
634.15	27599.60
634.30	27524.70
634.45	27800.88
634.60	27501.29
634.75	27747.05
634.90	27590.24
635.05	27828.97
635.19	27796.20
635.34	27889.82
635.49	27489.59
635.64	27976.42
635.79	27817.27
635.94	27473.21
636.09	27496.61
636.24	27662.79
636.39	27468.53
636.53	27487.25
636.68	27400.65
636.83	27672.15
636.98	27505.98
637.13	27716.62
637.28	27550.45
637.43	27262.56
637.57	27524.70
637.72	27194.68
637.87	27353.84
638.02	27559.81
638.17	27470.87
638.32	27122.13
638.46	27105.74
638.61	27072.98
638.76	27033.19
638.91	27089.36
639.06	27213.41
639.20	27482.57
639.35	27129.15
639.50	27328.10
639.65	27391.29
639.80	27417.04
639.94	27365.54
640.09	27094.04
640.24	27166.60
640.39	27171.28
640.54	27171.28
640.68	26815.52
640.83	27035.53
640.98	27082.34
641.13	27005.10
641.27	27117.45
641.42	26810.84
641.57	27131.49
641.72	26951.27
641.86	26565.08
642.01	26579.12
642.16	26944.25
642.31	26649.34
642.45	26937.23
642.60	26607.21
642.75	26558.06
642.90	26572.10
643.04	26609.55
643.19	26560.40
643.34	26649.34
643.48	26696.15
643.63	27101.06
643.78	26852.97
643.93	26876.37
644.07	26707.85
644.22	26831.90
644.37	27014.46
644.51	26686.79
644.66	26602.53
644.81	26534.65
644.95	26602.53
645.10	26455.08
645.25	26403.58
645.39	26651.68
645.54	26532.31
645.69	26562.74
645.83	26838.92
645.98	26654.02
646.13	26665.72
646.27	26541.68
646.42	26410.60
646.57	26295.92
646.71	26279.54
646.86	26305.28
647.00	26377.84
647.15	26361.45
647.30	26445.71
647.44	26511.25
647.59	26150.81
647.74	26316.98
647.88	26190.59
648.03	26656.36
648.17	26522.95
648.32	26331.03
648.47	26443.37
648.61	26326.35
648.76	26017.40
648.90	26118.04
649.05	26504.23
649.20	25926.11
649.34	25933.14
649.49	26146.12
649.63	26160.17
649.78	25982.29
649.92	26155.49
650.07	26380.18
650.21	26141.44
650.36	25926.11
650.51	25891.01
650.65	25919.09
650.80	25853.56
650.94	26033.78
651.09	25809.09
651.23	25624.18
651.38	25841.85
651.52	25977.61
651.67	26015.05
651.81	25947.18
651.96	25724.83
652.10	25942.50
652.25	25879.30
652.39	26015.05
652.54	25912.07
652.68	26022.08
652.83	25652.27
652.97	25954.20
653.12	25511.84
653.26	25511.84
653.41	25678.02
653.55	25577.37
653.70	25500.14
653.84	25926.11
653.99	25678.02
654.13	25500.14
654.27	25504.82
654.42	25577.37
654.56	25261.40
654.71	25703.76
654.85	25572.69
655.00	25694.40
655.14	25909.73
655.29	24952.45
655.43	25448.64
655.57	25207.57
655.72	25390.13
655.86	25418.22
656.01	25380.77
656.15	25186.50
656.30	25565.67
656.44	25383.11
656.58	25137.35
656.73	25062.46
656.87	25216.93
657.01	24854.15
657.16	25570.35
657.30	25252.04
657.45	25350.34
657.59	24959.47
657.73	24931.39
657.88	24861.17
658.02	25116.29
658.16	24702.01
658.31	25001.60
658.45	25202.89
658.60	25146.72
658.74	24957.13
658.88	24599.03
659.03	24755.85
659.17	24915.00
659.31	24898.62
659.46	25025.01
659.60	24807.34
659.74	25057.78
659.89	24685.63
660.03	24671.59
660.17	24842.45
660.32	24465.62
660.46	24603.71
660.60	24390.72
660.74	24533.50
660.89	24325.19
661.03	24049.00
661.17	24577.97
661.32	24556.90
661.46	24444.56
661.60	24332.21
661.74	24240.93
661.89	24264.33
662.03	24376.68
662.17	24381.36
662.31	24184.76
662.46	24386.04
662.60	24238.59
662.74	24175.39
662.88	24088.79
663.03	23999.85
663.17	23896.87
663.31	23735.37
663.45	23695.58
663.60	23950.70
663.74	23831.33
663.88	23791.55
664.02	23744.73
664.17	23901.55
664.31	23700.26
664.45	23667.50
664.59	23697.92
664.73	23939.00
664.88	23683.88
665.02	23213.43
665.16	23566.85
665.30	23637.07
665.44	23515.36
665.59	23262.58
665.73	23344.50
665.87	23070.66
666.01	23608.98
666.15	23374.93
666.29	23290.67
666.44	23388.97
666.58	23211.09
666.72	23222.80
666.86	23403.02
667.00	23363.23
667.14	23384.29
667.28	23161.94
667.43	23042.57
667.57	23124.49
667.71	23056.62
667.85	22782.77
667.99	23145.56
668.13	22785.12
668.27	23185.35
668.41	22766.39
668.56	22766.39
668.70	23119.81
668.84	22728.94
668.98	22937.25
669.12	22714.90
669.26	23070.66
669.40	22672.77
669.54	22827.24
669.68	22321.69
669.82	22663.41
669.96	22253.81
670.10	22265.52
670.25	22244.45
670.39	22073.59
670.53	22480.85
670.67	22178.92
670.81	22302.96
670.95	22511.27
671.09	22312.33
671.23	22169.55
671.37	22712.56
671.51	22267.86
671.65	22548.72
671.79	22300.62
671.93	22162.53
672.07	22015.08
672.21	21907.41
672.35	21589.10
672.49	21635.91
672.63	21865.28
672.77	21474.42
672.91	21493.14
673.05	21879.33
673.19	21804.43
673.33	21666.34
673.47	21303.56
673.61	21675.70
673.75	21493.14
673.89	21273.13
674.03	21415.90
674.17	21607.83
674.31	21312.92
674.45	21439.31
674.59	21546.97
674.73	21209.93
674.87	21025.03
675.01	21223.98
675.15	20936.09
675.29	20814.38
675.43	20933.75
675.56	21111.63
675.70	20877.58
675.84	20938.43
675.98	20271.38
676.12	21113.97
676.26	20577.99
676.40	20725.44
676.54	21001.63
676.68	20606.08
676.82	20601.40
676.96	20327.55
677.10	20386.07
677.23	20346.28
677.37	20006.90
677.51	20175.42
677.65	20294.79
677.79	19875.83
677.93	19679.22
678.07	19957.75
678.21	19894.55
678.34	20180.10
678.48	19887.53
678.62	19496.66
678.76	19566.88
678.90	19651.14
679.04	19871.15
679.18	19573.90
679.31	19323.46
679.45	19552.84
679.59	19243.88
679.73	19190.05
679.87	19047.28
680.00	18960.68
680.14	18913.87
680.28	19538.79
680.42	18998.13
680.56	19075.37
680.70	19051.96
680.83	18963.02
680.97	18916.21
681.11	19161.97
681.25	18691.52
681.39	18539.38
681.52	18710.24
681.66	18501.93
681.80	18363.84
681.94	18651.73
682.07	18541.72
682.21	18333.42
682.35	18162.56
682.49	18195.32
682.62	18183.62
682.76	18022.12
682.90	18293.63
683.04	18022.12
683.17	18122.77
683.31	18005.74
683.45	18120.43
683.59	18071.28
683.72	17671.04
683.86	17633.60
684.00	17570.40
684.13	17530.61
684.27	17448.69
684.41	17385.50
684.55	17551.68
684.68	17116.34
684.82	17317.62
684.96	16992.29
685.09	17074.21
685.23	17139.74
685.37	17109.32
685.50	16800.37
685.64	17041.44
685.78	17039.10
685.91	17172.51
686.05	17301.24
686.19	16868.24
686.32	16844.84
686.46	16760.58
686.60	16465.67
686.73	16531.20
686.87	16692.70
687.01	16465.67
687.14	16411.84
687.28	16208.21
687.42	16346.30
687.55	15960.11
687.69	16517.16
687.82	16161.40
687.96	16252.68
688.10	16023.31
688.23	16194.17
688.37	15910.96
688.50	16020.97
688.64	16189.49
688.78	15630.10
688.91	15662.86
689.05	15557.54
689.18	15609.03
689.32	15442.85
689.46	15461.58
689.59	15723.72
689.73	15300.08
689.86	15393.70
690.00	15372.64
690.13	15407.75
690.27	14977.09
690.41	14993.47
690.54	15279.02
690.68	15183.06
690.81	15190.08
690.95	15192.42
691.08	15159.65
691.22	14846.02
691.35	14885.81
691.49	14995.81
691.62	14710.27
691.76	14689.20
691.89	14555.79
692.03	14279.61
692.16	14429.40
692.30	14340.46
692.43	14429.40
692.57	14207.05
692.70	14295.99
692.84	13944.91
692.97	14295.99
693.11	14106.41
693.24	14235.14
693.38	14052.58
693.51	13860.65
693.65	13956.61
693.78	13954.27
693.92	13844.27
694.05	13846.61
694.19	13635.96
694.32	13558.72
694.45	13633.62
694.59	13233.39
694.72	13394.89
694.86	13350.42
694.99	13312.97
695.13	13270.84
695.26	13273.18
695.39	13128.06
695.53	13167.85
695.66	13287.22
695.80	13053.17
695.93	13261.48
696.07	13408.93
696.20	13116.36
696.33	13078.91
696.47	12823.80
696.60	12849.54
696.73	12840.18
696.87	12709.11
697.00	12894.01
697.14	12348.67
697.27	12313.56
697.40	12283.13
697.54	12304.20
697.67	12056.10
697.80	12201.21
697.94	12409.52
698.07	12107.59
698.21	12079.50
698.34	12126.32
698.47	12067.80
698.61	12004.61
698.74	12196.53
698.87	12002.27
699.01	11957.80
699.14	11875.88
699.27	11545.86
699.40	11627.78
699.54	11819.71
699.67	11705.02
699.80	11499.05
699.94	11431.18
700.07	11445.22
700.20	11456.92
700.34	11220.53
700.47	11056.69
700.60	11164.36
700.73	11351.60
700.87	11300.11
701.00	11044.99
701.13	11248.61
701.26	11089.46
701.40	11115.20
701.53	11131.59
701.66	11009.88
701.79	10974.77
701.93	10930.30
702.06	10860.09
702.19	10644.76
702.32	10562.84
702.46	10410.70
702.59	10349.85
702.72	10457.51
702.85	10579.22
702.99	10597.95
703.12	10321.76
703.25	10211.76
703.38	10399.00
703.51	10368.57
703.65	10359.21
703.78	10260.91
703.91	10080.69
704.04	10363.89
704.17	10129.84
704.31	10228.14
704.44	10054.94
704.57	9860.68
704.70	9659.39
704.83	9781.10
704.96	9771.74
705.10	9760.03
705.23	9638.33
>>>>>End Processed Spectral Data<<<<<
