SpectraSuite Data File
++++++++++++++++++++++++++++++++++++
Date: Fri Oct 18 13:57:56 GMT-05:00 2013
User: bianchi
Dark Spectrum Present: No
Reference Spectrum Present: No
Number of Sampled Component Spectra: 1
Spectrometers: USB2+H05261
Integration Time (usec): 50000 (USB2+H05261)
Spectra Averaged: 1 (USB2+H05261)
Boxcar Smoothing: 0 (USB2+H05261)
Correct for Electrical Dark: No (USB2+H05261)
Strobe/Lamp Enabled: No (USB2+H05261)
Correct for Detector Non-linearity: No (USB2+H05261)
Correct for Stray Light: No (USB2+H05261)
Number of Pixels in Processed Spectrum: 2048
>>>>>Begin Processed Spectral Data<<<<<
365.73	0.00
365.92	0.00
366.12	0.00
366.32	0.00
366.52	0.00
366.72	0.00
366.91	0.00
367.11	0.00
367.31	0.00
367.51	0.00
367.70	0.00
367.90	0.00
368.10	0.00
368.30	0.00
368.49	0.00
368.69	0.00
368.89	0.00
369.09	0.00
369.28	0.00
369.48	0.00
369.68	0.00
369.87	0.00
370.07	0.00
370.27	0.00
370.47	0.00
370.66	65.54
370.86	84.26
371.06	163.84
371.25	191.92
371.45	81.92
371.65	149.79
371.84	168.52
372.04	166.18
372.24	196.60
372.44	159.16
372.63	180.22
372.83	145.11
373.03	220.01
373.22	166.18
373.42	252.78
373.62	248.10
373.81	245.76
374.01	196.60
374.21	147.45
374.40	180.22
374.60	220.01
374.79	278.52
374.99	220.01
375.19	276.18
375.38	290.23
375.58	308.95
375.78	313.63
375.97	273.84
376.17	299.59
376.37	248.10
376.56	250.44
376.76	231.71
376.95	308.95
377.15	297.25
377.35	341.72
377.54	280.86
377.74	301.93
377.93	311.29
378.13	285.55
378.33	318.31
378.52	311.29
378.72	376.83
378.91	330.02
379.11	308.95
379.31	339.38
379.50	339.38
379.70	388.53
379.89	411.93
380.09	322.99
380.28	313.63
380.48	229.37
380.68	231.71
380.87	337.04
381.07	299.59
381.26	341.72
381.46	292.57
381.65	344.06
381.85	332.36
382.04	355.76
382.24	313.63
382.43	341.72
382.63	320.65
382.83	339.38
383.02	346.40
383.22	414.27
383.41	388.53
383.61	365.12
383.80	381.51
384.00	367.46
384.19	411.93
384.39	374.49
384.58	402.57
384.78	362.78
384.97	454.06
385.17	477.47
385.36	355.76
385.56	395.55
385.75	414.27
385.95	351.08
386.14	418.96
386.34	456.40
386.53	428.32
386.72	423.64
386.92	397.89
387.11	447.04
387.31	517.26
387.50	383.85
387.70	428.32
387.89	430.66
388.09	461.09
388.28	454.06
388.48	393.21
388.67	479.81
388.86	449.38
389.06	465.77
389.25	505.56
389.45	479.81
389.64	404.91
389.84	524.28
390.03	428.32
390.22	503.22
390.42	535.98
390.61	517.26
390.81	468.11
391.00	472.79
391.19	521.94
391.39	505.56
391.58	524.28
391.78	454.06
391.97	564.07
392.16	566.41
392.36	493.85
392.55	561.73
392.75	603.86
392.94	629.60
393.13	601.52
393.33	603.86
393.52	526.62
393.71	620.24
393.91	629.60
394.10	629.60
394.29	547.69
394.49	547.69
394.68	550.03
394.88	582.79
395.07	631.94
395.26	688.12
395.46	620.24
395.65	643.65
395.84	636.63
396.04	723.23
396.23	688.12
396.42	660.03
396.62	695.14
396.81	634.29
397.00	671.73
397.19	657.69
397.39	753.65
397.58	678.76
397.77	706.84
397.97	631.94
398.16	674.07
398.35	730.25
398.55	692.80
398.74	751.31
398.93	758.33
399.12	727.91
399.32	774.72
399.51	741.95
399.70	709.18
399.90	826.21
400.09	760.67
400.28	802.80
400.47	702.16
400.67	837.91
400.86	798.12
401.05	725.57
401.24	828.55
401.44	854.30
401.63	851.96
401.82	830.89
402.01	931.53
402.21	826.21
402.40	873.02
402.59	823.87
402.78	856.64
402.97	898.77
403.17	884.72
403.36	854.30
403.55	840.25
403.74	903.45
403.93	858.98
404.13	908.13
404.32	992.39
404.51	812.17
404.70	931.53
404.89	873.02
405.09	1015.79
405.28	966.64
405.47	952.60
405.66	968.98
405.85	952.60
406.05	1008.77
406.24	1011.11
406.43	1062.60
406.62	1149.20
406.81	1125.80
407.00	1034.52
407.20	1146.86
407.39	1081.33
407.58	1041.54
407.77	1055.58
407.96	1086.01
408.15	1053.24
408.34	1083.67
408.54	1093.03
408.73	1090.69
408.92	1053.24
409.11	1179.63
409.30	1249.85
409.49	1210.06
409.68	1142.18
409.87	1139.84
410.07	1275.59
410.26	1266.23
410.45	1324.74
410.64	1240.48
410.83	1343.47
411.02	1277.93
411.21	1294.32
411.40	1261.55
411.59	1270.91
411.78	1383.26
411.98	1336.45
412.17	1334.11
412.36	1294.32
412.55	1341.13
412.74	1348.15
412.93	1380.92
413.12	1315.38
413.31	1465.18
413.50	1343.47
413.69	1427.73
413.88	1497.94
414.07	1467.52
414.26	1547.09
414.45	1476.88
414.64	1540.07
414.83	1500.28
415.02	1528.37
415.22	1493.26
415.41	1673.48
415.60	1563.48
415.79	1657.10
415.98	1673.48
416.17	1614.97
416.36	1603.27
416.55	1591.56
416.74	1671.14
416.93	1713.27
417.12	1795.19
417.31	1692.21
417.50	1825.62
417.69	1736.68
417.88	1895.83
418.07	1755.40
418.26	1652.42
418.45	1879.45
418.64	1832.64
418.83	1863.07
419.02	1856.04
419.21	1832.64
419.39	1928.60
419.58	1804.55
419.77	1860.73
419.96	1888.81
420.15	1879.45
420.34	1816.26
420.53	1926.26
420.72	1947.33
420.91	1928.60
421.10	2062.01
421.29	2071.37
421.48	1947.33
421.67	2036.27
421.86	1984.77
422.05	1966.05
422.24	1977.75
422.43	2024.56
422.61	2050.31
422.80	2024.56
422.99	2118.18
423.18	2033.93
423.37	2165.00
423.56	2005.84
423.75	2047.97
423.94	2092.44
424.13	1949.67
424.32	1970.73
424.50	2148.61
424.69	2071.37
424.88	2104.14
425.07	2040.95
425.26	2001.16
425.45	2127.55
425.64	2080.74
425.83	2097.12
426.01	2078.40
426.20	2038.61
426.39	1996.48
426.58	2111.16
426.77	2073.71
426.96	2122.87
427.15	2066.69
427.33	2132.23
427.52	2174.36
427.71	2260.96
427.90	2181.38
428.09	2237.55
428.28	2354.58
428.46	2277.34
428.65	2347.56
428.84	2342.88
429.03	2403.73
429.22	2321.81
429.40	2230.53
429.59	2331.17
429.78	2289.04
429.97	2153.29
430.16	2410.75
430.34	2385.01
430.53	2569.91
430.72	2422.45
430.91	2389.69
431.10	2331.17
431.28	2342.88
431.47	2525.44
431.66	2490.33
431.85	2462.24
432.03	2628.42
432.22	2499.69
432.41	2602.68
432.60	2499.69
432.79	2457.56
432.97	2555.86
433.16	2560.55
433.35	2576.93
433.54	2527.78
433.72	2583.95
433.91	2504.37
434.10	2576.93
434.28	2567.57
434.47	2642.46
434.66	2686.94
434.85	2752.47
435.03	2733.75
435.22	2597.99
435.41	2708.00
435.59	2726.72
435.78	2708.00
435.97	2717.36
436.16	2738.43
436.34	2729.06
436.53	2689.28
436.72	2787.58
436.90	2832.05
437.09	2757.15
437.28	2693.96
437.46	2878.86
437.65	2792.26
437.84	2864.82
438.02	2698.64
438.21	2860.13
438.40	2888.22
438.58	2949.08
438.77	2871.84
438.96	3033.33
439.14	3091.85
439.33	2998.23
439.52	3089.51
439.70	2979.50
439.89	3148.02
440.08	3126.96
440.26	3162.06
440.45	3084.83
440.63	3248.66
440.82	3208.87
441.01	3267.39
441.19	3311.86
441.38	3330.58
441.57	3293.13
441.75	3389.10
441.94	3300.16
442.12	3258.03
442.31	3452.29
442.50	3536.55
442.68	3330.58
442.87	3508.46
443.05	3452.29
443.24	3506.12
443.43	3459.31
443.61	3552.93
443.80	3644.21
443.98	3501.44
444.17	3515.48
444.35	3522.51
444.54	3438.25
444.73	3499.10
444.91	3517.83
445.10	3461.65
445.28	3545.91
445.47	3510.80
445.65	3531.87
445.84	3562.30
446.02	3637.19
446.21	3531.87
446.39	3506.12
446.58	3805.71
446.77	3674.64
446.95	3524.85
447.14	3618.47
447.32	3707.41
447.51	3693.37
447.69	3604.42
447.88	3627.83
448.06	3627.83
448.25	3684.00
448.43	3721.45
448.62	3637.19
448.80	3616.13
448.99	3798.69
449.17	3681.66
449.36	3644.21
449.54	3948.48
449.73	3850.18
449.91	3763.58
450.10	3728.47
450.28	3854.86
450.46	3915.72
450.65	3934.44
450.83	3918.06
451.02	3864.22
451.20	4021.04
451.39	3957.85
451.57	3864.22
451.76	3859.54
451.94	3990.61
452.13	4042.11
452.31	3960.19
452.49	3861.88
452.68	4018.70
452.86	4159.13
453.05	4077.21
453.23	4067.85
453.42	3999.98
453.60	3992.95
453.78	4067.85
453.97	3899.33
454.15	4042.11
454.34	4056.15
454.52	4238.71
454.70	4119.34
454.89	4053.81
455.07	4198.92
455.26	4255.09
455.44	4081.89
455.62	4365.10
455.81	4184.88
455.99	4205.94
456.17	4208.28
456.36	4173.18
456.54	4337.01
456.73	4367.44
456.91	4449.36
457.09	4435.32
457.28	4409.57
457.46	4416.59
457.64	4587.45
457.83	4547.66
458.01	4351.06
458.19	4573.41
458.38	4550.00
458.56	4636.60
458.74	4432.97
458.93	4505.53
459.11	4613.20
459.29	4575.75
459.48	4657.67
459.66	4695.11
459.84	4767.67
460.03	4755.97
460.21	4669.37
460.39	4662.35
460.57	4622.56
460.76	4631.92
460.94	4725.54
461.12	4688.09
461.31	4805.12
461.49	4765.33
461.67	4847.25
461.85	4912.78
462.04	4711.50
462.22	4926.83
462.40	4922.15
462.59	4842.57
462.77	4842.57
462.95	4870.65
463.13	4954.91
463.32	5001.72
463.50	4952.57
463.68	4954.91
463.86	5029.81
464.05	4908.10
464.23	4837.89
464.41	4968.96
464.59	4926.83
464.78	5245.14
464.96	4983.00
465.14	5179.61
465.32	4999.38
465.50	5277.91
465.69	5301.31
465.87	5163.22
466.05	5207.69
466.23	4978.32
466.41	5219.39
466.60	5509.62
466.78	5238.12
466.96	5121.09
467.14	5191.31
467.32	5219.39
467.51	5439.40
467.69	5235.78
467.87	5359.83
468.05	5320.04
468.23	5263.86
468.41	5261.52
468.60	5399.62
468.78	5497.92
468.96	5378.55
469.14	5284.93
469.32	5556.43
469.50	5394.93
469.69	5551.75
469.87	5645.37
470.05	5713.25
470.23	5483.88
470.41	5659.42
470.59	5636.01
470.77	5420.68
470.95	5654.73
471.14	5645.37
471.32	5675.80
471.50	5916.87
471.68	5795.17
471.86	5736.65
472.04	5959.00
472.22	6052.63
472.40	5811.55
472.58	6076.03
472.77	5970.71
472.95	5879.43
473.13	6148.59
473.31	6069.01
473.49	6038.58
473.67	6003.47
473.85	6148.59
474.03	6122.84
474.21	6019.86
474.39	6377.96
474.57	6183.70
474.75	6415.41
474.93	6392.00
475.12	6183.70
475.30	6267.95
475.48	6296.04
475.66	6485.62
475.84	6399.02
476.02	6483.28
476.20	6518.39
476.38	6684.57
476.56	7009.90
476.74	6841.39
476.92	6604.99
477.10	6862.45
477.28	6792.23
477.46	7075.44
477.64	7009.90
477.82	6911.60
478.00	7101.19
478.18	7199.49
478.36	7297.79
478.54	7272.04
478.72	7407.80
478.90	7389.07
479.08	7286.09
479.26	7466.31
479.44	7438.22
479.62	7461.63
479.80	7700.36
479.98	7590.36
480.16	7918.03
480.34	7728.45
480.52	7908.67
480.70	7744.83
480.88	7763.56
481.06	7971.86
481.24	7913.35
481.41	8077.19
481.59	8205.92
481.77	8168.47
481.95	8374.44
482.13	8400.18
482.31	8369.76
482.49	8610.83
482.67	8573.38
482.85	8603.81
483.03	8807.44
483.21	8840.20
483.39	8940.85
483.57	8706.79
483.74	8938.51
483.92	9123.41
484.10	9001.70
484.28	9263.84
484.46	9411.29
484.64	9296.61
484.82	9224.05
485.00	9561.09
485.18	9699.18
485.35	9898.13
485.53	9666.41
485.71	9647.69
485.89	9764.72
486.07	9722.59
486.25	9816.21
486.43	10001.11
486.61	10237.50
486.78	10281.97
486.96	10291.34
487.14	10541.77
487.32	10562.84
487.50	10291.34
487.68	10452.83
487.85	10759.44
488.03	10750.08
488.21	10864.77
488.39	10848.38
488.57	11255.64
488.75	11229.89
488.92	11330.53
489.10	11267.34
489.28	11351.60
489.46	11405.43
489.64	11508.41
489.81	11712.04
489.99	11583.31
490.17	11913.33
490.35	11918.01
490.53	11761.19
490.70	12114.61
490.88	12098.23
491.06	12287.81
491.24	12475.06
491.41	12306.54
491.59	12404.84
491.77	12444.63
491.95	12564.00
492.13	12807.41
492.30	12821.45
492.48	12727.83
492.66	12971.25
492.84	12812.09
493.01	12954.87
493.19	12840.18
493.37	13186.58
493.54	13177.22
493.72	13427.65
493.90	13369.14
494.08	13518.93
494.25	13673.41
494.43	13657.03
494.61	13502.55
494.79	13783.41
494.96	13994.06
495.14	13811.50
495.32	13802.14
495.49	13984.70
495.67	14143.86
495.85	14237.48
496.02	14312.38
496.20	14380.25
496.38	14331.10
496.55	14576.86
496.73	14689.20
496.91	14443.45
497.09	14778.14
497.26	14956.02
497.44	14920.92
497.62	14895.17
497.79	15026.24
497.97	15087.09
498.14	15002.83
498.32	15229.87
498.50	15384.34
498.67	15335.19
498.85	15342.21
499.03	15625.42
499.20	15389.02
499.38	15655.84
499.56	15913.30
499.73	15721.38
499.91	16086.50
500.08	16027.99
500.26	16013.95
500.44	15971.82
500.61	15929.69
500.79	15845.43
500.97	16411.84
501.14	16273.74
501.32	16580.36
501.49	16393.11
501.67	16727.81
501.84	16711.42
502.02	16470.35
502.20	16908.03
502.37	16720.79
502.55	16837.81
502.72	16807.39
502.90	17057.82
503.07	16711.42
503.25	16659.93
503.43	16933.78
503.60	16727.81
503.78	16989.95
503.95	17458.06
504.13	17074.21
504.30	17067.19
504.48	17434.65
504.65	17451.03
504.83	17355.07
505.01	17860.63
505.18	17841.90
505.36	17528.27
505.53	17488.48
505.71	17727.22
505.88	17844.24
506.06	18036.17
506.23	18038.51
506.41	18059.57
506.58	17996.38
506.76	18094.68
506.93	18277.24
507.11	17980.00
507.28	18157.88
507.46	17991.70
507.63	18197.67
507.81	18595.56
507.98	18288.95
508.16	18787.48
508.33	18373.21
508.50	18515.98
508.68	18394.27
508.85	18642.37
509.03	18726.63
509.20	18764.07
509.38	19112.81
509.55	19197.07
509.73	19124.52
509.90	18902.17
510.08	19070.68
510.25	19201.76
510.42	18993.45
510.60	19143.24
510.77	19309.42
510.95	19559.86
511.12	19058.98
511.30	19309.42
511.47	19452.19
511.64	19494.32
511.82	19681.56
511.99	19641.78
512.17	19480.28
512.34	19468.58
512.51	19960.09
512.69	19934.34
512.86	20250.32
513.04	20226.91
513.21	20189.46
513.38	20121.59
513.56	20247.97
513.73	20503.09
513.90	20173.08
514.08	19875.83
514.25	20276.06
514.43	20051.37
514.60	20362.66
514.77	20758.21
514.95	20547.56
515.12	20278.40
515.29	20421.17
515.47	20737.15
515.64	20840.13
515.81	21022.69
515.99	20734.81
516.16	20648.21
516.33	21057.80
516.51	21252.06
516.68	20950.14
516.85	21039.08
517.03	21050.78
517.20	21111.63
517.37	21366.75
517.54	21333.98
517.72	21209.93
517.89	21392.50
518.06	21446.33
518.24	21708.47
518.41	21418.24
518.58	21429.94
518.75	21561.02
518.93	21979.97
519.10	21898.05
519.27	21755.28
519.45	21717.83
519.62	21769.32
519.79	21884.01
519.96	21851.24
520.14	22068.91
520.31	21895.71
520.48	22125.08
520.65	22061.89
520.83	22450.42
521.00	22342.75
521.17	21956.57
521.34	22331.05
521.52	22237.43
521.69	22492.55
521.86	22710.22
522.03	22497.23
522.20	22611.92
522.38	23021.51
522.55	22560.42
522.72	22813.20
522.89	22806.18
523.07	23150.24
523.24	22934.91
523.41	22630.64
523.58	23009.81
523.75	23283.65
523.92	23206.41
524.10	23070.66
524.27	23087.04
524.44	23388.97
524.61	23269.61
524.78	23653.45
524.96	23344.50
525.13	23049.60
525.30	23501.32
525.47	23396.00
525.64	23377.27
525.81	23613.66
525.98	23679.20
526.16	23407.70
526.33	23655.79
526.50	24116.88
526.67	23892.19
526.84	23625.37
527.01	23398.34
527.18	23866.44
527.36	24245.61
527.53	23840.70
527.70	24271.36
527.87	24273.70
528.04	24025.60
528.21	24025.60
528.38	24051.34
528.55	24126.24
528.72	24198.80
528.89	24320.51
529.07	24308.80
529.24	24563.92
529.41	24444.56
529.58	24507.75
529.75	24212.84
529.92	24208.16
530.09	24416.47
530.26	24517.11
530.43	24613.07
530.60	24474.98
530.77	24519.45
530.94	25029.69
531.11	24517.11
531.28	24762.87
531.46	24875.21
531.63	24673.93
531.80	25015.65
531.97	25151.40
532.14	24964.15
532.31	24547.54
532.48	24758.19
532.65	25172.46
532.82	25125.65
532.99	25427.58
533.16	25348.00
533.33	25160.76
533.50	25514.18
533.67	25254.38
533.84	25500.14
534.01	25207.57
534.18	25041.39
534.35	25530.56
534.52	25291.83
534.69	25645.25
534.86	25715.47
535.03	25593.76
535.20	25348.00
535.37	25675.68
535.54	25551.63
535.71	25696.74
535.88	25605.46
536.05	25755.26
536.22	25846.54
536.38	26017.40
536.55	26064.21
536.72	26143.78
536.89	25853.56
537.06	26075.91
537.23	26050.16
537.40	26150.81
537.57	25954.20
537.74	26008.03
537.91	26235.06
538.08	26204.64
538.25	26199.96
538.42	26438.69
538.59	26506.57
538.75	25984.63
538.92	26476.14
539.09	26429.33
539.26	26272.51
539.43	26822.54
539.60	26368.48
539.77	26539.33
539.94	26497.20
540.11	26771.05
540.28	26518.27
540.44	26422.31
540.61	26415.29
540.78	26817.86
540.95	26838.92
541.12	26848.29
541.29	26700.83
541.46	26733.60
541.62	27023.83
541.79	26841.26
541.96	26782.75
542.13	27077.66
542.30	27229.79
542.47	27143.19
542.63	27302.35
542.80	27367.88
542.97	27260.22
543.14	27208.73
543.31	27147.87
543.48	27370.22
543.64	27681.52
543.81	27161.92
543.98	27428.74
544.15	27838.33
544.32	27733.01
544.48	28196.43
544.65	27681.52
544.82	27262.56
544.99	27630.02
545.16	27604.28
545.32	28072.39
545.49	27976.42
545.66	27850.03
545.83	27782.16
546.00	27908.55
546.16	27711.94
546.33	27566.83
546.50	27735.35
546.67	27768.12
546.83	27733.01
547.00	27667.47
547.17	27728.33
547.34	28215.16
547.50	28128.56
547.67	28154.30
547.84	28063.02
548.00	27901.53
548.17	28603.69
548.34	28638.80
548.51	28737.10
548.67	28374.31
548.84	28390.70
549.01	28570.92
549.18	28371.97
549.34	28327.50
549.51	28716.03
549.68	27962.38
549.84	28287.71
550.01	28219.84
550.18	28507.72
550.34	28692.63
550.51	28797.95
550.68	28919.66
550.84	28936.04
551.01	28584.96
551.18	28842.42
551.34	28533.47
551.51	28636.45
551.68	28795.61
551.84	28875.19
552.01	28746.46
552.18	28568.58
552.34	28982.85
552.51	28797.95
552.68	28758.16
552.84	29235.63
553.01	29071.79
553.18	29261.38
553.34	28952.43
553.51	29015.62
553.67	28765.18
553.84	29200.52
554.01	29081.16
554.17	28931.36
554.34	29151.37
554.51	29188.82
554.67	29336.27
554.84	28943.06
555.00	28833.06
555.17	29364.36
555.33	29439.26
555.50	29219.25
555.67	29441.60
555.83	29144.35
556.00	29146.69
556.16	29802.04
556.33	29476.71
556.50	29727.14
556.66	29596.07
556.83	29582.03
556.99	29818.42
557.16	29788.00
557.32	29942.47
557.49	29654.59
557.65	29237.97
557.82	29364.36
557.98	29450.96
558.15	29305.85
558.32	29947.15
558.48	30036.09
558.65	29546.92
558.81	29668.63
558.98	29502.45
559.14	29689.70
559.31	29652.25
559.47	29734.17
559.64	29858.21
559.80	30099.29
559.97	29979.92
560.13	29680.33
560.30	30213.98
560.46	30476.12
560.63	30024.39
560.79	30085.25
560.96	30221.00
561.12	29947.15
561.29	29919.07
561.45	30089.93
561.61	30213.98
561.78	30300.58
561.94	30651.66
562.11	30106.31
562.27	30082.91
562.44	29783.32
562.60	29872.26
562.77	29692.04
562.93	29830.13
563.10	30946.56
563.26	30237.38
563.42	30679.74
563.59	30071.20
563.75	30471.43
563.92	30375.47
564.08	30258.45
564.24	30223.34
564.41	30057.16
564.57	30249.08
564.74	30370.79
564.90	30457.39
565.07	30672.72
565.23	30576.76
565.39	30347.39
565.56	30698.47
565.72	30192.91
565.88	30604.84
566.05	30422.28
566.21	30408.24
566.38	30253.76
566.54	30506.54
566.70	30707.83
566.87	30869.33
567.03	30532.29
567.19	30838.90
567.36	30721.87
567.52	30450.37
567.68	30707.83
567.85	30466.75
568.01	30714.85
568.17	30382.49
568.34	30902.09
568.50	30396.54
568.66	30778.04
568.83	30611.87
568.99	30583.78
569.15	30693.79
569.32	30380.15
569.48	30799.11
569.64	30686.76
569.81	30789.75
569.97	30630.59
570.13	30735.92
570.30	30775.70
570.46	30703.15
570.62	30539.31
570.78	30895.07
570.95	30543.99
571.11	30801.45
571.27	30450.37
571.43	30656.34
571.60	30852.94
571.76	30581.44
571.92	30698.47
572.09	31070.61
572.25	30815.49
572.41	31213.38
572.57	30918.48
572.74	30827.20
572.90	30235.04
573.06	30422.28
573.22	30759.32
573.38	31098.70
573.55	30958.27
573.71	30986.35
573.87	31229.77
574.03	31096.36
574.20	31026.14
574.36	30684.42
574.52	31061.25
574.68	30717.19
574.84	31047.21
575.01	30756.98
575.17	31342.11
575.33	30944.22
575.49	30773.36
575.65	31421.69
575.82	31393.61
575.98	31201.68
576.14	31388.92
576.30	31133.81
576.46	30920.82
576.62	31122.10
576.79	31342.11
576.95	31103.38
577.11	31412.33
577.27	31225.09
577.43	31318.71
577.59	31180.62
577.75	30782.73
577.92	30895.07
578.08	31264.88
578.24	31122.10
578.40	31070.61
578.56	31012.10
578.72	31103.38
578.88	31442.76
579.04	31353.82
579.21	30866.98
579.37	31241.47
579.53	31047.21
579.69	30951.24
579.85	30986.35
580.01	30920.82
580.17	31122.10
580.33	31012.10
580.49	31005.08
580.65	31117.42
580.82	31447.44
580.98	31147.85
581.14	30981.67
581.30	31171.25
581.46	30972.31
581.62	30665.70
581.78	30675.06
581.94	31028.48
582.10	31283.60
582.26	30960.61
582.42	31325.73
582.58	31234.45
582.74	31082.31
582.90	31779.79
583.06	31147.85
583.22	31302.32
583.38	31033.16
583.54	31147.85
583.70	31051.89
583.86	31094.02
584.02	31126.78
584.18	31246.15
584.34	31412.33
584.50	31091.68
584.66	31424.03
584.82	31140.83
584.98	31241.47
585.14	30864.64
585.30	31316.37
585.46	31096.36
585.62	31136.15
585.78	31653.40
585.94	31012.10
586.10	31405.31
586.26	31393.61
586.42	31611.28
586.58	31405.31
586.74	31321.05
586.90	30843.58
587.06	30764.00
587.22	31456.80
587.38	31105.72
587.54	31639.36
587.70	31658.09
587.86	31679.15
588.02	31559.78
588.18	31845.33
588.34	31580.85
588.49	31592.55
588.65	31541.06
588.81	30960.61
588.97	31758.73
589.13	31082.31
589.29	31332.75
589.45	31711.92
589.61	31564.46
589.77	31456.80
589.93	31409.99
590.08	31892.14
590.24	31936.61
590.40	31442.76
590.56	31842.99
590.72	31676.81
590.88	31473.18
591.04	31412.33
591.20	32013.85
591.35	31428.71
591.51	31983.42
591.67	31744.69
591.83	32011.51
591.99	31913.20
592.15	31541.06
592.31	31775.11
592.46	31665.11
592.62	31665.11
592.78	31508.29
592.94	31732.98
593.10	31873.42
593.26	32058.32
593.41	31889.80
593.57	31737.66
593.73	31952.99
593.89	32055.98
594.05	31630.00
594.20	31344.45
594.36	31796.18
594.52	31887.46
594.68	31864.05
594.84	31204.02
594.99	31599.57
595.15	32009.17
595.31	32070.02
595.47	31873.42
595.62	31950.65
595.78	31681.49
595.94	32100.45
596.10	31969.38
596.25	31796.18
596.41	31751.71
596.57	31466.16
596.73	31627.66
596.88	32051.30
597.04	31838.31
597.20	32011.51
597.36	31992.78
597.51	32264.28
597.67	31948.31
597.83	31854.69
597.99	32243.22
598.14	31718.94
598.30	31608.93
598.46	31545.74
598.61	32128.53
598.77	31641.70
598.93	31772.77
599.09	31866.39
599.24	32444.51
599.40	31997.46
599.56	32151.94
599.71	32025.55
599.87	31564.46
600.03	31952.99
600.18	32032.57
600.34	31854.69
600.50	32151.94
600.65	32245.56
600.81	32196.41
600.97	32196.41
601.12	32224.50
601.28	32313.44
601.44	32144.92
601.59	32130.87
601.75	32128.53
601.91	31992.78
602.06	31599.57
602.22	31997.46
602.37	32173.00
602.53	32170.66
602.69	32350.88
602.84	31976.40
603.00	31742.35
603.16	32070.02
603.31	31999.80
603.47	31683.83
603.62	31974.06
603.78	31683.83
603.94	31648.72
604.09	31721.28
604.25	32109.81
604.40	31597.23
604.56	32205.77
604.71	31910.86
604.87	31667.45
605.03	32053.64
605.18	32016.19
605.34	32046.62
605.49	31630.00
605.65	31784.48
605.80	31709.58
605.96	32034.91
606.12	31510.63
606.27	31964.70
606.43	31307.01
606.58	32158.96
606.74	32016.19
606.89	31978.74
607.05	32283.01
607.20	32053.64
607.36	32318.12
607.51	31948.31
607.67	31571.49
607.82	31498.93
607.98	31494.25
608.13	31508.29
608.29	31812.56
608.44	31665.11
608.60	31915.54
608.75	32107.47
608.91	32252.58
609.06	31908.52
609.22	31470.84
609.37	31709.58
609.53	31456.80
609.68	31604.25
609.84	31344.45
609.99	31915.54
610.15	31831.29
610.30	31662.77
610.46	31857.03
610.61	31786.82
610.76	31784.48
610.92	31847.67
611.07	31917.89
611.23	31505.95
611.38	31566.81
611.54	31012.10
611.69	31653.40
611.84	31384.24
612.00	31580.85
612.15	31335.09
612.31	32058.32
612.46	31246.15
612.62	31510.63
612.77	31559.78
612.92	31667.45
613.08	31880.44
613.23	31751.71
613.39	31557.44
613.54	31299.98
613.69	31592.55
613.85	31391.26
614.00	31398.29
614.15	31489.57
614.31	31204.02
614.46	31435.74
614.62	30937.20
614.77	31241.47
614.92	31496.59
615.08	31538.72
615.23	31477.86
615.38	31222.75
615.54	31257.85
615.69	31194.66
615.84	31108.06
616.00	31250.83
616.15	31035.50
616.30	31225.09
616.46	31480.21
616.61	31068.27
616.76	31522.34
616.92	31342.11
617.07	30955.93
617.22	30796.77
617.37	31007.42
617.53	30927.84
617.68	30930.18
617.83	31075.29
617.99	30948.90
618.14	30981.67
618.29	31370.20
618.45	31278.92
618.60	30604.84
618.75	30572.08
618.90	31150.19
619.06	31105.72
619.21	31014.44
619.36	30906.77
619.51	30682.08
619.67	30335.68
619.82	30415.26
619.97	30686.76
620.12	30668.04
620.28	30691.44
620.43	30799.11
620.58	30918.48
620.73	30731.23
620.89	30721.87
621.04	31108.06
621.19	31042.53
621.34	30824.86
621.49	30707.83
621.65	30597.82
621.80	30967.63
621.95	30654.00
622.10	30316.96
622.25	30274.83
622.41	30686.76
622.56	30574.42
622.71	30342.70
622.86	30579.10
623.01	30703.15
623.16	30520.59
623.32	30738.26
623.47	30883.37
623.62	30389.52
623.77	30389.52
623.92	30298.23
624.07	30445.69
624.23	30529.95
624.38	30321.64
624.53	30422.28
624.68	30579.10
624.83	30649.32
624.98	30429.30
625.13	30534.63
625.29	30410.58
625.44	30288.87
625.59	29984.60
625.74	30110.99
625.89	30338.02
626.04	29837.15
626.19	30024.39
626.34	30218.66
626.49	29668.63
626.65	30047.80
626.80	30246.74
626.95	30225.68
627.10	30066.52
627.25	30012.69
627.40	29736.51
627.55	29869.92
627.70	29764.59
627.85	29729.48
628.00	29759.91
628.15	29755.23
628.30	29848.85
628.45	29738.85
628.60	29898.00
628.76	29909.71
628.91	30036.09
629.06	29652.25
629.21	29954.18
629.36	29670.97
629.51	29912.05
629.66	30031.41
629.81	29511.81
629.96	29500.11
630.11	29663.95
630.26	29528.20
630.41	29249.67
630.56	29560.97
630.71	29406.49
630.86	29596.07
631.01	29780.98
631.16	29366.70
631.31	29523.52
631.46	29621.82
631.61	29734.17
631.76	29539.90
631.91	29310.53
632.06	29219.25
632.21	29235.63
632.36	29209.89
632.51	28975.83
632.66	29455.64
632.81	29055.41
632.96	29383.09
633.10	29511.81
633.25	29495.43
633.40	29649.91
633.55	29404.15
633.70	29399.47
633.85	28975.83
634.00	29069.45
634.15	29226.27
634.30	29427.56
634.45	29106.90
634.60	28905.62
634.75	29076.48
634.90	28968.81
635.05	29137.33
635.19	29116.26
635.34	29378.40
635.49	29408.83
635.64	29034.35
635.79	29198.18
635.94	29139.67
636.09	29205.20
636.24	28779.23
636.39	28669.22
636.53	28907.96
636.68	29062.43
636.83	29406.49
636.98	29247.33
637.13	28692.63
637.28	28980.51
637.43	29069.45
637.57	29057.75
637.72	28837.74
637.87	28833.06
638.02	28662.20
638.17	28954.77
638.32	28814.34
638.46	28886.89
638.61	28589.64
638.76	28446.87
638.91	28489.00
639.06	28465.60
639.20	28414.10
639.35	28751.14
639.50	28912.64
639.65	28624.75
639.80	28734.76
639.94	28601.35
640.09	28725.39
640.24	28421.13
640.39	28266.65
640.54	28334.53
640.68	28400.06
640.83	28725.39
640.98	28079.41
641.13	28538.15
641.27	28514.75
641.42	28339.21
641.57	28357.93
641.72	28526.45
641.86	28173.03
642.01	27828.97
642.16	28112.17
642.31	28510.07
642.45	28446.87
642.60	27864.08
642.75	27707.26
642.90	27938.97
643.04	27922.59
643.19	28299.42
643.34	27953.02
643.48	28222.18
643.63	28437.51
643.78	27871.10
643.93	28276.01
644.07	28063.02
644.22	28556.88
644.37	28004.51
644.51	27920.25
644.66	27840.67
644.81	27744.71
644.95	27690.88
645.10	27669.81
645.25	27857.06
645.39	27566.83
645.54	27814.93
645.69	27976.42
645.83	27899.19
645.98	28091.11
646.13	28250.27
646.27	28095.79
646.42	27634.71
646.57	27543.42
646.71	27847.69
646.86	27770.46
647.00	27690.88
647.15	27548.11
647.30	27374.91
647.44	27665.13
647.59	27606.62
647.74	27606.62
647.88	27843.01
648.03	27644.07
648.17	27601.94
648.32	27566.83
648.47	27606.62
648.61	27686.20
648.76	27548.11
648.90	27470.87
649.05	27536.40
649.20	27316.39
649.34	27489.59
649.49	27302.35
649.63	27206.39
649.78	27110.43
649.92	27285.97
650.07	27316.39
650.21	27075.32
650.36	27192.34
650.51	27342.14
650.65	27136.17
650.80	27384.27
650.94	27154.90
651.09	26883.39
651.23	27281.28
651.38	27211.07
651.52	27164.26
651.67	27309.37
651.81	27410.01
651.96	27145.53
652.10	27484.91
652.25	27051.91
652.39	27197.02
652.54	27494.27
652.68	27307.03
652.83	27164.26
652.97	27257.88
653.12	27157.24
653.26	26843.60
653.41	27393.63
653.55	26974.67
653.70	26642.32
653.84	26925.52
653.99	27084.68
654.13	26859.99
654.27	26588.49
654.42	26710.19
654.56	26909.14
654.71	26752.32
654.85	26689.13
655.00	26904.46
655.14	26714.87
655.29	26377.84
655.43	26977.01
655.57	26740.62
655.72	26668.06
655.86	26403.58
656.01	26438.69
656.15	26569.76
656.30	26384.86
656.44	26520.61
656.58	26384.86
656.73	26448.05
656.87	26429.33
657.01	26389.54
657.16	26525.29
657.30	26740.62
657.45	26714.87
657.59	26408.26
657.73	26504.23
657.88	26118.04
658.02	26209.32
658.16	26061.87
658.31	26136.76
658.45	26518.27
658.60	26078.25
658.74	26412.95
658.88	26396.56
659.03	26209.32
659.17	26314.64
659.31	26576.78
659.46	26405.92
659.60	26342.73
659.74	26398.90
659.89	26111.02
660.03	26106.34
660.17	26129.74
660.32	25603.12
660.46	25886.32
660.60	25589.08
660.74	25783.34
660.89	25839.51
661.03	25184.16
661.17	25607.80
661.32	25483.75
661.46	25818.45
661.60	25921.43
661.74	25790.36
661.89	25928.45
662.03	25591.42
662.17	25500.14
662.31	25575.03
662.46	25582.06
662.60	25387.79
662.74	25350.34
662.88	25235.66
663.03	25104.59
663.17	25268.42
663.31	24835.42
663.45	24741.80
663.60	25207.57
663.74	25184.16
663.88	25357.36
664.02	24879.89
664.17	25029.69
664.31	24950.11
664.45	24563.92
664.59	24821.38
664.73	25226.29
664.88	24992.24
665.02	24690.31
665.16	24662.22
665.30	24671.59
665.44	24957.13
665.59	24421.15
665.73	24379.02
665.87	24577.97
666.01	24631.80
666.15	24753.51
666.29	24786.27
666.44	24790.95
666.58	24535.84
666.72	24606.05
666.86	24524.13
667.00	24702.01
667.14	24311.14
667.28	24175.39
667.43	24254.97
667.57	24376.68
667.71	23800.91
667.85	24095.82
667.99	24252.63
668.13	23889.85
668.27	23805.59
668.41	24175.39
668.56	23922.62
668.70	24065.39
668.84	24236.25
668.98	23777.50
669.12	24123.90
669.26	23796.23
669.40	23922.62
669.54	23660.48
669.68	23786.86
669.82	23211.09
669.96	23681.54
670.10	23513.02
670.25	23831.33
670.39	23578.56
670.53	23428.76
670.67	23143.22
670.81	23461.53
670.95	23332.80
671.09	23400.68
671.23	23414.72
671.37	23424.08
671.51	23183.01
671.65	23548.13
671.79	23508.34
671.93	23133.86
672.07	23014.49
672.21	23594.94
672.35	23204.07
672.49	22977.04
672.63	22787.46
672.77	22965.34
672.91	22607.23
673.05	22532.34
673.19	22632.98
673.33	22714.90
673.47	22796.82
673.61	22855.33
673.75	22616.60
673.89	22593.19
674.03	22506.59
674.17	22609.58
674.31	22373.18
674.45	22780.43
674.59	22073.59
674.73	22445.74
674.87	22340.41
675.01	22455.10
675.15	22223.39
675.29	22054.87
675.43	21809.11
675.56	22260.84
675.70	22101.68
675.84	21914.44
675.98	21462.71
676.12	21881.67
676.26	21685.06
676.40	21497.82
676.54	21874.65
676.68	21837.20
676.82	21310.58
676.96	21771.66
677.10	21600.80
677.23	21128.02
677.37	20833.11
677.51	21242.70
677.65	21022.69
677.79	21034.39
677.93	21231.00
678.07	21319.94
678.21	20884.60
678.34	20821.41
678.48	20830.77
678.62	20788.64
678.76	20573.31
678.90	20666.93
679.04	20779.28
679.18	20695.02
679.31	20388.41
679.45	20315.85
679.59	20229.25
679.73	20093.50
679.87	20313.51
680.00	20119.24
680.14	19784.55
680.28	19917.96
680.42	19932.00
680.56	19917.96
680.70	20187.12
680.83	19899.23
680.97	19882.85
681.11	19852.42
681.25	19557.52
681.39	19772.85
681.52	19580.92
681.66	19417.08
681.80	18977.06
681.94	19761.14
682.07	19421.77
682.21	19293.04
682.35	19262.61
682.49	19044.94
682.62	18979.40
682.76	19101.11
682.90	19351.55
683.04	19208.78
683.17	18726.63
683.31	19023.87
683.45	18899.83
683.59	18806.20
683.72	18438.74
683.86	18714.92
684.00	18511.30
684.13	18855.36
684.27	18291.29
684.41	18443.42
684.55	18361.50
684.68	18066.60
684.82	18331.08
684.96	17951.91
685.09	18171.92
685.23	17949.57
685.37	18015.10
685.50	18026.81
685.64	18164.90
685.78	18272.56
685.91	17975.31
686.05	17888.71
686.19	17525.93
686.32	17743.60
686.46	17348.05
686.60	17556.36
686.73	17605.51
686.87	17376.14
687.01	17369.12
687.14	17151.45
687.28	16870.58
687.42	16966.54
687.55	16978.25
687.69	17025.06
687.82	17081.23
687.96	16893.99
688.10	16769.94
688.23	16861.22
688.37	16800.37
688.50	16865.90
688.64	16879.94
688.78	16475.03
688.91	16224.59
689.05	16512.48
689.18	16430.56
689.32	16163.74
689.46	16240.98
689.59	16262.04
689.73	16276.09
689.86	16002.24
690.00	16175.44
690.13	16273.74
690.27	16023.31
690.41	15964.79
690.54	15981.18
690.68	15868.83
690.81	15726.06
690.95	16009.26
691.08	16067.78
691.22	15901.60
691.35	15564.56
691.49	15807.98
691.62	15454.56
691.76	15545.84
691.89	15407.75
692.03	15150.29
692.16	15005.17
692.30	15176.03
692.43	15176.03
692.57	14766.44
692.70	14958.36
692.84	14897.51
692.97	14719.63
693.11	15014.54
693.24	14759.42
693.38	14583.88
693.51	14822.61
693.65	14530.05
693.78	14499.62
693.92	14492.60
694.05	14480.89
694.19	14609.62
694.32	14455.15
694.45	14438.76
694.59	14169.60
694.72	13994.06
694.86	14118.11
694.99	13884.06
695.13	13949.59
695.26	13963.64
695.39	13584.47
695.53	14005.77
695.66	13848.95
695.80	13799.80
695.93	13668.73
696.07	13586.81
696.20	13778.73
696.33	13724.90
696.47	13516.59
696.60	13481.49
696.73	13441.70
696.87	13565.74
697.00	13294.24
697.14	12975.93
697.27	13116.36
697.40	13273.18
697.54	12980.61
697.67	12809.75
697.80	12943.16
697.94	12692.73
698.07	12774.64
698.21	12765.28
698.34	12952.52
698.47	12844.86
698.61	12882.31
698.74	12821.45
698.87	12767.62
699.01	12535.91
699.14	12294.83
699.27	12325.26
699.40	12578.04
699.54	12554.63
699.67	12353.35
699.80	12439.95
699.94	12236.32
700.07	12051.42
700.20	11887.58
700.34	11733.11
700.47	11719.06
700.60	11927.37
700.73	11875.88
700.87	11812.68
701.00	11793.96
701.13	11679.27
701.26	11857.15
701.40	11709.70
701.53	11632.46
701.66	11641.82
701.79	11477.99
701.93	11590.33
702.06	11311.81
702.19	11311.81
702.32	11356.28
702.46	11187.76
702.59	11037.97
702.72	11194.78
702.85	11080.10
702.99	11101.16
703.12	10920.94
703.25	10801.57
703.38	10970.09
703.51	10951.37
703.65	10986.47
703.78	10808.59
703.91	10754.76
704.04	10771.15
704.17	10663.48
704.31	10635.39
704.44	10583.90
704.57	10576.88
704.70	10237.50
704.83	10303.04
704.96	10253.89
705.10	10200.05
705.23	10237.50
>>>>>End Processed Spectral Data<<<<<
