SpectraSuite Data File
++++++++++++++++++++++++++++++++++++
Date: Fri Oct 18 13:58:34 GMT-05:00 2013
User: bianchi
Dark Spectrum Present: No
Reference Spectrum Present: No
Number of Sampled Component Spectra: 1
Spectrometers: USB2+H05261
Integration Time (usec): 50000 (USB2+H05261)
Spectra Averaged: 1 (USB2+H05261)
Boxcar Smoothing: 0 (USB2+H05261)
Correct for Electrical Dark: No (USB2+H05261)
Strobe/Lamp Enabled: No (USB2+H05261)
Correct for Detector Non-linearity: No (USB2+H05261)
Correct for Stray Light: No (USB2+H05261)
Number of Pixels in Processed Spectrum: 2048
>>>>>Begin Processed Spectral Data<<<<<
365.73	0.00
365.92	0.00
366.12	0.00
366.32	0.00
366.52	0.00
366.72	0.00
366.91	0.00
367.11	0.00
367.31	0.00
367.51	0.00
367.70	0.00
367.90	0.00
368.10	0.00
368.30	0.00
368.49	0.00
368.69	0.00
368.89	0.00
369.09	0.00
369.28	0.00
369.48	0.00
369.68	0.00
369.87	0.00
370.07	0.00
370.27	0.00
370.47	0.00
370.66	98.30
370.86	86.60
371.06	161.50
371.25	152.13
371.45	117.03
371.65	177.88
371.84	107.66
372.04	121.71
372.24	177.88
372.44	210.65
372.63	133.41
372.83	217.67
373.03	189.58
373.22	149.79
373.42	243.42
373.62	243.42
373.81	220.01
374.01	231.71
374.21	212.99
374.40	241.08
374.60	280.86
374.79	252.78
374.99	205.97
375.19	234.05
375.38	276.18
375.58	290.23
375.78	203.63
375.97	264.48
376.17	264.48
376.37	243.42
376.56	344.06
376.76	266.82
376.95	243.42
377.15	311.29
377.35	257.46
377.54	241.08
377.74	250.44
377.93	271.50
378.13	241.08
378.33	234.05
378.52	278.52
378.72	308.95
378.91	322.99
379.11	332.36
379.31	245.76
379.50	313.63
379.70	369.80
379.89	287.89
380.09	294.91
380.28	231.71
380.48	285.55
380.68	313.63
380.87	313.63
381.07	304.27
381.26	411.93
381.46	301.93
381.65	381.51
381.85	266.82
382.04	280.86
382.24	423.64
382.43	315.97
382.63	353.42
382.83	306.61
383.02	306.61
383.22	301.93
383.41	318.31
383.61	341.72
383.80	351.08
384.00	346.40
384.19	344.06
384.39	383.85
384.58	308.95
384.78	386.19
384.97	386.19
385.17	409.59
385.36	332.36
385.56	351.08
385.75	397.89
385.95	400.23
386.14	400.23
386.34	376.83
386.53	402.57
386.72	351.08
386.92	409.59
387.11	400.23
387.31	393.21
387.50	383.85
387.70	407.25
387.89	444.70
388.09	444.70
388.28	430.66
388.48	414.27
388.67	447.04
388.86	454.06
389.06	470.45
389.25	470.45
389.45	477.47
389.64	414.27
389.84	507.90
390.03	547.69
390.22	451.72
390.42	526.62
390.61	528.96
390.81	484.49
391.00	486.83
391.19	552.37
391.39	521.94
391.58	475.13
391.78	514.92
391.97	489.17
392.16	463.43
392.36	559.39
392.55	521.94
392.75	475.13
392.94	561.73
393.13	543.00
393.33	482.15
393.52	484.49
393.71	580.45
393.91	559.39
394.10	599.18
394.29	645.99
394.49	564.07
394.68	566.41
394.88	601.52
395.07	608.54
395.26	559.39
395.46	564.07
395.65	627.26
395.84	599.18
396.04	702.16
396.23	641.31
396.42	681.10
396.62	617.90
396.81	634.29
397.00	615.56
397.19	585.13
397.39	653.01
397.58	688.12
397.77	786.42
397.97	711.52
398.16	709.18
398.35	704.50
398.55	636.63
398.74	718.54
398.93	685.78
399.12	655.35
399.32	692.80
399.51	809.83
399.70	737.27
399.90	648.33
400.09	744.29
400.28	781.74
400.47	734.93
400.67	760.67
400.86	814.51
401.05	795.78
401.24	734.93
401.44	760.67
401.63	746.63
401.82	800.46
402.01	844.93
402.21	898.77
402.40	795.78
402.59	798.12
402.78	770.04
402.97	835.57
403.17	866.00
403.36	823.87
403.55	828.55
403.74	828.55
403.93	875.36
404.13	861.32
404.32	933.87
404.51	891.74
404.70	919.83
404.89	842.59
405.09	924.51
405.28	957.28
405.47	926.85
405.66	976.00
405.85	919.83
406.05	1034.52
406.24	1041.54
406.43	990.05
406.62	1011.11
406.81	1008.77
407.00	1020.47
407.20	954.94
407.39	985.37
407.58	1015.79
407.77	1076.65
407.96	1029.84
408.15	1163.25
408.34	1050.90
408.54	1123.46
408.73	1088.35
408.92	1074.31
409.11	1081.33
409.30	1203.04
409.49	1156.22
409.68	1172.61
409.87	1191.33
410.07	1102.39
410.26	1142.18
410.45	1151.54
410.64	1226.44
410.83	1214.74
411.02	1224.10
411.21	1203.04
411.40	1280.27
411.59	1322.40
411.78	1256.87
411.98	1235.80
412.17	1214.74
412.36	1317.72
412.55	1327.08
412.74	1345.81
412.93	1401.98
413.12	1397.30
413.31	1369.21
413.50	1420.71
413.69	1376.24
413.88	1416.02
414.07	1343.47
414.26	1476.88
414.45	1394.96
414.64	1462.83
414.83	1462.83
415.02	1476.88
415.22	1528.37
415.41	1544.75
415.60	1537.73
415.79	1547.09
415.98	1619.65
416.17	1647.74
416.36	1591.56
416.55	1575.18
416.74	1652.42
416.93	1490.92
417.12	1741.36
417.31	1708.59
417.50	1666.46
417.69	1753.06
417.88	1696.89
418.07	1710.93
418.26	1764.76
418.45	1715.61
418.64	1891.15
418.83	1783.49
419.02	1710.93
419.21	1802.21
419.39	1837.32
419.58	1802.21
419.77	1842.00
419.96	1816.26
420.15	1872.43
420.34	1809.23
420.53	1907.54
420.72	1919.24
420.91	1935.62
421.10	1846.68
421.29	1895.83
421.48	1884.13
421.67	1989.46
421.86	1947.33
422.05	1998.82
422.24	2043.29
422.43	1916.90
422.61	2047.97
422.80	2010.52
422.99	2069.03
423.18	2005.84
423.37	1970.73
423.56	2078.40
423.75	2029.24
423.94	2031.58
424.13	1872.43
424.32	1933.28
424.50	2038.61
424.69	2052.65
424.88	2073.71
425.07	1980.09
425.26	1930.94
425.45	2083.08
425.64	2001.16
425.83	2148.61
426.01	1994.14
426.20	2092.44
426.39	2134.57
426.58	1975.41
426.77	2054.99
426.96	2172.02
427.15	2062.01
427.33	2160.31
427.52	2005.84
427.71	2113.50
427.90	2092.44
428.09	2160.31
428.28	2188.40
428.46	2141.59
428.65	2134.57
428.84	2176.70
429.03	2239.89
429.22	2181.38
429.40	2186.06
429.59	2312.45
429.78	2097.12
429.97	2118.18
430.16	2289.04
430.34	2282.02
430.53	2296.07
430.72	2298.41
430.91	2370.96
431.10	2242.23
431.28	2296.07
431.47	2356.92
431.66	2396.71
431.85	2225.85
432.03	2464.58
432.22	2450.54
432.41	2466.92
432.60	2560.55
432.79	2420.11
432.97	2392.03
433.16	2539.48
433.35	2380.32
433.54	2546.50
433.72	2548.84
433.91	2485.65
434.10	2363.94
434.28	2562.89
434.47	2551.18
434.66	2452.88
434.85	2506.71
435.03	2605.02
435.22	2499.69
435.41	2722.04
435.59	2605.02
435.78	2485.65
435.97	2651.83
436.16	2616.72
436.34	2628.42
436.53	2750.13
436.72	2818.00
436.90	2588.63
437.09	2792.26
437.28	2630.76
437.46	2836.73
437.65	2733.75
437.84	2696.30
438.02	2782.90
438.21	2736.09
438.40	2621.40
438.58	2806.30
438.77	2808.64
438.96	2848.43
439.14	2984.18
439.33	2867.16
439.52	2913.97
439.70	2857.79
439.89	3075.46
440.08	3075.46
440.26	3094.19
440.45	3030.99
440.63	2984.18
440.82	3164.40
441.01	3180.79
441.19	3061.42
441.38	3141.00
441.57	3162.06
441.75	3262.71
441.94	3229.94
442.12	3255.69
442.31	3309.52
442.50	3258.03
442.68	3258.03
442.87	3302.50
443.05	3316.54
443.24	3353.99
443.43	3248.66
443.61	3456.97
443.80	3473.36
443.98	3384.41
444.17	3133.98
444.35	3424.20
444.54	3438.25
444.73	3398.46
444.91	3311.86
445.10	3344.63
445.28	3412.50
445.47	3431.23
445.65	3405.48
445.84	3503.78
446.02	3400.80
446.21	3503.78
446.39	3290.79
446.58	3524.85
446.77	3494.42
446.95	3391.44
447.14	3489.74
447.32	3424.20
447.51	3452.29
447.69	3501.44
447.88	3576.34
448.06	3431.23
448.25	3517.83
448.43	3543.57
448.62	3569.32
448.80	3410.16
448.99	3611.45
449.17	3559.95
449.36	3641.87
449.54	3534.21
449.73	3681.66
449.91	3676.98
450.10	3749.54
450.28	3595.06
450.46	3620.81
450.65	3782.31
450.83	3700.39
451.02	3571.66
451.20	3693.37
451.39	3669.96
451.57	3857.20
451.76	3775.28
451.94	3794.01
452.13	3906.35
452.31	3920.40
452.49	3721.45
452.68	3714.43
452.86	3667.62
453.05	3911.04
453.23	3901.67
453.42	3878.27
453.60	3772.94
453.78	3775.28
453.97	3880.61
454.15	4023.38
454.34	3803.37
454.52	4004.66
454.70	4124.02
454.89	4018.70
455.07	4074.87
455.26	4058.49
455.44	4149.77
455.62	4049.13
455.81	4100.62
455.99	4067.85
456.17	4182.54
456.36	4133.39
456.54	4140.41
456.73	4135.73
456.91	4215.30
457.09	4180.20
457.28	4311.27
457.46	4182.54
457.64	4304.25
457.83	4322.97
458.01	4273.82
458.19	4456.38
458.38	4257.43
458.56	4472.76
458.74	4418.93
458.93	4404.89
459.11	4547.66
459.29	4365.10
459.48	4428.29
459.66	4311.27
459.84	4362.76
460.03	4610.86
460.21	4517.23
460.39	4664.69
460.57	4606.17
460.76	4582.77
460.94	4702.14
461.12	4564.04
461.31	4615.54
461.49	4524.26
461.67	4524.26
461.85	4767.67
462.04	4620.22
462.22	4667.03
462.40	4802.78
462.59	4856.61
462.77	4844.91
462.95	4739.58
463.13	4690.43
463.32	4828.53
463.50	4828.53
463.68	4936.19
463.86	4723.20
464.05	4638.94
464.23	4800.44
464.41	4905.76
464.59	4753.63
464.78	4978.32
464.96	4887.04
465.14	4805.12
465.32	4858.95
465.50	4938.53
465.69	4882.36
465.87	4968.96
466.05	5018.11
466.23	4929.17
466.41	5041.51
466.60	5109.39
466.78	4929.17
466.96	4917.47
467.14	5123.43
467.32	4968.96
467.51	5132.79
467.69	5048.54
467.87	4994.70
468.05	5083.64
468.23	5048.54
468.41	5057.90
468.60	5006.41
468.78	5193.65
468.96	5205.35
469.14	5242.80
469.32	5167.90
469.50	5200.67
469.69	5296.63
469.87	5373.87
470.05	5191.31
470.23	5303.65
470.41	5481.53
470.59	5376.21
470.77	5390.25
470.95	5446.43
471.14	5558.77
471.32	5383.23
471.50	5507.28
471.68	5518.98
471.86	5612.60
472.04	5610.26
472.22	5575.16
472.40	5607.92
472.58	5664.10
472.77	5706.23
472.95	5809.21
473.13	5935.60
473.31	5703.89
473.49	5762.40
473.67	5729.63
473.85	5778.78
474.03	5987.09
474.21	6019.86
474.39	5973.05
474.57	5980.07
474.75	6136.88
474.93	6249.23
475.12	5973.05
475.30	6136.88
475.48	6115.82
475.66	6054.97
475.84	6188.38
476.02	6244.55
476.20	6253.91
476.38	6354.55
476.56	6502.01
476.74	6483.28
476.92	6424.77
477.10	6548.82
477.28	6497.33
477.46	6375.62
477.64	6616.69
477.82	6794.58
478.00	6899.90
478.18	6712.66
478.36	6883.52
478.54	7002.88
478.72	6988.84
478.90	6956.07
479.08	7084.80
479.26	7281.41
479.44	7227.57
479.62	7286.09
479.80	7363.33
479.98	7396.09
480.16	7543.55
480.34	7503.76
480.52	7482.69
480.70	7693.34
480.88	7658.23
481.06	7742.49
481.24	7613.76
481.41	8030.38
481.59	7866.54
481.77	7932.08
481.95	7967.18
482.13	8056.12
482.31	8065.49
482.49	8131.02
482.67	8116.98
482.85	8102.93
483.03	8437.63
483.21	8465.72
483.39	8786.37
483.57	8465.72
483.74	8765.31
483.92	8617.85
484.10	8704.45
484.28	8891.70
484.46	9083.62
484.64	9146.81
484.82	8936.17
485.00	9095.32
485.18	9343.42
485.35	9287.25
485.53	9186.60
485.71	9242.78
485.89	9441.72
486.07	9380.87
486.25	9418.32
486.43	9453.42
486.61	9771.74
486.78	9722.59
486.96	9879.40
487.14	10071.33
487.32	9902.81
487.50	10127.50
487.68	10108.77
487.85	10314.74
488.03	10445.81
488.21	10429.43
488.39	10518.37
488.57	10520.71
488.75	10576.88
488.92	10707.95
489.10	10672.84
489.28	10871.79
489.46	10977.11
489.64	11098.82
489.81	11122.23
489.99	11173.72
490.17	11321.17
490.35	11630.12
490.53	11440.54
490.70	11592.67
490.88	11733.11
491.06	11789.28
491.24	11758.85
491.41	11836.09
491.59	11878.22
491.77	11920.35
491.95	12009.29
492.13	11997.59
492.30	12098.23
492.48	12140.36
492.66	12093.55
492.84	12245.68
493.01	12470.37
493.19	12709.11
493.37	12491.44
493.54	12606.13
493.72	12699.75
493.90	12652.94
494.08	12980.61
494.25	13055.51
494.43	13055.51
494.61	13099.98
494.79	13219.35
494.96	13310.63
495.14	13111.68
495.32	13256.79
495.49	13547.02
495.67	13659.37
495.85	13565.74
496.02	13797.46
496.20	13621.92
496.38	14001.08
496.55	13804.48
496.73	14127.47
496.91	14029.17
497.09	14485.58
497.26	14188.33
497.44	14193.01
497.62	14319.40
497.79	14270.25
497.97	14413.02
498.14	14616.65
498.32	14733.67
498.50	14787.50
498.67	14789.85
498.85	14792.19
499.03	14895.17
499.20	14925.60
499.38	15255.61
499.56	15000.49
499.73	15264.97
499.91	15150.29
500.08	15290.72
500.26	15246.25
500.44	15356.25
500.61	15267.31
500.79	15243.91
500.97	15461.58
501.14	15866.49
501.32	15683.93
501.49	15686.27
501.67	15707.34
501.84	15894.58
502.02	15803.30
502.20	15868.83
502.37	15948.41
502.55	15981.18
502.72	16114.59
502.90	16077.14
503.07	16301.83
503.25	16219.91
503.43	16262.04
503.60	16280.77
503.78	16416.52
503.95	16350.98
504.13	16423.54
504.30	16669.30
504.48	16664.61
504.65	16622.48
504.83	16713.77
505.01	16938.46
505.18	16996.97
505.36	16898.67
505.53	17018.04
505.71	16517.16
505.88	16870.58
506.06	16884.62
506.23	17172.51
506.41	17418.27
506.58	17214.64
506.76	17502.53
506.93	17261.45
507.11	17362.09
507.28	17525.93
507.46	17516.57
507.63	17631.26
507.81	17701.47
507.98	17488.48
508.16	17558.70
508.33	17572.74
508.50	17757.64
508.68	17640.62
508.85	18272.56
509.03	18120.43
509.20	18094.68
509.38	18246.82
509.55	18164.90
509.73	18459.81
509.90	18122.77
510.08	18143.83
510.25	18429.38
510.42	18104.04
510.60	18352.14
510.77	18665.77
510.95	18532.36
511.12	18295.97
511.30	18494.91
511.47	18871.74
511.64	18951.32
511.82	18902.17
511.99	18644.71
512.17	18906.85
512.34	18618.96
512.51	19171.33
512.69	18977.06
512.86	18855.36
513.04	19232.18
513.21	19316.44
513.38	19166.65
513.56	19466.24
513.73	19187.71
513.90	19374.95
514.08	19400.70
514.25	19239.20
514.43	19431.13
514.60	19861.79
514.77	19690.93
514.95	20081.80
515.12	19613.69
515.29	19719.01
515.47	19716.67
515.64	19995.20
515.81	20240.95
515.99	19822.00
516.16	20053.71
516.33	20259.68
516.51	20177.76
516.68	20201.16
516.85	19852.42
517.03	20137.97
517.20	19990.52
517.37	20304.15
517.54	20535.86
517.72	20535.86
517.89	20692.68
518.06	20341.60
518.24	20409.47
518.41	20517.14
518.58	20807.36
518.75	20397.77
518.93	20713.74
519.10	20978.22
519.27	21120.99
519.45	20819.07
519.62	20870.56
519.79	20826.09
519.96	20833.11
520.14	21226.32
520.31	21041.42
520.48	21296.53
520.65	21336.32
520.83	21172.49
521.00	20950.14
521.17	21149.08
521.34	21406.54
521.52	21362.07
521.69	21888.69
521.86	21788.05
522.03	21596.12
522.20	21689.74
522.38	21649.96
522.55	21521.23
522.72	21275.47
522.89	21626.55
523.07	21869.97
523.24	22087.64
523.41	22127.42
523.58	21902.73
523.75	22125.08
523.92	21867.63
524.10	21942.52
524.27	22185.94
524.44	22349.78
524.61	22258.49
524.78	22249.13
524.96	22443.40
525.13	22302.96
525.30	22237.43
525.47	22410.63
525.64	22487.87
525.81	22567.45
525.98	22735.96
526.16	22429.35
526.33	22537.02
526.50	22941.93
526.67	22508.93
526.84	22492.55
527.01	22558.08
527.18	22806.18
527.36	22852.99
527.53	22883.42
527.70	23021.51
527.87	22958.31
528.04	22803.84
528.21	22988.74
528.38	22911.50
528.55	22927.89
528.72	23194.71
528.89	23339.82
529.07	23119.81
529.24	23091.73
529.41	23407.70
529.58	23030.87
529.75	23311.74
529.92	23285.99
530.09	23007.47
530.26	23613.66
530.43	23562.17
530.60	23103.43
530.77	23187.69
530.94	23679.20
531.11	23115.13
531.28	23571.54
531.46	23611.32
531.63	23843.04
531.80	23917.93
531.97	23845.38
532.14	23913.25
532.31	23538.77
532.48	24039.64
532.65	24489.03
532.82	23852.40
532.99	23960.06
533.16	24013.90
533.33	24063.05
533.50	24615.41
533.67	24430.51
533.84	23840.70
534.01	24046.66
534.18	23882.83
534.35	24252.63
534.52	24758.19
534.69	24561.58
534.86	24606.05
535.03	24423.49
535.20	24666.91
535.37	24694.99
535.54	24577.97
535.71	24362.64
535.88	24641.16
536.05	24364.98
536.22	24893.94
536.38	24936.07
536.55	24795.64
536.72	24961.81
536.89	24601.37
537.06	24538.18
537.23	24479.66
537.40	24938.41
537.57	24830.74
537.74	24985.22
537.91	25240.34
538.08	24769.89
538.25	24868.19
538.42	25127.99
538.59	24999.26
538.75	24891.60
538.92	25322.26
539.09	24842.45
539.26	25238.00
539.43	25111.61
539.60	24917.34
539.77	25408.86
539.94	25291.83
540.11	25287.15
540.28	25476.73
540.44	25352.68
540.61	25476.73
540.78	25378.43
540.95	25575.03
541.12	25429.92
541.29	25689.72
541.46	25483.75
541.62	25277.79
541.79	25546.95
541.96	25530.56
542.13	25455.67
542.30	25671.00
542.47	25656.95
542.63	25862.92
542.80	25743.55
542.97	26263.15
543.14	26272.51
543.31	26064.21
543.48	26284.22
543.64	26295.92
543.81	26398.90
543.98	26408.26
544.15	26398.90
544.32	26553.38
544.48	26040.80
544.65	26036.12
544.82	26485.50
544.99	25963.56
545.16	26059.52
545.32	26450.39
545.49	26356.77
545.66	26424.65
545.83	26700.83
546.00	26494.86
546.16	26487.84
546.33	26494.86
546.50	26415.29
546.67	26714.87
546.83	25909.73
547.00	26775.73
547.17	26387.20
547.34	26501.89
547.50	27005.10
547.67	26991.06
547.84	26536.99
548.00	26766.37
548.17	27150.21
548.34	27171.28
548.51	27061.27
548.67	26806.16
548.84	27119.79
549.01	27232.13
549.18	27124.47
549.34	27021.48
549.51	26913.82
549.68	26955.95
549.84	26813.18
550.01	26972.33
550.18	27122.13
550.34	27075.32
550.51	27377.25
550.68	27168.94
550.84	27009.78
551.01	27414.69
551.18	27042.55
551.34	27105.74
551.51	27288.31
551.68	26906.80
551.84	27606.62
552.01	27770.46
552.18	27660.45
552.34	27744.71
552.51	27433.42
552.68	27384.27
552.84	27725.99
553.01	27513.00
553.18	27318.73
553.34	27772.80
553.51	27742.37
553.67	27470.87
553.84	27779.82
554.01	27782.16
554.17	27749.39
554.34	27742.37
554.51	27641.73
554.67	27915.57
554.84	27463.85
555.00	27161.92
555.17	27789.18
555.33	27997.49
555.50	27761.09
555.67	27751.73
555.83	27866.42
556.00	27880.46
556.16	28149.62
556.33	28149.62
556.50	27962.38
556.66	27995.15
556.83	28016.21
556.99	28320.48
557.16	28276.01
557.32	28430.49
557.49	28105.15
557.65	27850.03
557.82	27992.81
557.98	27983.44
558.15	27845.35
558.32	28247.93
558.48	27978.76
558.65	28470.28
558.81	28271.33
558.98	28521.77
559.14	28032.60
559.31	27967.06
559.47	28306.44
559.64	28163.67
559.80	28603.69
559.97	28290.06
560.13	28521.77
560.30	28142.60
560.46	28634.11
560.63	28484.32
560.79	28599.01
560.96	28514.75
561.12	28451.55
561.29	28556.88
561.45	28533.47
561.61	28790.93
561.78	28634.11
561.94	28755.82
562.11	28596.67
562.27	28664.54
562.44	28687.95
562.60	28428.15
562.77	28797.95
562.93	28580.28
563.10	29160.73
563.26	28893.91
563.42	29149.03
563.59	28973.49
563.75	28570.92
563.92	28755.82
564.08	28418.78
564.24	28767.52
564.41	28383.68
564.57	29102.22
564.74	29179.46
564.90	28809.65
565.07	28631.77
565.23	28786.25
565.39	28865.83
565.56	29078.82
565.72	28720.71
565.88	28772.21
566.05	28891.57
566.21	28994.56
566.38	28943.06
566.54	28758.16
566.70	28748.80
566.87	29366.70
567.03	28973.49
567.19	29427.56
567.36	28933.70
567.52	28755.82
567.68	28936.04
567.85	28889.23
568.01	28676.24
568.17	28683.27
568.34	29280.10
568.50	28858.81
568.66	28975.83
568.83	29289.46
568.99	29352.66
569.15	28835.40
569.32	28926.68
569.48	28884.55
569.64	29575.01
569.81	29067.11
569.97	29275.42
570.13	28762.84
570.30	29099.88
570.46	29387.77
570.62	29081.16
570.78	28931.36
570.95	29151.37
571.11	29153.71
571.27	28828.38
571.43	28905.62
571.60	29266.06
571.76	29102.22
571.92	29256.70
572.09	29481.39
572.25	29614.80
572.41	29207.55
572.57	29275.42
572.74	29092.86
572.90	29095.20
573.06	29060.09
573.22	29434.58
573.38	29333.93
573.55	29359.68
573.71	29411.17
573.87	29535.22
574.03	29443.94
574.20	29275.42
574.36	29223.93
574.52	29420.53
574.68	28996.90
574.84	29270.74
575.01	29102.22
575.17	29612.46
575.33	29296.49
575.49	29298.83
575.65	29591.39
575.82	29369.04
575.98	29027.32
576.14	29457.98
576.30	29336.27
576.46	29244.99
576.62	28957.11
576.79	29237.97
576.95	29462.66
577.11	29401.81
577.27	29394.79
577.43	29612.46
577.59	29488.41
577.75	29399.47
577.92	29308.19
578.08	29476.71
578.24	29263.72
578.40	29708.42
578.56	29486.07
578.72	29560.97
578.88	29804.38
579.04	29724.80
579.21	29710.76
579.37	29972.90
579.53	29535.22
579.69	29738.85
579.85	29584.37
580.01	29343.30
580.17	29109.24
580.33	29184.14
580.49	29149.03
580.65	29706.08
580.82	29511.81
580.98	29415.85
581.14	29546.92
581.30	29792.68
581.46	29469.69
581.62	29504.79
581.78	29364.36
581.94	30005.67
582.10	29001.58
582.26	29436.92
582.42	29560.97
582.58	29549.26
582.74	29811.40
582.90	29544.58
583.06	29490.75
583.22	29516.50
583.38	29390.11
583.54	29158.39
583.70	29748.21
583.86	29582.03
584.02	29544.58
584.18	29778.64
584.34	29745.87
584.50	29965.88
584.66	29546.92
584.82	29326.91
584.98	29954.18
585.14	29879.28
585.30	29308.19
585.46	29523.52
585.62	29486.07
585.78	30108.65
585.94	29591.39
586.10	29486.07
586.26	29851.19
586.42	29666.29
586.58	30038.44
586.74	29797.36
586.90	29490.75
587.06	29577.35
587.22	29486.07
587.38	29647.57
587.54	29947.15
587.70	30139.08
587.86	29663.95
588.02	29795.02
588.18	29649.91
588.34	29776.30
588.49	29535.22
588.65	29656.93
588.81	29701.40
588.97	30026.73
589.13	29525.86
589.29	30043.12
589.45	29827.79
589.61	29993.97
589.77	30118.01
589.93	29799.70
590.08	29998.65
590.24	29963.54
590.40	30204.61
590.56	29715.44
590.72	30110.99
590.88	29680.33
591.04	29797.36
591.20	30157.80
591.35	29832.47
591.51	30239.72
591.67	30281.85
591.83	30040.78
591.99	30120.35
592.15	29993.97
592.31	30103.97
592.46	29743.53
592.62	29883.96
592.78	29825.45
592.94	29968.22
593.10	29696.72
593.26	30213.98
593.41	30607.19
593.57	29830.13
593.73	29837.15
593.89	29895.66
594.05	30206.95
594.20	30106.31
594.36	30029.07
594.52	29940.13
594.68	29661.61
594.84	29958.86
594.99	29965.88
595.15	30230.36
595.31	30228.02
595.47	30319.30
595.62	30195.25
595.78	30143.76
595.94	30033.75
596.10	30340.36
596.25	29699.06
596.41	30068.86
596.57	29820.77
596.73	30015.03
596.88	30169.51
597.04	30167.16
597.20	30415.26
597.36	30270.15
597.51	30099.29
597.67	29993.97
597.83	30012.69
597.99	29993.97
598.14	30469.09
598.30	29888.64
598.46	29902.68
598.61	30661.02
598.77	29734.17
598.93	30347.39
599.09	30602.50
599.24	30164.82
599.40	30724.21
599.56	30113.33
599.71	30164.82
599.87	30293.55
600.03	30218.66
600.18	30000.99
600.34	30295.89
600.50	29755.23
600.65	30473.78
600.81	30134.40
600.97	30279.51
601.12	30057.16
601.28	30637.61
601.44	30394.20
601.59	30118.01
601.75	30174.19
601.91	30314.62
602.06	30103.97
602.22	29998.65
602.37	30118.01
602.53	30181.21
602.69	30497.18
602.84	30274.83
603.00	30251.42
603.16	29972.90
603.31	30476.12
603.47	30211.64
603.62	30281.85
603.78	30110.99
603.94	29958.86
604.09	30211.64
604.25	30136.74
604.40	30087.59
604.56	30237.38
604.71	30211.64
604.87	30260.79
605.03	30553.35
605.18	29986.94
605.34	30188.23
605.49	29930.77
605.65	30071.20
605.80	30003.33
605.96	29949.50
606.12	30024.39
606.27	30192.91
606.43	30068.86
606.58	30267.81
606.74	30291.21
606.89	30338.02
607.05	30228.02
607.20	30345.05
607.36	30506.54
607.51	30181.21
607.67	29736.51
607.82	29989.28
607.98	29596.07
608.13	30066.52
608.29	29888.64
608.44	30394.20
608.60	30190.57
608.75	30312.28
608.91	30115.67
609.06	30015.03
609.22	29914.39
609.37	29626.50
609.53	29909.71
609.68	29926.09
609.84	29383.09
609.99	29673.31
610.15	29888.64
610.30	29928.43
610.46	29638.20
610.61	30352.07
610.76	29937.79
610.92	29886.30
611.07	29823.11
611.23	29680.33
611.38	29947.15
611.54	29603.10
611.69	29390.11
611.84	29333.93
612.00	29612.46
612.15	29750.55
612.31	29853.53
612.46	29736.51
612.62	29584.37
612.77	29872.26
612.92	29483.73
613.08	29668.63
613.23	29757.57
613.39	29989.28
613.54	29565.65
613.69	29446.28
613.85	29387.77
614.00	29528.20
614.15	29652.25
614.31	29528.20
614.46	29558.63
614.62	29376.06
614.77	29722.46
614.92	30026.73
615.08	29640.54
615.23	29390.11
615.38	29343.30
615.54	29635.86
615.69	29205.20
615.84	29486.07
616.00	29355.00
616.15	29333.93
616.30	29340.96
616.46	29537.56
616.61	29120.95
616.76	29773.95
616.92	29507.13
617.07	29633.52
617.22	28954.77
617.37	29202.86
617.53	29336.27
617.68	29397.13
617.83	29153.71
617.99	29221.59
618.14	29123.29
618.29	29198.18
618.45	29277.76
618.60	29078.82
618.75	29242.65
618.90	29280.10
619.06	29355.00
619.21	29289.46
619.36	29202.86
619.51	28950.09
619.67	28987.53
619.82	29043.71
619.97	28985.19
620.12	28652.84
620.28	28779.23
620.43	28594.32
620.58	29195.84
620.73	29142.01
620.89	29043.71
621.04	29329.25
621.19	28879.87
621.34	28889.23
621.49	28652.84
621.65	28748.80
621.80	28957.11
621.95	28498.36
622.10	28697.31
622.25	28786.25
622.41	28694.97
622.56	28528.79
622.71	29237.97
622.86	28524.11
623.01	28922.00
623.16	28559.22
623.32	28383.68
623.47	28709.01
623.62	28484.32
623.77	28435.17
623.92	28746.46
624.07	28926.68
624.23	28458.57
624.38	28374.31
624.53	28559.22
624.68	28348.57
624.83	28514.75
624.98	28645.82
625.13	28458.57
625.29	28922.00
625.44	28166.01
625.59	28292.40
625.74	28135.58
625.89	28126.22
626.04	28322.82
626.19	28224.52
626.34	28067.70
626.49	27962.38
626.65	28065.36
626.80	28500.70
626.95	28233.88
627.10	28397.72
627.25	28173.03
627.40	28395.38
627.55	27833.65
627.70	28048.98
627.85	28105.15
628.00	28170.69
628.15	28119.20
628.30	28247.93
628.45	28020.89
628.60	27807.90
628.76	28552.20
628.91	28233.88
629.06	28077.07
629.21	28154.30
629.36	28156.64
629.51	27658.11
629.66	28032.60
629.81	27440.44
629.96	28053.66
630.11	27871.10
630.26	27417.04
630.41	27510.66
630.56	27882.80
630.71	27552.79
630.86	27674.49
631.01	28063.02
631.16	27587.89
631.31	27828.97
631.46	27510.66
631.61	27803.22
631.76	27885.14
631.91	27580.87
632.06	27693.22
632.21	27328.10
632.36	27665.13
632.51	27276.60
632.66	27501.29
632.81	27351.50
632.96	27770.46
633.10	27365.54
633.25	27997.49
633.40	27496.61
633.55	27522.36
633.70	27152.55
633.85	27283.62
634.00	27304.69
634.15	27145.53
634.30	27351.50
634.45	27103.40
634.60	27337.46
634.75	27484.91
634.90	27580.87
635.05	27440.44
635.19	27428.74
635.34	27744.71
635.49	27442.78
635.64	27185.32
635.79	27250.86
635.94	27438.10
636.09	27288.31
636.24	26965.31
636.39	26904.46
636.53	26888.07
636.68	26986.38
636.83	27040.21
636.98	27466.19
637.13	27119.79
637.28	27129.15
637.43	27257.88
637.57	27044.89
637.72	26927.86
637.87	27147.87
638.02	26539.33
638.17	27192.34
638.32	26628.27
638.46	26742.96
638.61	26651.68
638.76	26635.30
638.91	26581.46
639.06	26679.77
639.20	26904.46
639.35	26799.13
639.50	27058.93
639.65	26998.08
639.80	27379.59
639.94	27180.64
640.09	26513.59
640.24	26443.37
640.39	26661.04
640.54	26654.02
640.68	26616.57
640.83	26780.41
640.98	26558.06
641.13	26597.85
641.27	26817.86
641.42	26710.19
641.57	26661.04
641.72	26490.18
641.86	26452.73
642.01	26600.19
642.16	26600.19
642.31	26476.14
642.45	26492.52
642.60	26298.26
642.75	26410.60
642.90	26094.63
643.04	26513.59
643.19	26309.96
643.34	26419.97
643.48	26206.98
643.63	26600.19
643.78	26328.69
643.93	26651.68
644.07	26436.35
644.22	26618.91
644.37	25998.67
644.51	26672.74
644.66	26160.17
644.81	26043.14
644.95	26202.30
645.10	26085.27
645.25	26031.44
645.39	26108.68
645.54	26359.11
645.69	26106.34
645.83	26101.65
645.98	26029.10
646.13	26066.55
646.27	26295.92
646.42	26136.76
646.57	25975.27
646.71	26005.69
646.86	26391.88
647.00	26235.06
647.15	25905.05
647.30	25633.55
647.44	25752.91
647.59	26228.04
647.74	25858.24
647.88	26155.49
648.03	25804.41
648.17	25659.29
648.32	25816.11
648.47	25762.28
648.61	25902.71
648.76	26080.59
648.90	26190.59
649.05	26249.11
649.20	25551.63
649.34	25766.96
649.49	25242.68
649.63	25544.61
649.78	25493.12
649.92	25579.71
650.07	25881.64
650.21	25722.49
650.36	25940.16
650.51	25532.90
650.65	25762.28
650.80	25521.20
650.94	25678.02
651.09	25542.27
651.23	25355.02
651.38	25710.78
651.52	25504.82
651.67	25556.31
651.81	25577.37
651.96	25399.49
652.10	25488.43
652.25	25556.31
652.39	25486.09
652.54	25266.08
652.68	25373.75
652.83	25294.17
652.97	25750.57
653.12	25355.02
653.26	25240.34
653.41	25596.10
653.55	25280.13
653.70	25249.70
653.84	25312.89
653.99	25132.67
654.13	24793.29
654.27	25113.95
654.42	24975.86
654.56	25046.07
654.71	25338.64
654.85	25127.99
655.00	25156.08
655.14	25301.19
655.29	25067.14
655.43	25165.44
655.57	25139.69
655.72	24694.99
655.86	25060.12
656.01	25081.18
656.15	24903.30
656.30	24931.39
656.44	24900.96
656.58	24851.81
656.73	24893.94
656.87	24793.29
657.01	24802.66
657.16	24760.53
657.30	24884.58
657.45	24676.27
657.59	24912.66
657.73	24744.14
657.88	25029.69
658.02	24512.43
658.16	24666.91
658.31	24498.39
658.45	24547.54
658.60	24051.34
658.74	24556.90
658.88	24460.94
659.03	24212.84
659.17	24739.46
659.31	24826.06
659.46	24414.13
659.60	24584.99
659.74	24575.62
659.89	24439.87
660.03	24217.52
660.17	24411.79
660.32	23864.10
660.46	24079.43
660.60	24060.71
660.74	24074.75
660.89	23988.15
661.03	23934.32
661.17	24364.98
661.32	24093.47
661.46	24037.30
661.60	24107.52
661.74	24032.62
661.89	24049.00
662.03	24166.03
662.17	24196.46
662.31	23983.47
662.46	24292.42
662.60	23754.10
662.74	23814.95
662.88	23391.31
663.03	23714.31
663.17	23728.35
663.31	23562.17
663.45	23484.94
663.60	23693.24
663.74	23386.63
663.88	23571.54
664.02	23714.31
664.17	23875.80
664.31	23747.08
664.45	23452.17
664.59	23503.66
664.73	23206.41
664.88	23367.91
665.02	23019.17
665.16	23103.43
665.30	23419.40
665.44	22963.00
665.59	22981.72
665.73	23143.22
665.87	22913.84
666.01	23005.13
666.15	23187.69
666.29	23386.63
666.44	23101.09
666.58	22836.61
666.72	22745.33
666.86	22820.22
667.00	22862.35
667.14	22890.44
667.28	22897.46
667.43	22714.90
667.57	22780.43
667.71	22757.03
667.85	22632.98
667.99	22501.91
668.13	22134.45
668.27	22654.05
668.41	22565.10
668.56	22684.47
668.70	22527.66
668.84	22572.13
668.98	22324.03
669.12	22574.47
669.26	22277.22
669.40	22366.16
669.54	22443.40
669.68	22146.15
669.82	22270.20
669.96	22314.67
670.10	22089.98
670.25	22115.72
670.39	21876.99
670.53	21937.84
670.67	21720.17
670.81	21947.20
670.95	22256.15
671.09	22199.98
671.23	21879.33
671.37	21956.57
671.51	22075.93
671.65	21813.79
671.79	21781.03
671.93	21724.85
672.07	21682.72
672.21	21322.28
672.35	21406.54
672.49	21025.03
672.63	21598.46
672.77	21605.49
672.91	21165.46
673.05	21348.03
673.19	21078.86
673.33	21298.88
673.47	21020.35
673.61	21310.58
673.75	21099.93
673.89	21338.66
674.03	21137.38
674.17	21062.48
674.31	20919.71
674.45	20910.35
674.59	20814.38
674.73	21153.76
674.87	20713.74
675.01	20800.34
675.15	20496.07
675.29	20568.63
675.43	20753.53
675.56	20556.93
675.70	20659.91
675.84	20688.00
675.98	19990.52
676.12	20627.14
676.26	20732.47
676.40	20318.19
676.54	20690.34
676.68	20109.88
676.82	19899.23
676.96	19719.01
677.10	20173.08
677.23	20074.77
677.37	19908.60
677.51	19702.63
677.65	19997.54
677.79	19592.62
677.93	19599.65
678.07	19386.66
678.21	19365.59
678.34	19311.76
678.48	19440.49
678.62	19073.03
678.76	19419.42
678.90	19470.92
679.04	18967.70
679.18	19260.27
679.31	18864.72
679.45	19246.23
679.59	19070.68
679.73	18738.33
679.87	18881.10
680.00	18630.66
680.14	18930.25
680.28	18843.65
680.42	18590.88
680.56	18927.91
680.70	18691.52
680.83	18654.07
680.97	18656.41
681.11	18251.50
681.25	18483.21
681.39	18546.40
681.52	18242.14
681.66	18548.75
681.80	17991.70
681.94	18078.30
682.07	18272.56
682.21	18033.83
682.35	17886.37
682.49	18003.40
682.62	17832.54
682.76	17554.02
682.90	17774.03
683.04	17788.07
683.17	17598.49
683.31	18099.36
683.45	17743.60
683.59	17596.15
683.72	17488.48
683.86	17198.26
684.00	17380.82
684.13	17472.10
684.27	17481.46
684.41	17198.26
684.55	16975.91
684.68	16905.69
684.82	16814.41
684.96	16943.14
685.09	17013.35
685.23	16425.88
685.37	16837.81
685.50	16891.65
685.64	17029.74
685.78	16776.96
685.91	17071.87
686.05	16858.88
686.19	16573.33
686.32	16575.67
686.46	16388.43
686.60	16315.87
686.73	16262.04
686.87	16013.95
687.01	16367.37
687.14	16203.53
687.28	16233.96
687.42	15772.87
687.55	15810.32
687.69	15962.45
687.82	15976.50
687.96	16161.40
688.10	15756.49
688.23	15487.32
688.37	15770.53
688.50	15868.83
688.64	15875.85
688.78	15606.69
688.91	15522.43
689.05	15419.45
689.18	15157.31
689.32	14850.70
689.46	15140.93
689.59	15262.63
689.73	15255.61
689.86	14913.89
690.00	14860.06
690.13	15281.36
690.27	14831.97
690.41	15066.03
690.54	15103.48
690.68	14909.21
690.81	14946.66
690.95	15002.83
691.08	14736.01
691.22	14710.27
691.35	14562.81
691.49	14487.92
691.62	14516.00
691.76	14663.46
691.89	14230.46
692.03	13888.74
692.16	14211.73
692.30	13909.80
692.43	14040.87
692.57	13855.97
692.70	14015.13
692.84	13973.00
692.97	13954.27
693.11	14101.73
693.24	14024.49
693.38	13942.57
693.51	13820.86
693.65	13935.55
693.78	13490.85
693.92	13397.23
694.05	13205.30
694.19	13680.43
694.32	13287.22
694.45	13387.86
694.59	13217.01
694.72	13256.79
694.86	13078.91
694.99	13022.74
695.13	12814.43
695.26	13224.03
695.39	13308.29
695.53	13149.13
695.66	13004.02
695.80	13179.56
695.93	12996.99
696.07	12786.35
696.20	12863.58
696.33	12678.68
696.47	12437.61
696.60	12486.76
696.73	12784.01
696.87	12613.15
697.00	12456.33
697.14	12212.92
697.27	12304.20
697.40	12308.88
697.54	12287.81
697.67	12013.97
697.80	11967.16
697.94	11836.09
698.07	12028.01
698.21	11810.34
698.34	11885.24
698.47	11983.54
698.61	11882.90
698.74	11896.94
698.87	11913.33
699.01	11803.32
699.14	11693.32
699.27	11681.61
699.40	11634.80
699.54	11522.46
699.67	11482.67
699.80	11536.50
699.94	11162.01
700.07	11286.06
700.20	11173.72
700.34	11119.89
700.47	11117.54
700.60	11311.81
700.73	11276.70
700.87	10960.73
701.00	10963.07
701.13	11000.52
701.26	11049.67
701.40	11269.68
701.53	11023.92
701.66	10911.58
701.79	10686.89
701.93	10677.52
702.06	10874.13
702.19	10745.40
702.32	10637.73
702.46	10361.55
702.59	10307.72
702.72	10274.95
702.85	10253.89
702.99	10186.01
703.12	10090.05
703.25	10207.08
703.38	10305.38
703.51	10136.86
703.65	10162.61
703.78	10422.41
703.91	9928.55
704.04	10113.45
704.17	10150.90
704.31	9963.66
704.44	9837.27
704.57	9837.27
704.70	9912.17
704.83	9535.34
704.96	9724.93
705.10	9598.54
705.23	9589.17
>>>>>End Processed Spectral Data<<<<<
