SpectraSuite Data File
++++++++++++++++++++++++++++++++++++
Date: Fri Oct 18 13:58:34 GMT-05:00 2013
User: bianchi
Dark Spectrum Present: No
Reference Spectrum Present: No
Number of Sampled Component Spectra: 1
Spectrometers: USB2+H05261
Integration Time (usec): 50000 (USB2+H05261)
Spectra Averaged: 1 (USB2+H05261)
Boxcar Smoothing: 0 (USB2+H05261)
Correct for Electrical Dark: No (USB2+H05261)
Strobe/Lamp Enabled: No (USB2+H05261)
Correct for Detector Non-linearity: No (USB2+H05261)
Correct for Stray Light: No (USB2+H05261)
Number of Pixels in Processed Spectrum: 2048
>>>>>Begin Processed Spectral Data<<<<<
365.73	0.00
365.92	0.00
366.12	0.00
366.32	0.00
366.52	0.00
366.72	0.00
366.91	0.00
367.11	0.00
367.31	0.00
367.51	0.00
367.70	0.00
367.90	0.00
368.10	0.00
368.30	0.00
368.49	0.00
368.69	0.00
368.89	0.00
369.09	0.00
369.28	0.00
369.48	0.00
369.68	0.00
369.87	0.00
370.07	0.00
370.27	0.00
370.47	2.34
370.66	21.06
370.86	107.66
371.06	198.95
371.25	100.64
371.45	175.54
371.65	140.43
371.84	63.19
372.04	205.97
372.24	241.08
372.44	133.41
372.63	196.60
372.83	234.05
373.03	264.48
373.22	142.77
373.42	177.88
373.62	187.24
373.81	229.37
374.01	220.01
374.21	238.73
374.40	241.08
374.60	259.80
374.79	257.46
374.99	283.20
375.19	301.93
375.38	243.42
375.58	238.73
375.78	271.50
375.97	250.44
376.17	255.12
376.37	234.05
376.56	241.08
376.76	191.92
376.95	194.26
377.15	224.69
377.35	173.20
377.54	210.65
377.74	315.97
377.93	222.35
378.13	201.29
378.33	337.04
378.52	227.03
378.72	264.48
378.91	313.63
379.11	285.55
379.31	252.78
379.50	308.95
379.70	259.80
379.89	299.59
380.09	330.02
380.28	287.89
380.48	369.80
380.68	334.70
380.87	304.27
381.07	365.12
381.26	395.55
381.46	376.83
381.65	297.25
381.85	252.78
382.04	332.36
382.24	353.42
382.43	320.65
382.63	278.52
382.83	369.80
383.02	327.68
383.22	407.25
383.41	332.36
383.61	337.04
383.80	379.17
384.00	360.44
384.19	332.36
384.39	397.89
384.58	330.02
384.78	344.06
384.97	292.57
385.17	388.53
385.36	360.44
385.56	327.68
385.75	416.62
385.95	379.17
386.14	407.25
386.34	428.32
386.53	353.42
386.72	372.15
386.92	442.36
387.11	468.11
387.31	402.57
387.50	322.99
387.70	454.06
387.89	379.17
388.09	486.83
388.28	479.81
388.48	409.59
388.67	397.89
388.86	491.51
389.06	449.38
389.25	503.22
389.45	463.43
389.64	496.19
389.84	470.45
390.03	465.77
390.22	430.66
390.42	498.53
390.61	430.66
390.81	528.96
391.00	461.09
391.19	421.30
391.39	571.09
391.58	524.28
391.78	472.79
391.97	533.64
392.16	507.90
392.36	524.28
392.55	517.26
392.75	535.98
392.94	592.16
393.13	540.66
393.33	500.87
393.52	519.60
393.71	608.54
393.91	580.45
394.10	561.73
394.29	594.50
394.49	535.98
394.68	631.94
394.88	566.41
395.07	554.71
395.26	608.54
395.46	589.82
395.65	601.52
395.84	641.31
396.04	681.10
396.23	608.54
396.42	624.92
396.62	650.67
396.81	650.67
397.00	650.67
397.19	650.67
397.39	596.84
397.58	650.67
397.77	575.77
397.97	650.67
398.16	751.31
398.35	770.04
398.55	624.92
398.74	716.20
398.93	725.57
399.12	727.91
399.32	667.05
399.51	657.69
399.70	809.83
399.90	727.91
400.09	812.17
400.28	699.82
400.47	774.72
400.67	699.82
400.86	791.10
401.05	739.61
401.24	730.25
401.44	788.76
401.63	798.12
401.82	873.02
402.01	840.25
402.21	809.83
402.40	770.04
402.59	875.36
402.78	779.40
402.97	772.38
403.17	854.30
403.36	849.61
403.55	924.51
403.74	898.77
403.93	880.04
404.13	908.13
404.32	830.89
404.51	894.08
404.70	1001.75
404.89	882.38
405.09	940.90
405.28	882.38
405.47	889.40
405.66	983.02
405.85	961.96
406.05	931.53
406.24	959.62
406.43	1027.50
406.62	990.05
406.81	1020.47
407.00	1090.69
407.20	1048.56
407.39	1104.73
407.58	1107.07
407.77	1022.81
407.96	1104.73
408.15	1062.60
408.34	1064.94
408.54	1022.81
408.73	1097.71
408.92	978.34
409.11	1160.91
409.30	1104.73
409.49	1081.33
409.68	1153.88
409.87	1186.65
410.07	1107.07
410.26	1240.48
410.45	1266.23
410.64	1125.80
410.83	1172.61
411.02	1165.59
411.21	1217.08
411.40	1228.78
411.59	1254.53
411.78	1275.59
411.98	1341.13
412.17	1345.81
412.36	1366.87
412.55	1310.70
412.74	1256.87
412.93	1341.13
413.12	1327.08
413.31	1343.47
413.50	1322.40
413.69	1416.02
413.88	1558.80
414.07	1465.18
414.26	1390.28
414.45	1432.41
414.64	1479.22
414.83	1521.35
415.02	1547.09
415.22	1549.43
415.41	1551.78
415.60	1549.43
415.79	1603.27
415.98	1614.97
416.17	1600.93
416.36	1598.59
416.55	1579.86
416.74	1652.42
416.93	1526.03
417.12	1652.42
417.31	1685.19
417.50	1650.08
417.69	1820.94
417.88	1621.99
418.07	1617.31
418.26	1577.52
418.45	1781.15
418.64	1856.04
418.83	1734.34
419.02	1743.70
419.21	1898.17
419.39	1888.81
419.58	1877.11
419.77	1832.64
419.96	1790.51
420.15	1788.17
420.34	1797.53
420.53	1921.58
420.72	1895.83
420.91	1907.54
421.10	1863.07
421.29	1935.62
421.48	1935.62
421.67	1987.11
421.86	1975.41
422.05	1905.20
422.24	1795.19
422.43	1963.71
422.61	1825.62
422.80	2003.50
422.99	2017.54
423.18	2054.99
423.37	2001.16
423.56	2120.53
423.75	2073.71
423.94	1973.07
424.13	1865.41
424.32	1884.13
424.50	2111.16
424.69	2094.78
424.88	2099.46
425.07	2052.65
425.26	2047.97
425.45	2122.87
425.64	2022.22
425.83	2153.29
426.01	2038.61
426.20	2050.31
426.39	2062.01
426.58	2118.18
426.77	2010.52
426.96	2033.93
427.15	2090.10
427.33	2197.76
427.52	2036.27
427.71	2080.74
427.90	2083.08
428.09	2127.55
428.28	2139.25
428.46	2204.78
428.65	2263.30
428.84	2188.40
429.03	2317.13
429.22	2256.28
429.40	2239.89
429.59	2209.47
429.78	2174.36
429.97	2165.00
430.16	2200.10
430.34	2310.11
430.53	2298.41
430.72	2438.84
430.91	2298.41
431.10	2431.82
431.28	2382.67
431.47	2314.79
431.66	2275.00
431.85	2380.32
432.03	2443.52
432.22	2469.27
432.41	2431.82
432.60	2246.91
432.79	2434.16
432.97	2450.54
433.16	2424.80
433.35	2497.35
433.54	2609.70
433.72	2593.31
433.91	2523.10
434.10	2513.74
434.28	2452.88
434.47	2436.50
434.66	2443.52
434.85	2539.48
435.03	2607.36
435.22	2555.86
435.41	2708.00
435.59	2609.70
435.78	2684.59
435.97	2609.70
436.16	2733.75
436.34	2593.31
436.53	2764.17
436.72	2761.83
436.90	2640.12
437.09	2693.96
437.28	2796.94
437.46	2780.56
437.65	2663.53
437.84	2705.66
438.02	2740.77
438.21	2808.64
438.40	2724.38
438.58	2832.05
438.77	2850.77
438.96	2897.58
439.14	2890.56
439.33	2923.33
439.52	2923.33
439.70	2864.82
439.89	3038.02
440.08	3021.63
440.26	2906.95
440.45	3049.72
440.63	3059.08
440.82	3091.85
441.01	3019.29
441.19	3173.77
441.38	3234.62
441.57	3145.68
441.75	3265.05
441.94	3309.52
442.12	3204.19
442.31	3400.80
442.50	3243.98
442.68	3260.37
442.87	3218.24
443.05	3297.81
443.24	3428.88
443.43	3407.82
443.61	3433.57
443.80	3435.91
443.98	3218.24
444.17	3227.60
444.35	3379.73
444.54	3288.45
444.73	3508.46
444.91	3379.73
445.10	3337.60
445.28	3471.01
445.47	3492.08
445.65	3412.50
445.84	3482.72
446.02	3424.20
446.21	3218.24
446.39	3400.80
446.58	3522.51
446.77	3421.86
446.95	3431.23
447.14	3440.59
447.32	3438.25
447.51	3588.04
447.69	3517.83
447.88	3482.72
448.06	3534.21
448.25	3428.88
448.43	3471.01
448.62	3426.54
448.80	3531.87
448.99	3372.71
449.17	3503.78
449.36	3620.81
449.54	3639.53
449.73	3658.26
449.91	3604.42
450.10	3599.74
450.28	3857.20
450.46	3637.19
450.65	3684.00
450.83	3712.09
451.02	3616.13
451.20	3669.96
451.39	3693.37
451.57	3770.60
451.76	3723.79
451.94	3864.22
452.13	3864.22
452.31	3796.35
452.49	3868.91
452.68	3765.92
452.86	3770.60
453.05	3866.56
453.23	3871.25
453.42	3927.42
453.60	3850.18
453.78	3918.06
453.97	3768.26
454.15	3939.12
454.34	3906.35
454.52	3861.88
454.70	3873.59
454.89	4018.70
455.07	4028.06
455.26	4053.81
455.44	3953.16
455.62	4140.41
455.81	3999.98
455.99	4227.01
456.17	4070.19
456.36	4369.78
456.54	4138.07
456.73	4208.28
456.91	4184.88
457.09	4308.93
457.28	4428.29
457.46	4245.73
457.64	4257.43
457.83	4351.06
458.01	4301.90
458.19	4404.89
458.38	4294.88
458.56	4369.78
458.74	4360.42
458.93	4435.32
459.11	4374.46
459.29	4292.54
459.48	4491.49
459.66	4517.23
459.84	4432.97
460.03	4514.89
460.21	4582.77
460.39	4482.13
460.57	4512.55
460.76	4573.41
460.94	4645.96
461.12	4521.92
461.31	4561.70
461.49	4608.51
461.67	4711.50
461.85	4573.41
462.04	4643.62
462.22	4903.42
462.40	4800.44
462.59	4589.79
462.77	4678.73
462.95	4737.24
463.13	4793.42
463.32	4727.88
463.50	4870.65
463.68	4688.09
463.86	4781.71
464.05	4777.03
464.23	4793.42
464.41	4793.42
464.59	4880.02
464.78	4896.40
464.96	4889.38
465.14	4674.05
465.32	5020.45
465.50	5013.43
465.69	4926.83
465.87	4985.34
466.05	4887.04
466.23	4891.72
466.41	4912.78
466.60	5172.58
466.78	4950.23
466.96	4947.89
467.14	4894.06
467.32	5205.35
467.51	5217.05
467.69	4854.27
467.87	5062.58
468.05	5036.83
468.23	5132.79
468.41	4983.00
468.60	5184.29
468.78	5282.59
468.96	5153.86
469.14	5383.23
469.32	5320.04
469.50	5256.84
469.69	5137.48
469.87	5373.87
470.05	5385.57
470.23	5371.53
470.41	5352.81
470.59	5439.40
470.77	5338.76
470.95	5558.77
471.14	5425.36
471.32	5446.43
471.50	5387.91
471.68	5610.26
471.86	5502.60
472.04	5621.97
472.22	5907.51
472.40	5722.61
472.58	5628.99
472.77	5659.42
472.95	5547.07
473.13	5994.11
473.31	5696.86
473.49	5823.25
473.67	5713.25
473.85	5813.89
474.03	5949.64
474.21	5963.68
474.39	6076.03
474.57	5935.60
474.75	6024.54
474.93	6101.78
475.12	6181.35
475.30	6228.17
475.48	6054.97
475.66	6274.98
475.84	6289.02
476.02	6377.96
476.20	6335.83
476.38	6520.73
476.56	6506.69
476.74	6434.13
476.92	6392.00
477.10	6473.92
477.28	6644.78
477.46	6595.63
477.64	6539.46
477.82	6778.19
478.00	7059.06
478.18	6883.52
478.36	6707.98
478.54	7105.87
478.72	6939.69
478.90	7012.24
479.08	7239.28
479.26	7335.24
479.44	7309.49
479.62	7126.93
479.80	7346.94
479.98	7396.09
480.16	7515.46
480.34	7494.40
480.52	7845.48
480.70	7716.75
480.88	7562.27
481.06	7784.62
481.24	7564.61
481.41	7819.73
481.59	7896.97
481.77	7861.86
481.95	8021.02
482.13	8124.00
482.31	8044.42
482.49	8163.79
482.67	8091.23
482.85	8374.44
483.03	8531.25
483.21	8297.20
483.39	8528.91
483.57	8446.99
483.74	8819.14
483.92	8491.46
484.10	8709.13
484.28	8884.67
484.46	9029.79
484.64	9032.13
484.82	8954.89
485.00	9057.87
485.18	9277.88
485.35	9343.42
485.53	9092.98
485.71	9247.46
485.89	9495.55
486.07	9511.94
486.25	9455.76
486.43	9628.96
486.61	9778.76
486.78	9654.71
486.96	9865.36
487.14	10015.15
487.32	10052.60
487.50	10274.95
487.68	10174.31
487.85	10391.98
488.03	10342.83
488.21	10415.38
488.39	10312.40
488.57	10438.79
488.75	10682.20
488.92	10817.96
489.10	10885.83
489.28	10815.62
489.46	11166.70
489.64	10937.32
489.81	11021.58
489.99	11192.44
490.17	11323.51
490.35	11250.96
490.53	11204.14
490.70	11332.87
490.88	11538.84
491.06	11618.42
491.24	11758.85
491.41	11831.41
491.59	11819.71
491.77	11983.54
491.95	12163.76
492.13	12072.48
492.30	12201.21
492.48	12084.19
492.66	12262.07
492.84	12203.55
493.01	12545.27
493.19	12439.95
493.37	12751.24
493.54	12599.10
493.72	12620.17
493.90	12500.80
494.08	13128.06
494.25	13224.03
494.43	13092.96
494.61	13008.70
494.79	13097.64
494.96	13181.90
495.14	13200.62
495.32	13268.50
495.49	13650.00
495.67	13247.43
495.85	13647.66
496.02	13530.64
496.20	13568.09
496.38	14008.11
496.55	13795.12
496.73	14171.94
496.91	13935.55
497.09	14127.47
497.26	14230.46
497.44	14080.66
497.62	14080.66
497.79	14555.79
497.97	14595.58
498.14	14534.73
498.32	14757.08
498.50	14771.12
498.67	14885.81
498.85	14946.66
499.03	14995.81
499.20	14986.45
499.38	14934.96
499.56	15023.90
499.73	15056.67
499.91	15094.11
500.08	15550.52
500.26	15094.11
500.44	15372.64
500.61	15157.31
500.79	15243.91
500.97	15599.67
501.14	15655.84
501.32	15763.51
501.49	15758.83
501.67	15524.77
501.84	15592.65
502.02	15887.56
502.20	15894.58
502.37	15948.41
502.55	15899.26
502.72	16074.80
502.90	16035.01
503.07	15815.00
503.25	16231.62
503.43	16322.90
503.60	16168.42
503.78	16725.47
503.95	16313.53
504.13	16311.19
504.30	16404.81
504.48	16531.20
504.65	16376.73
504.83	16769.94
505.01	17032.08
505.18	16919.73
505.36	17001.65
505.53	16922.07
505.71	17027.40
505.88	16905.69
506.06	17034.42
506.23	17359.75
506.41	17245.07
506.58	17142.08
506.76	17326.99
506.93	17139.74
507.11	17181.87
507.28	17554.02
507.46	17174.85
507.63	17287.20
507.81	17905.10
507.98	17596.15
508.16	17188.89
508.33	17771.69
508.50	17715.51
508.68	17795.09
508.85	18090.00
509.03	17846.58
509.20	17799.77
509.38	18160.22
509.55	18455.12
509.73	18214.05
509.90	18073.62
510.08	18263.20
510.25	18036.17
510.42	18338.10
510.60	18513.64
510.77	18698.54
510.95	18633.00
511.12	18195.32
511.30	18611.94
511.47	18733.65
511.64	18757.05
511.82	19166.65
511.99	18654.07
512.17	18845.99
512.34	18836.63
512.51	19075.37
512.69	18817.91
512.86	18904.51
513.04	19454.53
513.21	19545.81
513.38	19321.12
513.56	19316.44
513.73	19281.33
513.90	19154.94
514.08	19124.52
514.25	19630.07
514.43	19639.44
514.60	19686.25
514.77	19768.16
514.95	19695.61
515.12	19908.60
515.29	19557.52
515.47	19854.76
515.64	19878.17
515.81	19843.06
515.99	20044.35
516.16	20421.17
516.33	20070.09
516.51	19946.05
516.68	20130.95
516.85	20109.88
517.03	20137.97
517.20	20250.32
517.37	20322.87
517.54	20407.13
517.72	20390.75
517.89	20315.85
518.06	20577.99
518.24	20467.98
518.41	20168.40
518.58	20559.27
518.75	20723.10
518.93	20683.31
519.10	20592.03
519.27	20704.38
519.45	20699.70
519.62	20861.19
519.79	20767.57
519.96	21003.97
520.14	20900.98
520.31	20779.28
520.48	21181.85
520.65	21142.06
520.83	21135.04
521.00	21151.42
521.17	21153.76
521.34	21495.48
521.52	21240.36
521.69	21373.77
521.86	21591.44
522.03	21729.53
522.20	21575.06
522.38	21570.38
522.55	21539.95
522.72	21614.85
522.89	21624.21
523.07	21652.30
523.24	21654.64
523.41	21972.95
523.58	21610.17
523.75	21853.58
523.92	21640.59
524.10	22171.89
524.27	21766.98
524.44	22068.91
524.61	22541.70
524.78	22754.69
524.96	22321.69
525.13	22108.70
525.30	22354.46
525.47	22448.08
525.64	22616.60
525.81	22434.03
525.98	22572.13
526.16	22511.27
526.33	22324.03
526.50	22897.46
526.67	22501.91
526.84	22602.55
527.01	22806.18
527.18	22754.69
527.36	23068.32
527.53	22752.35
527.70	22972.36
527.87	22656.39
528.04	23332.80
528.21	22721.92
528.38	22960.66
528.55	23021.51
528.72	23344.50
528.89	23269.61
529.07	23222.80
529.24	23246.20
529.41	23321.10
529.58	23304.71
529.75	23302.37
529.92	23168.96
530.09	23332.80
530.26	23374.93
530.43	23997.51
530.60	23527.06
530.77	23318.76
530.94	23403.02
531.11	23508.34
531.28	23353.87
531.46	23503.66
531.63	23569.19
531.80	24037.30
531.97	24198.80
532.14	23962.40
532.31	23690.90
532.48	24269.01
532.65	24030.28
532.82	23786.86
532.99	24041.98
533.16	23768.14
533.33	24540.52
533.50	24130.92
533.67	24006.87
533.84	23882.83
534.01	24025.60
534.18	24374.34
534.35	24257.31
534.52	24163.69
534.69	24283.06
534.86	24498.39
535.03	24397.74
535.20	24526.47
535.37	24664.57
535.54	24833.08
535.71	24360.30
535.88	24563.92
536.05	24247.95
536.22	24922.02
536.38	24896.28
536.55	24840.11
536.72	24683.29
536.89	24961.81
537.06	24863.51
537.23	24947.77
537.40	25029.69
537.57	24966.49
537.74	24828.40
537.91	25060.12
538.08	24989.90
538.25	24982.88
538.42	24772.23
538.59	25364.39
538.75	24404.77
538.92	25067.14
539.09	25343.32
539.26	25371.41
539.43	25362.04
539.60	25106.93
539.77	25083.52
539.94	25486.09
540.11	25469.71
540.28	25493.12
540.44	25425.24
540.61	25553.97
540.78	25411.20
540.95	25804.41
541.12	25486.09
541.29	25869.94
541.46	25404.17
541.62	25448.64
541.79	25516.52
541.96	25568.01
542.13	25481.41
542.30	25766.96
542.47	25696.74
542.63	25731.85
542.80	25830.15
542.97	25867.60
543.14	26181.23
543.31	25914.41
543.48	25958.88
543.64	26150.81
543.81	26340.39
543.98	26368.48
544.15	26281.88
544.32	26445.71
544.48	26324.01
544.65	26340.39
544.82	26403.58
544.99	26316.98
545.16	26511.25
545.32	26265.49
545.49	26490.18
545.66	26541.68
545.83	26476.14
546.00	26565.08
546.16	26314.64
546.33	26309.96
546.50	26452.73
546.67	26677.43
546.83	26113.36
547.00	26380.18
547.17	26799.13
547.34	26555.72
547.50	26607.21
547.67	27173.62
547.84	26747.64
548.00	26843.60
548.17	27058.93
548.34	26682.11
548.51	27302.35
548.67	27475.55
548.84	26792.11
549.01	27241.50
549.18	27023.83
549.34	26969.99
549.51	27260.22
549.68	26862.33
549.84	26712.53
550.01	26993.40
550.18	26857.65
550.34	27288.31
550.51	27051.91
550.68	27316.39
550.84	27154.90
551.01	27229.79
551.18	26827.22
551.34	27094.04
551.51	27075.32
551.68	27119.79
551.84	27241.50
552.01	27545.76
552.18	27360.86
552.34	27557.47
552.51	27637.05
552.68	27307.03
552.84	27587.89
553.01	27667.47
553.18	27615.98
553.34	27793.86
553.51	27550.45
553.67	27370.22
553.84	28315.80
554.01	27704.92
554.17	27754.07
554.34	27634.71
554.51	27468.53
554.67	27728.33
554.84	27985.79
555.00	27421.72
555.17	27686.20
555.33	28084.09
555.50	27910.89
555.67	27913.23
555.83	28091.11
556.00	27922.59
556.16	28259.63
556.33	27852.38
556.50	28039.62
556.66	28147.28
556.83	27810.25
556.99	28533.47
557.16	28449.21
557.32	28526.45
557.49	28552.20
557.65	28154.30
557.82	28107.49
557.98	27770.46
558.15	28243.24
558.32	28130.90
558.48	28257.29
558.65	28187.07
558.81	27967.06
558.98	28477.30
559.14	28252.61
559.31	28168.35
559.47	28519.43
559.64	28395.38
559.80	28570.92
559.97	28481.98
560.13	28383.68
560.30	28276.01
560.46	28369.63
560.63	28114.52
560.79	28669.22
560.96	28538.15
561.12	28383.68
561.29	28393.04
561.45	28914.98
561.61	28669.22
561.78	28418.78
561.94	28720.71
562.11	29055.41
562.27	28556.88
562.44	28741.78
562.60	28634.11
562.77	28774.55
562.93	28690.29
563.10	29041.37
563.26	28802.63
563.42	29088.18
563.59	28432.83
563.75	28402.40
563.92	29179.46
564.08	28524.11
564.24	28664.54
564.41	28711.35
564.57	28896.25
564.74	28444.53
564.90	28790.93
565.07	29172.44
565.23	28865.83
565.39	28751.14
565.56	28840.08
565.72	28615.39
565.88	29184.14
566.05	28793.27
566.21	28992.22
566.38	28774.55
566.54	28943.06
566.70	28924.34
566.87	29226.27
567.03	29397.13
567.19	29149.03
567.36	28863.49
567.52	29242.65
567.68	29228.61
567.85	29017.96
568.01	29275.42
568.17	28966.47
568.34	29104.56
568.50	28982.85
568.66	29425.22
568.83	29268.40
568.99	29053.07
569.15	29149.03
569.32	29015.62
569.48	28746.46
569.64	28807.31
569.81	29156.05
569.97	29104.56
570.13	29214.57
570.30	29102.22
570.46	29134.99
570.62	29116.26
570.78	29326.91
570.95	29261.38
571.11	29565.65
571.27	28945.41
571.43	29109.24
571.60	29078.82
571.76	29247.33
571.92	29221.59
572.09	29259.04
572.25	29046.05
572.41	29008.60
572.57	29191.16
572.74	29528.20
572.90	29490.75
573.06	29053.07
573.22	29205.20
573.38	29240.31
573.55	29378.40
573.71	29308.19
573.87	29282.44
574.03	29544.58
574.20	29254.36
574.36	29142.01
574.52	29347.98
574.68	29216.91
574.84	29474.37
575.01	29570.33
575.17	29394.79
575.33	28964.13
575.49	29249.67
575.65	29338.62
575.82	29706.08
575.98	29081.16
576.14	29579.69
576.30	29355.00
576.46	28959.45
576.62	29048.39
576.79	29579.69
576.95	29296.49
577.11	29326.91
577.27	29631.18
577.43	29205.20
577.59	29249.67
577.75	29067.11
577.92	29186.48
578.08	29493.09
578.24	29575.01
578.40	29579.69
578.56	29577.35
578.72	29284.78
578.88	29607.78
579.04	29776.30
579.21	29446.28
579.37	29104.56
579.53	29549.26
579.69	29273.08
579.85	29120.95
580.01	29624.16
580.17	29340.96
580.33	29687.36
580.49	29563.31
580.65	29656.93
580.82	29305.85
580.98	29769.27
581.14	29832.47
581.30	29579.69
581.46	29497.77
581.62	29219.25
581.78	29259.04
581.94	29385.43
582.10	29291.80
582.26	29591.39
582.42	29720.12
582.58	29453.30
582.74	29759.91
582.90	29504.79
583.06	29624.16
583.22	29556.28
583.38	29420.53
583.54	29518.84
583.70	29816.08
583.86	29596.07
584.02	29319.89
584.18	30195.25
584.34	29947.15
584.50	29708.42
584.66	29507.13
584.82	29432.24
584.98	29673.31
585.14	29993.97
585.30	29518.84
585.46	29607.78
585.62	29446.28
585.78	29436.92
585.94	29614.80
586.10	30047.80
586.26	29839.49
586.42	29724.80
586.58	29743.53
586.74	29687.36
586.90	29195.84
587.06	29542.24
587.22	29376.06
587.38	29467.34
587.54	29514.16
587.70	29802.04
587.86	29668.63
588.02	29888.64
588.18	30057.16
588.34	29736.51
588.49	29710.76
588.65	29619.48
588.81	29560.97
588.97	29675.65
589.13	29645.23
589.29	29841.83
589.45	29862.90
589.61	30005.67
589.77	29977.58
589.93	29912.05
590.08	30251.42
590.24	30171.85
590.40	30108.65
590.56	29872.26
590.72	29680.33
590.88	29848.85
591.04	29659.27
591.20	30319.30
591.35	29916.73
591.51	30185.89
591.67	30148.44
591.83	30323.98
591.99	30092.27
592.15	30171.85
592.31	29926.09
592.46	30139.08
592.62	30012.69
592.78	30068.86
592.94	30143.76
593.10	29949.50
593.26	29949.50
593.41	30295.89
593.57	30092.27
593.73	30221.00
593.89	29916.73
594.05	30073.54
594.20	30143.76
594.36	29923.75
594.52	29958.86
594.68	30040.78
594.84	29757.57
594.99	29975.24
595.15	30415.26
595.31	30375.47
595.47	30305.26
595.62	30181.21
595.78	29799.70
595.94	30110.99
596.10	30218.66
596.25	30059.50
596.41	30157.80
596.57	30031.41
596.73	29418.19
596.88	30099.29
597.04	30314.62
597.20	30221.00
597.36	30398.88
597.51	30302.92
597.67	30295.89
597.83	30171.85
597.99	30132.06
598.14	30120.35
598.30	30103.97
598.46	29795.02
598.61	30141.42
598.77	29996.31
598.93	30277.17
599.09	30122.69
599.24	30380.15
599.40	30469.09
599.56	30396.54
599.71	30127.38
599.87	30183.55
600.03	30101.63
600.18	30115.67
600.34	29986.94
600.50	29661.61
600.65	30288.87
600.81	29855.87
600.97	29916.73
601.12	30235.04
601.28	30663.36
601.44	30494.84
601.59	30206.95
601.75	30195.25
601.91	30277.17
602.06	30031.41
602.22	30654.00
602.37	30223.34
602.53	30204.61
602.69	30433.99
602.84	30211.64
603.00	29986.94
603.16	30632.93
603.31	30424.62
603.47	30125.04
603.62	30494.84
603.78	29940.13
603.94	30277.17
604.09	30167.16
604.25	30232.70
604.40	29979.92
604.56	30143.76
604.71	30534.63
604.87	30031.41
605.03	30176.53
605.18	30127.38
605.34	30239.72
605.49	29916.73
605.65	30174.19
605.80	29738.85
605.96	30122.69
606.12	30059.50
606.27	30206.95
606.43	30071.20
606.58	30710.17
606.74	30274.83
606.89	30176.53
607.05	30136.74
607.20	30347.39
607.36	30321.64
607.51	30565.06
607.67	29914.39
607.82	29766.93
607.98	29830.13
608.13	30307.60
608.29	30169.51
608.44	29848.85
608.60	29755.23
608.75	30352.07
608.91	29874.60
609.06	30022.05
609.22	30054.82
609.37	29848.85
609.53	30127.38
609.68	29734.17
609.84	29984.60
609.99	29701.40
610.15	30291.21
610.30	29979.92
610.46	29699.06
610.61	30361.43
610.76	30103.97
610.92	29970.56
611.07	29722.46
611.23	30068.86
611.38	29961.20
611.54	29802.04
611.69	29841.83
611.84	29237.97
612.00	29755.23
612.15	29359.68
612.31	29537.56
612.46	29722.46
612.62	30005.67
612.77	29968.22
612.92	29722.46
613.08	29404.15
613.23	29851.19
613.39	29930.77
613.54	29317.55
613.69	29996.31
613.85	29572.67
614.00	29500.11
614.15	30008.01
614.31	29343.30
614.46	29542.24
614.62	29806.72
614.77	29645.23
614.92	29151.37
615.08	30038.44
615.23	29331.59
615.38	29645.23
615.54	29317.55
615.69	29598.41
615.84	29202.86
616.00	29212.23
616.15	29563.31
616.30	29371.38
616.46	29827.79
616.61	29347.98
616.76	29303.51
616.92	29605.44
617.07	29692.04
617.22	29032.00
617.37	29479.05
617.53	29116.26
617.68	29289.46
617.83	29214.57
617.99	29109.24
618.14	29095.20
618.29	29277.76
618.45	28999.24
618.60	29333.93
618.75	29116.26
618.90	29446.28
619.06	29457.98
619.21	29172.44
619.36	29457.98
619.51	29067.11
619.67	28589.64
619.82	28938.38
619.97	29057.75
620.12	29017.96
620.28	29256.70
620.43	28837.74
620.58	29364.36
620.73	29032.00
620.89	29277.76
621.04	29083.50
621.19	29612.46
621.34	29305.85
621.49	28776.89
621.65	28580.28
621.80	29043.71
621.95	28767.52
622.10	28842.42
622.25	28662.20
622.41	28725.39
622.56	28884.55
622.71	28889.23
622.86	28627.09
623.01	28538.15
623.16	28444.53
623.32	28493.68
623.47	28477.30
623.62	28800.29
623.77	28409.42
623.92	28416.44
624.07	28407.08
624.23	28978.17
624.38	28786.25
624.53	28552.20
624.68	28744.12
624.83	28610.71
624.98	28624.75
625.13	28505.38
625.29	28514.75
625.44	28835.40
625.59	28357.93
625.74	28123.88
625.89	28098.13
626.04	28528.79
626.19	27983.44
626.34	28077.07
626.49	28058.34
626.65	28257.29
626.80	28666.88
626.95	28577.94
627.10	28170.69
627.25	28531.13
627.40	28315.80
627.55	28070.04
627.70	27990.47
627.85	28116.86
628.00	28032.60
628.15	28301.76
628.30	27950.68
628.45	28182.39
628.60	27812.59
628.76	28086.43
628.91	28215.16
629.06	28184.73
629.21	28037.28
629.36	27906.21
629.51	28098.13
629.66	27835.99
629.81	27915.57
629.96	27896.85
630.11	28058.34
630.26	28170.69
630.41	27744.71
630.56	27880.46
630.71	27501.29
630.86	27641.73
631.01	27714.28
631.16	27962.38
631.31	27763.43
631.46	27552.79
631.61	27967.06
631.76	27744.71
631.91	27630.02
632.06	27520.02
632.21	27580.87
632.36	27491.93
632.51	27524.70
632.66	27660.45
632.81	27440.44
632.96	27473.21
633.10	27791.52
633.25	27810.25
633.40	27775.14
633.55	27728.33
633.70	27316.39
633.85	27370.22
634.00	27077.66
634.15	27358.52
634.30	27365.54
634.45	27374.91
634.60	27484.91
634.75	27363.20
634.90	27264.90
635.05	27510.66
635.19	27112.77
635.34	27363.20
635.49	27491.93
635.64	27562.15
635.79	27407.67
635.94	27297.67
636.09	27393.63
636.24	27363.20
636.39	27182.98
636.53	27161.92
636.68	27091.70
636.83	27096.38
636.98	27229.79
637.13	26902.12
637.28	27421.72
637.43	26946.59
637.57	27047.23
637.72	27143.19
637.87	26724.24
638.02	26822.54
638.17	27152.55
638.32	26668.06
638.46	26686.79
638.61	26984.04
638.76	26508.91
638.91	26946.59
639.06	26927.86
639.20	27297.67
639.35	27321.07
639.50	26827.22
639.65	26913.82
639.80	27208.73
639.94	26977.01
640.09	26862.33
640.24	26998.08
640.39	26558.06
640.54	26450.39
640.68	26349.75
640.83	26740.62
640.98	26328.69
641.13	26122.72
641.27	26396.56
641.42	26611.89
641.57	26635.30
641.72	26583.80
641.86	26494.86
642.01	26349.75
642.16	26324.01
642.31	26190.59
642.45	26614.23
642.60	26422.31
642.75	26366.13
642.90	26443.37
643.04	26363.79
643.19	26134.42
643.34	26370.82
643.48	26162.51
643.63	26740.62
643.78	26242.09
643.93	26560.40
644.07	26815.52
644.22	26312.30
644.37	26202.30
644.51	26583.80
644.66	26260.81
644.81	25965.90
644.95	26356.77
645.10	26389.54
645.25	26195.28
645.39	26045.48
645.54	26183.57
645.69	26150.81
645.83	26120.38
645.98	25989.31
646.13	26239.75
646.27	26045.48
646.42	26398.90
646.57	26043.14
646.71	25881.64
646.86	25975.27
647.00	25876.96
647.15	26022.08
647.30	26153.15
647.44	25776.32
647.59	25986.97
647.74	26235.06
647.88	25792.70
648.03	25933.14
648.17	25799.73
648.32	26033.78
648.47	25961.22
648.61	25738.87
648.76	26206.98
648.90	25961.22
649.05	25905.05
649.20	25427.58
649.34	25766.96
649.49	25619.50
649.63	25659.29
649.78	25771.64
649.92	25532.90
650.07	25898.03
650.21	25640.57
650.36	25600.78
650.51	25869.94
650.65	25865.26
650.80	25488.43
650.94	25656.95
651.09	25149.06
651.23	26106.34
651.38	25366.73
651.52	25481.41
651.67	25275.45
651.81	25607.80
651.96	25343.32
652.10	25249.70
652.25	25818.45
652.39	25436.94
652.54	25350.34
652.68	25158.42
652.83	25549.29
652.97	25689.72
653.12	25577.37
653.26	24978.20
653.41	25392.47
653.55	25032.03
653.70	25046.07
653.84	25282.47
653.99	25219.27
654.13	25249.70
654.27	25266.08
654.42	25455.67
654.56	25373.75
654.71	25422.90
654.85	25568.01
655.00	25352.68
655.14	25120.97
655.29	25184.16
655.43	25432.26
655.57	24931.39
655.72	25207.57
655.86	24954.79
656.01	24802.66
656.15	24875.21
656.30	24905.64
656.44	24833.08
656.58	24924.36
656.73	25013.31
656.87	25020.33
657.01	24767.55
657.16	25319.92
657.30	25078.84
657.45	24758.19
657.59	24823.72
657.73	24652.86
657.88	24840.11
658.02	24772.23
658.16	24524.13
658.31	24531.15
658.45	24797.98
658.60	24191.78
658.74	24587.33
658.88	24350.93
659.03	24847.13
659.17	24325.19
659.31	24217.52
659.46	24395.40
659.60	24863.51
659.74	24713.72
659.89	24610.73
660.03	24315.83
660.17	24189.44
660.32	24318.17
660.46	23941.34
660.60	24016.24
660.74	24276.04
660.89	24266.67
661.03	23690.90
661.17	24137.94
661.32	23915.59
661.46	24517.11
661.60	23988.15
661.74	24334.55
661.89	24189.44
662.03	23744.73
662.17	23662.82
662.31	23974.11
662.46	23676.86
662.60	23920.28
662.74	24079.43
662.88	23662.82
663.03	23559.83
663.17	23742.39
663.31	23396.00
663.45	23592.60
663.60	23655.79
663.74	23630.05
663.88	23297.69
664.02	23344.50
664.17	23854.74
664.31	23503.66
664.45	23517.70
664.59	23323.44
664.73	23339.82
664.88	23407.70
665.02	23096.41
665.16	23269.61
665.30	23264.92
665.44	23119.81
665.59	22658.73
665.73	23117.47
665.87	22834.27
666.01	23241.52
666.15	23403.02
666.29	22916.19
666.44	23105.77
666.58	22642.34
666.72	22925.55
666.86	23197.05
667.00	23185.35
667.14	23101.09
667.28	22724.26
667.43	22548.72
667.57	22448.08
667.71	22593.19
667.85	22431.69
667.99	22698.52
668.13	22801.50
668.27	22677.45
668.41	22754.69
668.56	22473.82
668.70	22787.46
668.84	22691.49
668.98	22405.95
669.12	22452.76
669.26	22614.26
669.40	22450.42
669.54	22380.20
669.68	22309.99
669.82	22270.20
669.96	22029.12
670.10	22038.48
670.25	22267.86
670.39	21928.48
670.53	22099.34
670.67	21708.47
670.81	22185.94
670.95	21830.18
671.09	21757.62
671.23	22003.38
671.37	22033.80
671.51	21916.78
671.65	22061.89
671.79	21783.37
671.93	21776.34
672.07	21558.67
672.21	21598.46
672.35	21207.59
672.49	21511.86
672.63	21371.43
672.77	21488.46
672.91	21390.16
673.05	21532.93
673.19	21298.88
673.33	21207.59
673.47	21317.60
673.61	21156.10
673.75	21156.10
673.89	21359.73
674.03	21233.34
674.17	20938.43
674.31	20945.45
674.45	21270.79
674.59	20872.90
674.73	21163.12
674.87	20858.85
675.01	20767.57
675.15	20676.29
675.29	20765.23
675.43	20528.84
675.56	20819.07
675.70	20631.82
675.84	20615.44
675.98	20287.76
676.12	20470.33
676.26	20451.60
676.40	20217.55
676.54	20297.13
676.68	20336.91
676.82	20137.97
676.96	19901.58
677.10	19854.76
677.23	20034.99
677.37	20149.67
677.51	19688.59
677.65	20311.17
677.79	19555.18
677.93	19679.22
678.07	19515.39
678.21	19314.10
678.34	19489.64
678.48	19517.73
678.62	19339.85
678.76	19267.29
678.90	19267.29
679.04	19229.84
679.18	19183.03
679.31	18953.66
679.45	19042.60
679.59	18731.31
679.73	19044.94
679.87	18820.25
680.00	18780.46
680.14	18721.95
680.28	18974.72
680.42	19042.60
680.56	18670.45
680.70	18876.42
680.83	18883.44
680.97	18672.79
681.11	18441.08
681.25	18611.94
681.39	18693.86
681.52	18326.39
681.66	18244.48
681.80	18412.99
681.94	18345.12
682.07	18214.05
682.21	17970.63
682.35	17706.15
682.49	17937.87
682.62	17774.03
682.76	17509.55
682.90	17872.33
683.04	18045.53
683.17	17755.30
683.31	17687.43
683.45	17722.54
683.59	17577.42
683.72	17722.54
683.86	17619.55
684.00	17289.54
684.13	17568.06
684.27	17453.37
684.41	17326.99
684.55	17132.72
684.68	17039.10
684.82	16861.22
684.96	17106.98
685.09	16690.36
685.23	16741.85
685.37	16901.01
685.50	17034.42
685.64	17062.51
685.78	16823.77
685.91	16882.28
686.05	16697.38
686.19	16554.61
686.32	16840.15
686.46	16870.58
686.60	16123.95
686.73	16308.85
686.87	16236.30
687.01	16070.12
687.14	15920.32
687.28	15960.11
687.42	15861.81
687.55	16159.06
687.69	16119.27
687.82	16058.42
687.96	15999.90
688.10	15934.37
688.23	15775.21
688.37	15721.38
688.50	15861.81
688.64	15836.06
688.78	15618.39
688.91	15594.99
689.05	15459.24
689.18	15440.51
689.32	15377.32
689.46	15264.97
689.59	14991.13
689.73	15161.99
689.86	15033.26
690.00	15108.16
690.13	14857.72
690.27	14801.55
690.41	15012.20
690.54	15035.60
690.68	14918.57
690.81	14916.23
690.95	14878.79
691.08	14647.07
691.22	14743.03
691.35	14434.08
691.49	14462.17
691.62	14466.85
691.76	14242.16
691.89	14548.77
692.03	14127.47
692.16	14225.78
692.30	14413.02
692.43	14038.53
692.57	14272.59
692.70	13965.98
692.84	14113.43
692.97	13930.87
693.11	13785.76
693.24	13968.32
693.38	13694.47
693.51	13593.83
693.65	13659.37
693.78	13650.00
693.92	13661.71
694.05	13570.43
694.19	13268.50
694.32	13647.66
694.45	13411.27
694.59	13418.29
694.72	13099.98
694.86	13069.55
694.99	12812.09
695.13	13235.73
695.26	13195.94
695.39	12943.16
695.53	12917.42
695.66	13156.15
695.80	12800.39
695.93	12805.07
696.07	12889.33
696.20	12854.22
696.33	12872.95
696.47	12542.93
696.60	12404.84
696.73	12652.94
696.87	12592.08
697.00	12257.39
697.14	12182.49
697.27	12292.49
697.40	12191.85
697.54	12060.78
697.67	12046.74
697.80	11971.84
697.94	12039.72
698.07	11861.84
698.21	11779.92
698.34	12006.95
698.47	12072.48
698.61	12077.16
698.74	11976.52
698.87	11765.87
699.01	11672.25
699.14	11515.44
699.27	11468.62
699.40	11695.66
699.54	11548.20
699.67	11517.78
699.80	11377.34
699.94	11367.98
700.07	11370.32
700.20	11154.99
700.34	11077.76
700.47	11012.22
700.60	11091.80
700.73	11206.48
700.87	10995.84
701.00	10885.83
701.13	10867.11
701.26	11108.18
701.40	11056.69
701.53	10693.91
701.66	10717.31
701.79	10803.91
701.93	10626.03
702.06	10712.63
702.19	10450.49
702.32	10785.19
702.46	10635.39
702.59	10291.34
702.72	10167.29
702.85	10300.70
702.99	10235.16
703.12	10258.57
703.25	10242.18
703.38	10169.63
703.51	10216.44
703.65	10120.48
703.78	10167.29
703.91	10012.81
704.04	9970.68
704.17	9963.66
704.31	9982.38
704.44	9710.88
704.57	9919.19
704.70	9619.60
704.83	9659.39
704.96	9572.79
705.10	9624.28
705.23	9310.65
>>>>>End Processed Spectral Data<<<<<
