SpectraSuite Data File
++++++++++++++++++++++++++++++++++++
Date: Fri Oct 18 13:58:41 GMT-05:00 2013
User: bianchi
Dark Spectrum Present: No
Reference Spectrum Present: No
Number of Sampled Component Spectra: 1
Spectrometers: USB2+H05261
Integration Time (usec): 50000 (USB2+H05261)
Spectra Averaged: 1 (USB2+H05261)
Boxcar Smoothing: 0 (USB2+H05261)
Correct for Electrical Dark: No (USB2+H05261)
Strobe/Lamp Enabled: No (USB2+H05261)
Correct for Detector Non-linearity: No (USB2+H05261)
Correct for Stray Light: No (USB2+H05261)
Number of Pixels in Processed Spectrum: 2048
>>>>>Begin Processed Spectral Data<<<<<
365.73	0.00
365.92	0.00
366.12	0.00
366.32	0.00
366.52	0.00
366.72	0.00
366.91	0.00
367.11	0.00
367.31	0.00
367.51	0.00
367.70	0.00
367.90	0.00
368.10	0.00
368.30	0.00
368.49	0.00
368.69	0.00
368.89	0.00
369.09	0.00
369.28	0.00
369.48	0.00
369.68	0.00
369.87	0.00
370.07	0.00
370.27	0.00
370.47	0.00
370.66	81.92
370.86	65.54
371.06	161.50
371.25	93.62
371.45	147.45
371.65	175.54
371.84	191.92
372.04	184.90
372.24	208.31
372.44	187.24
372.63	205.97
372.83	255.12
373.03	198.95
373.22	259.80
373.42	205.97
373.62	194.26
373.81	236.39
374.01	238.73
374.21	229.37
374.40	163.84
374.60	290.23
374.79	259.80
374.99	208.31
375.19	210.65
375.38	198.95
375.58	184.90
375.78	236.39
375.97	283.20
376.17	278.52
376.37	212.99
376.56	224.69
376.76	325.33
376.95	292.57
377.15	266.82
377.35	243.42
377.54	189.58
377.74	278.52
377.93	276.18
378.13	273.84
378.33	346.40
378.52	315.97
378.72	262.14
378.91	269.16
379.11	301.93
379.31	252.78
379.50	222.35
379.70	264.48
379.89	285.55
380.09	269.16
380.28	250.44
380.48	294.91
380.68	355.76
380.87	292.57
381.07	381.51
381.26	294.91
381.46	428.32
381.65	299.59
381.85	322.99
382.04	355.76
382.24	313.63
382.43	245.76
382.63	379.17
382.83	360.44
383.02	383.85
383.22	322.99
383.41	294.91
383.61	325.33
383.80	369.80
384.00	334.70
384.19	362.78
384.39	344.06
384.58	318.31
384.78	334.70
384.97	404.91
385.17	383.85
385.36	341.72
385.56	341.72
385.75	339.38
385.95	393.21
386.14	315.97
386.34	437.68
386.53	339.38
386.72	433.00
386.92	461.09
387.11	449.38
387.31	390.87
387.50	437.68
387.70	428.32
387.89	414.27
388.09	458.74
388.28	416.62
388.48	489.17
388.67	458.74
388.86	414.27
389.06	463.43
389.25	444.70
389.45	454.06
389.64	444.70
389.84	608.54
390.03	386.19
390.22	533.64
390.42	500.87
390.61	484.49
390.81	493.85
391.00	442.36
391.19	524.28
391.39	533.64
391.58	507.90
391.78	496.19
391.97	528.96
392.16	493.85
392.36	507.90
392.55	550.03
392.75	526.62
392.94	526.62
393.13	543.00
393.33	573.43
393.52	564.07
393.71	521.94
393.91	552.37
394.10	550.03
394.29	578.11
394.49	564.07
394.68	613.22
394.88	538.32
395.07	557.05
395.26	608.54
395.46	601.52
395.65	617.90
395.84	671.73
396.04	617.90
396.23	610.88
396.42	608.54
396.62	702.16
396.81	746.63
397.00	685.78
397.19	664.71
397.39	627.26
397.58	575.77
397.77	669.39
397.97	578.11
398.16	655.35
398.35	688.12
398.55	678.76
398.74	765.36
398.93	772.38
399.12	690.46
399.32	695.14
399.51	629.60
399.70	758.33
399.90	748.97
400.09	741.95
400.28	727.91
400.47	779.40
400.67	791.10
400.86	739.61
401.05	732.59
401.24	788.76
401.44	753.65
401.63	884.72
401.82	816.85
402.01	760.67
402.21	884.72
402.40	704.50
402.59	856.64
402.78	870.68
402.97	826.21
403.17	835.57
403.36	812.17
403.55	882.38
403.74	858.98
403.93	880.04
404.13	868.34
404.32	868.34
404.51	922.17
404.70	947.92
404.89	844.93
405.09	936.21
405.28	887.06
405.47	929.19
405.66	933.87
405.85	924.51
406.05	931.53
406.24	973.66
406.43	990.05
406.62	1011.11
406.81	997.07
407.00	978.34
407.20	936.21
407.39	971.32
407.58	1020.47
407.77	940.90
407.96	1078.99
408.15	1032.18
408.34	926.85
408.54	1053.24
408.73	1046.22
408.92	1090.69
409.11	1130.48
409.30	1015.79
409.49	1139.84
409.68	1158.57
409.87	1139.84
410.07	1191.33
410.26	1114.10
410.45	1114.10
410.64	1135.16
410.83	1263.89
411.02	1200.69
411.21	1242.82
411.40	1252.19
411.59	1263.89
411.78	1299.00
411.98	1275.59
412.17	1198.35
412.36	1359.85
412.55	1327.08
412.74	1287.29
412.93	1425.39
413.12	1310.70
413.31	1497.94
413.50	1425.39
413.69	1355.17
413.88	1462.83
414.07	1469.86
414.26	1516.67
414.45	1467.52
414.64	1362.19
414.83	1516.67
415.02	1432.41
415.22	1586.88
415.41	1535.39
415.60	1584.54
415.79	1519.01
415.98	1528.37
416.17	1631.35
416.36	1575.18
416.55	1621.99
416.74	1612.63
416.93	1675.82
417.12	1610.29
417.31	1715.61
417.50	1629.01
417.69	1799.87
417.88	1647.74
418.07	1739.02
418.26	1774.13
418.45	1689.87
418.64	1746.04
418.83	1710.93
419.02	1724.97
419.21	1748.38
419.39	1685.19
419.58	1806.89
419.77	1842.00
419.96	1797.53
420.15	1905.20
420.34	1877.11
420.53	1839.66
420.72	1825.62
420.91	1825.62
421.10	1837.32
421.29	2071.37
421.48	1980.09
421.67	1940.30
421.86	1949.67
422.05	1888.81
422.24	1877.11
422.43	1888.81
422.61	2073.71
422.80	2010.52
422.99	1961.37
423.18	2148.61
423.37	2059.67
423.56	2024.56
423.75	1940.30
423.94	1949.67
424.13	1874.77
424.32	2054.99
424.50	1984.77
424.69	2059.67
424.88	2052.65
425.07	1977.75
425.26	2054.99
425.45	1970.73
425.64	2083.08
425.83	1998.82
426.01	2071.37
426.20	1942.64
426.39	1937.96
426.58	2008.18
426.77	2057.33
426.96	2085.42
427.15	2057.33
427.33	2076.06
427.52	2153.29
427.71	2312.45
427.90	2050.31
428.09	2172.02
428.28	2195.42
428.46	2125.21
428.65	2160.31
428.84	2101.80
429.03	2260.96
429.22	2148.61
429.40	2193.08
429.59	2279.68
429.78	2059.67
429.97	2125.21
430.16	2157.97
430.34	2216.49
430.53	2321.81
430.72	2345.22
430.91	2195.42
431.10	2305.43
431.28	2338.20
431.47	2452.88
431.66	2399.05
431.85	2239.89
432.03	2394.37
432.22	2455.22
432.41	2326.49
432.60	2548.84
432.79	2324.15
432.97	2544.16
433.16	2420.11
433.35	2434.16
433.54	2602.68
433.72	2581.61
433.91	2537.14
434.10	2537.14
434.28	2541.82
434.47	2380.32
434.66	2473.95
434.85	2527.78
435.03	2619.06
435.22	2520.76
435.41	2630.76
435.59	2640.12
435.78	2593.31
435.97	2719.70
436.16	2684.59
436.34	2672.89
436.53	2724.38
436.72	2717.36
436.90	2635.44
437.09	2703.32
437.28	2644.81
437.46	2656.51
437.65	2750.13
437.84	2768.85
438.02	2682.25
438.21	2871.84
438.40	2750.13
438.58	2853.11
438.77	2754.81
438.96	2836.73
439.14	2862.48
439.33	2998.23
439.52	2960.78
439.70	2958.44
439.89	3014.61
440.08	2932.69
440.26	3096.53
440.45	3021.63
440.63	2986.52
440.82	3171.43
441.01	3150.36
441.19	3105.89
441.38	3054.40
441.57	3194.83
441.75	3297.81
441.94	3356.33
442.12	3297.81
442.31	3325.90
442.50	3297.81
442.68	3143.34
442.87	3342.28
443.05	3396.12
443.24	3431.23
443.43	3311.86
443.61	3449.95
443.80	3412.50
443.98	3267.39
444.17	3260.37
444.35	3508.46
444.54	3428.88
444.73	3410.16
444.91	3428.88
445.10	3400.80
445.28	3431.23
445.47	3279.09
445.65	3232.28
445.84	3463.99
446.02	3466.33
446.21	3393.78
446.39	3531.87
446.58	3438.25
446.77	3471.01
446.95	3522.51
447.14	3447.61
447.32	3466.33
447.51	3480.38
447.69	3641.87
447.88	3501.44
448.06	3412.50
448.25	3529.53
448.43	3508.46
448.62	3492.08
448.80	3424.20
448.99	3515.48
449.17	3536.55
449.36	3405.48
449.54	3688.68
449.73	3552.93
449.91	3758.90
450.10	3730.81
450.28	3817.41
450.46	3723.79
450.65	3669.96
450.83	3805.71
451.02	3779.97
451.20	3775.28
451.39	3740.18
451.57	3826.78
451.76	3660.60
451.94	3805.71
452.13	3833.80
452.31	3679.32
452.49	3693.37
452.68	3686.34
452.86	3819.75
453.05	3866.56
453.23	3871.25
453.42	3859.54
453.60	3775.28
453.78	3899.33
453.97	3765.92
454.15	3990.61
454.34	3845.50
454.52	4028.06
454.70	3894.65
454.89	3948.48
455.07	3960.19
455.26	4067.85
455.44	4039.76
455.62	4088.92
455.81	4117.00
455.99	4023.38
456.17	4072.53
456.36	4109.98
456.54	4271.48
456.73	4257.43
456.91	4241.05
457.09	4198.92
457.28	4252.75
457.46	4315.95
457.64	4451.70
457.83	4332.33
458.01	4212.96
458.19	4348.72
458.38	4444.68
458.56	4402.55
458.74	4430.63
458.93	4388.50
459.11	4521.92
459.29	4493.83
459.48	4517.23
459.66	4521.92
459.84	4557.02
460.03	4652.98
460.21	4507.87
460.39	4526.60
460.57	4362.76
460.76	4631.92
460.94	4727.88
461.12	4596.81
461.31	4580.43
461.49	4526.60
461.67	4770.01
461.85	4627.24
462.04	4823.84
462.22	4748.95
462.40	4795.76
462.59	4723.20
462.77	4699.80
462.95	4655.33
463.13	4835.55
463.32	4849.59
463.50	4786.40
463.68	4807.46
463.86	4828.53
464.05	4711.50
464.23	4835.55
464.41	4908.10
464.59	4784.06
464.78	4994.70
464.96	4786.40
465.14	4915.12
465.32	4922.15
465.50	4926.83
465.69	4940.87
465.87	4947.89
466.05	4894.06
466.23	4997.04
466.41	5153.86
466.60	5210.03
466.78	4954.91
466.96	4968.96
467.14	5142.16
467.32	5170.24
467.51	5076.62
467.69	4954.91
467.87	5050.88
468.05	5043.85
468.23	4990.02
468.41	5116.41
468.60	5179.61
468.78	5242.80
468.96	5032.15
469.14	5219.39
469.32	5198.33
469.50	5100.03
469.69	5294.29
469.87	5441.75
470.05	5444.09
470.23	5420.68
470.41	5263.86
470.59	5359.83
470.77	5561.11
470.95	5390.25
471.14	5577.50
471.32	5268.55
471.50	5720.27
471.68	5617.29
471.86	5523.66
472.04	5570.48
472.22	5853.68
472.40	5736.65
472.58	5844.32
472.77	5762.40
472.95	5771.76
473.13	6101.78
473.31	5785.80
473.49	5837.30
473.67	5886.45
473.85	5774.10
474.03	6038.58
474.21	5886.45
474.39	5975.39
474.57	5914.53
474.75	6132.20
474.93	6272.64
475.12	6106.46
475.30	6193.06
475.48	6209.44
475.66	6258.59
475.84	6342.85
476.02	6230.51
476.20	6129.86
476.38	6455.20
476.56	6562.86
476.74	6502.01
476.92	6604.99
477.10	6415.41
477.28	6422.43
477.46	6483.28
477.64	6579.25
477.82	6825.00
478.00	6881.18
478.18	6883.52
478.36	6963.09
478.54	6850.75
478.72	6988.84
478.90	7138.63
479.08	7068.42
479.26	7180.76
479.44	7241.62
479.62	7307.15
479.80	7286.09
479.98	7433.54
480.16	7478.01
480.34	7323.54
480.52	7749.51
480.70	7564.61
480.88	7510.78
481.06	7508.44
481.24	7644.19
481.41	7859.52
481.59	7922.71
481.77	8023.36
481.95	7946.12
482.13	8170.81
482.31	8004.63
482.49	8339.33
482.67	8325.29
482.85	8147.40
483.03	8285.50
483.21	8470.40
483.39	8484.44
483.57	8592.11
483.74	8510.19
483.92	8580.40
484.10	8674.03
484.28	8938.51
484.46	8905.74
484.64	8922.12
484.82	8945.53
485.00	8875.31
485.18	9081.28
485.35	9486.19
485.53	9266.18
485.71	9303.63
485.89	9600.88
486.07	9528.32
486.25	9530.66
486.43	9671.09
486.61	9708.54
486.78	9734.29
486.96	9874.72
487.14	10136.86
487.32	10015.15
487.50	10171.97
487.68	10169.63
487.85	10321.76
488.03	10452.83
488.21	10417.72
488.39	10551.14
488.57	10679.86
488.75	10876.47
488.92	10815.62
489.10	10904.56
489.28	10913.92
489.46	11213.51
489.64	11096.48
489.81	11178.40
489.99	11239.25
490.17	11456.92
490.35	11522.46
490.53	11314.15
490.70	11566.93
490.88	11630.12
491.06	11786.94
491.24	11456.92
491.41	11623.10
491.59	11606.72
491.77	11922.69
491.95	12042.06
492.13	12049.08
492.30	12444.63
492.48	12353.35
492.66	12191.85
492.84	12250.36
493.01	12526.55
493.19	12372.07
493.37	12650.60
493.54	12697.41
493.72	12776.98
493.90	12814.43
494.08	12779.32
494.25	13048.49
494.43	13142.11
494.61	13209.98
494.79	13273.18
494.96	13163.17
495.14	13352.76
495.32	13427.65
495.49	13338.71
495.67	13645.32
495.85	13577.45
496.02	13710.86
496.20	13830.23
496.38	13797.46
496.55	13930.87
496.73	14185.99
496.91	13823.20
497.09	14071.30
497.26	14317.06
497.44	14244.50
497.62	14052.58
497.79	14644.73
497.97	14609.62
498.14	14771.12
498.32	14906.87
498.50	14892.83
498.67	15145.61
498.85	15054.33
499.03	14993.47
499.20	15059.01
499.38	14958.36
499.56	15026.24
499.73	15330.51
499.91	15257.95
500.08	15318.81
500.26	15089.43
500.44	15346.89
500.61	15410.09
500.79	15295.40
500.97	15489.67
501.14	15943.73
501.32	15873.51
501.49	15541.16
501.67	15995.22
501.84	15817.34
502.02	15995.22
502.20	15922.66
502.37	16084.16
502.55	16074.80
502.72	16173.10
502.90	16100.55
503.07	16130.97
503.25	16084.16
503.43	16152.04
503.60	16418.86
503.78	16336.94
503.95	16580.36
504.13	16568.65
504.30	16718.45
504.48	16449.28
504.65	16589.72
504.83	16952.50
505.01	16924.41
505.18	17165.49
505.36	17149.11
505.53	16994.63
505.71	17151.45
505.88	17216.98
506.06	17114.00
506.23	17338.69
506.41	17202.94
506.58	17205.28
506.76	17130.38
506.93	17275.49
507.11	17282.52
507.28	17722.54
507.46	17561.04
507.63	17577.42
507.81	17797.43
507.98	17649.98
508.16	17635.94
508.33	17668.70
508.50	17783.39
508.68	17624.23
508.85	18160.22
509.03	17713.17
509.20	18036.17
509.38	17991.70
509.55	18218.73
509.73	18352.14
509.90	18181.28
510.08	18321.71
510.25	18459.81
510.42	18518.32
510.60	18719.60
510.77	18579.17
510.95	18721.95
511.12	18663.43
511.30	18658.75
511.47	18464.49
511.64	18836.63
511.82	18939.62
511.99	18700.88
512.17	19066.00
512.34	18899.83
512.51	18974.72
512.69	19161.97
512.86	19190.05
513.04	19447.51
513.21	19344.53
513.38	19066.00
513.56	19281.33
513.73	19281.33
513.90	19578.58
514.08	19501.34
514.25	19384.32
514.43	19672.20
514.60	19545.81
514.77	20049.03
514.95	19871.15
515.12	19875.83
515.29	19374.95
515.47	19915.62
515.64	20130.95
515.81	19983.49
515.99	20091.16
516.16	20343.94
516.33	20463.30
516.51	20350.96
516.68	20133.29
516.85	20184.78
517.03	20156.69
517.20	20308.83
517.37	20397.77
517.54	20629.48
517.72	20765.23
517.89	20271.38
518.06	20287.76
518.24	20402.45
518.41	20318.19
518.58	20575.65
518.75	20751.19
518.93	20844.81
519.10	20603.74
519.27	20830.77
519.45	21099.93
519.62	20716.08
519.79	21298.88
519.96	21013.33
520.14	20996.95
520.31	21113.97
520.48	21139.72
520.65	21109.29
520.83	21158.44
521.00	21446.33
521.17	21289.51
521.34	21282.49
521.52	21537.61
521.69	21324.62
521.86	21570.38
522.03	21884.01
522.20	21539.95
522.38	21549.31
522.55	21766.98
522.72	21874.65
522.89	22082.95
523.07	22113.38
523.24	21855.92
523.41	22073.59
523.58	21935.50
523.75	21809.11
523.92	21872.31
524.10	22267.86
524.27	21778.68
524.44	22153.17
524.61	22515.95
524.78	22438.72
524.96	22263.18
525.13	22644.68
525.30	22527.66
525.47	22403.61
525.64	22445.74
525.81	22391.91
525.98	22733.62
526.16	22448.08
526.33	22520.63
526.50	23129.17
526.67	22623.62
526.84	22881.08
527.01	22948.95
527.18	23068.32
527.36	22927.89
527.53	23012.15
527.70	23218.11
527.87	23489.62
528.04	23271.95
528.21	23349.18
528.38	22948.95
528.55	23000.44
528.72	23468.55
528.89	23271.95
529.07	23084.70
529.24	23211.09
529.41	23187.69
529.58	23316.42
529.75	22841.29
529.92	23559.83
530.09	23426.42
530.26	23585.58
530.43	23538.77
530.60	23417.06
530.77	23716.65
530.94	23573.88
531.11	23393.65
531.28	23639.41
531.46	23637.07
531.63	23894.53
531.80	24013.90
531.97	23894.53
532.14	23913.25
532.31	23770.48
532.48	23810.27
532.65	24308.80
532.82	23948.36
532.99	24088.79
533.16	24067.73
533.33	24187.10
533.50	24313.48
533.67	24264.33
533.84	24341.57
534.01	24393.06
534.18	24252.63
534.35	24460.94
534.52	24861.17
534.69	24456.26
534.86	24577.97
535.03	24304.12
535.20	24659.88
535.37	24947.77
535.54	24540.52
535.71	24528.81
535.88	24507.75
536.05	24659.88
536.22	24903.30
536.38	24802.66
536.55	24872.87
536.72	24847.13
536.89	24865.85
537.06	25191.19
537.23	24922.02
537.40	24919.68
537.57	24907.98
537.74	24886.92
537.91	25156.08
538.08	25165.44
538.25	25060.12
538.42	25453.33
538.59	25378.43
538.75	25111.61
538.92	25205.23
539.09	25296.51
539.26	25053.09
539.43	25268.42
539.60	25116.29
539.77	25514.18
539.94	25348.00
540.11	25558.65
540.28	25518.86
540.44	25481.41
540.61	25523.54
540.78	25373.75
540.95	25338.64
541.12	25556.31
541.29	25741.21
541.46	25654.61
541.62	25703.76
541.79	25773.98
541.96	25748.23
542.13	25638.23
542.30	25654.61
542.47	25790.36
542.63	25869.94
542.80	26096.97
542.97	26206.98
543.14	25729.51
543.31	26274.85
543.48	25898.03
543.64	26604.87
543.81	26356.77
543.98	26471.46
544.15	26600.19
544.32	26654.02
544.48	26785.09
544.65	26817.86
544.82	26520.61
544.99	26085.27
545.16	26295.92
545.32	26209.32
545.49	26625.93
545.66	26775.73
545.83	26815.52
546.00	26808.50
546.16	26810.84
546.33	26190.59
546.50	26333.37
546.67	26551.04
546.83	26569.76
547.00	26745.30
547.17	26773.39
547.34	26927.86
547.50	26969.99
547.67	27208.73
547.84	27131.49
548.00	26726.58
548.17	27138.51
548.34	27108.08
548.51	27438.10
548.67	27269.58
548.84	27285.97
549.01	27307.03
549.18	27274.26
549.34	27215.75
549.51	27065.96
549.68	26953.61
549.84	26906.80
550.01	27297.67
550.18	26984.04
550.34	27367.88
550.51	27435.76
550.68	27445.12
550.84	26874.03
551.01	27564.49
551.18	27143.19
551.34	27190.00
551.51	27295.33
551.68	27791.52
551.84	27791.52
552.01	27543.42
552.18	27517.68
552.34	27557.47
552.51	27318.73
552.68	27850.03
552.84	27824.29
553.01	27459.16
553.18	27384.27
553.34	27803.22
553.51	27594.92
553.67	28144.94
553.84	28175.37
554.01	27819.61
554.17	27765.78
554.34	27791.52
554.51	27550.45
554.67	27672.15
554.84	27901.53
555.00	27924.93
555.17	28208.14
555.33	28151.96
555.50	28325.16
555.67	27995.15
555.83	28369.63
556.00	28128.56
556.16	28306.44
556.33	27922.59
556.50	28489.00
556.66	28381.34
556.83	28416.44
556.99	28245.58
557.16	28285.37
557.32	28058.34
557.49	28224.52
557.65	28084.09
557.82	28205.80
557.98	28240.90
558.15	28091.11
558.32	28645.82
558.48	28257.29
558.65	28458.57
558.81	28376.66
558.98	28690.29
559.14	28535.81
559.31	28769.86
559.47	27990.47
559.64	28507.72
559.80	28680.92
559.97	28809.65
560.13	29027.32
560.30	28638.80
560.46	28655.18
560.63	28517.09
560.79	29076.48
560.96	28531.13
561.12	28914.98
561.29	28376.66
561.45	28549.85
561.61	28664.54
561.78	28980.51
561.94	28678.58
562.11	28563.90
562.27	28542.83
562.44	28706.67
562.60	28587.30
562.77	28638.80
562.93	28662.20
563.10	28980.51
563.26	28477.30
563.42	29191.16
563.59	28709.01
563.75	29060.09
563.92	28690.29
564.08	28980.51
564.24	29095.20
564.41	28596.67
564.57	28924.34
564.74	28912.64
564.90	29221.59
565.07	29010.94
565.23	29308.19
565.39	29216.91
565.56	28975.83
565.72	28807.31
565.88	28994.56
566.05	28774.55
566.21	28737.10
566.38	29156.05
566.54	29067.11
566.70	28924.34
566.87	29249.67
567.03	29195.84
567.19	29294.14
567.36	29226.27
567.52	29151.37
567.68	29298.83
567.85	29249.67
568.01	29039.03
568.17	29006.26
568.34	29425.22
568.50	29546.92
568.66	28868.17
568.83	29235.63
568.99	29441.60
569.15	29123.29
569.32	29207.55
569.48	28978.17
569.64	29041.37
569.81	29343.30
569.97	29500.11
570.13	29558.63
570.30	28872.85
570.46	29347.98
570.62	29219.25
570.78	29628.84
570.95	28947.75
571.11	29268.40
571.27	29373.72
571.43	29308.19
571.60	29078.82
571.76	29336.27
571.92	29326.91
572.09	29476.71
572.25	29591.39
572.41	29612.46
572.57	29387.77
572.74	29397.13
572.90	29455.64
573.06	29612.46
573.22	28999.24
573.38	29343.30
573.55	29729.48
573.71	29589.05
573.87	29750.55
574.03	29649.91
574.20	29530.54
574.36	29291.80
574.52	29462.66
574.68	28957.11
574.84	29212.23
575.01	29472.03
575.17	29738.85
575.33	29289.46
575.49	29315.21
575.65	29972.90
575.82	29708.42
575.98	29378.40
576.14	29879.28
576.30	29504.79
576.46	29432.24
576.62	29408.83
576.79	29301.17
576.95	29308.19
577.11	29326.91
577.27	29551.60
577.43	29898.00
577.59	29394.79
577.75	29567.99
577.92	29975.24
578.08	29567.99
578.24	29244.99
578.40	29219.25
578.56	29343.30
578.72	29783.32
578.88	29921.41
579.04	30087.59
579.21	29570.33
579.37	29560.97
579.53	29635.86
579.69	29486.07
579.85	29858.21
580.01	29500.11
580.17	29762.25
580.33	29333.93
580.49	29642.88
580.65	30073.54
580.82	29666.29
580.98	29890.98
581.14	30085.25
581.30	30022.05
581.46	29823.11
581.62	29343.30
581.78	29500.11
581.94	29888.64
582.10	29446.28
582.26	29408.83
582.42	29745.87
582.58	29626.50
582.74	29905.02
582.90	29663.95
583.06	29654.59
583.22	29991.62
583.38	29895.66
583.54	29586.71
583.70	29706.08
583.86	30087.59
584.02	29425.22
584.18	29575.01
584.34	29874.60
584.50	29759.91
584.66	29935.45
584.82	29649.91
584.98	29544.58
585.14	29399.47
585.30	29624.16
585.46	30047.80
585.62	29556.28
585.78	29883.96
585.94	29954.18
586.10	30050.14
586.26	29834.81
586.42	30319.30
586.58	29993.97
586.74	29584.37
586.90	29806.72
587.06	29820.77
587.22	29654.59
587.38	30221.00
587.54	30110.99
587.70	30267.81
587.86	30075.88
588.02	30181.21
588.18	30047.80
588.34	29914.39
588.49	29937.79
588.65	29867.58
588.81	29755.23
588.97	30251.42
589.13	29694.38
589.29	29579.69
589.45	30153.12
589.61	30260.79
589.77	30338.02
589.93	30635.27
590.08	30157.80
590.24	29975.24
590.40	30438.67
590.56	30405.90
590.72	30022.05
590.88	29710.76
591.04	29785.66
591.20	30321.64
591.35	30183.55
591.51	30572.08
591.67	30649.32
591.83	30560.37
591.99	30033.75
592.15	30307.60
592.31	30181.21
592.46	30424.62
592.62	29919.07
592.78	30340.36
592.94	30120.35
593.10	30237.38
593.26	30033.75
593.41	30522.93
593.57	30338.02
593.73	30295.89
593.89	30323.98
594.05	30363.77
594.20	30272.49
594.36	30022.05
594.52	30363.77
594.68	29750.55
594.84	30160.14
594.99	30525.27
595.15	29989.28
595.31	30352.07
595.47	30490.16
595.62	30731.23
595.78	30382.49
595.94	30298.23
596.10	30534.63
596.25	30445.69
596.41	30305.26
596.57	29876.94
596.73	30185.89
596.88	30146.10
597.04	30707.83
597.20	30796.77
597.36	30429.30
597.51	30445.69
597.67	30593.14
597.83	30127.38
597.99	30415.26
598.14	29996.31
598.30	30665.70
598.46	30356.75
598.61	30490.16
598.77	30522.93
598.93	30576.76
599.09	30146.10
599.24	30745.28
599.40	30834.22
599.56	30403.56
599.71	30338.02
599.87	30782.73
600.03	30480.80
600.18	30239.72
600.34	30352.07
600.50	30185.89
600.65	30323.98
600.81	30352.07
600.97	30394.20
601.12	30625.91
601.28	30499.52
601.44	30527.61
601.59	30272.49
601.75	30298.23
601.91	30574.42
602.06	30422.28
602.22	30473.78
602.37	30113.33
602.53	30389.52
602.69	30436.33
602.84	30291.21
603.00	30632.93
603.16	30284.19
603.31	30473.78
603.47	30654.00
603.62	30160.14
603.78	30609.53
603.94	30288.87
604.09	30209.29
604.25	30515.90
604.40	30382.49
604.56	30178.87
604.71	30735.92
604.87	30223.34
605.03	30483.14
605.18	30335.68
605.34	30335.68
605.49	30312.28
605.65	30532.29
605.80	29937.79
605.96	30052.48
606.12	30036.09
606.27	30445.69
606.43	30050.14
606.58	30565.06
606.74	30288.87
606.89	30349.73
607.05	30513.56
607.20	30174.19
607.36	30192.91
607.51	30000.99
607.67	30450.37
607.82	30134.40
607.98	30127.38
608.13	29795.02
608.29	30403.56
608.44	30370.79
608.60	30127.38
608.75	30714.85
608.91	30188.23
609.06	30216.32
609.22	30319.30
609.37	29617.14
609.53	30174.19
609.68	29900.34
609.84	30085.25
609.99	29762.25
610.15	30061.84
610.30	30366.11
610.46	29963.54
610.61	30497.18
610.76	30143.76
610.92	29876.94
611.07	30405.90
611.23	30099.29
611.38	30323.98
611.54	29825.45
611.69	29933.11
611.84	29865.24
612.00	29785.66
612.15	30099.29
612.31	29802.04
612.46	30206.95
612.62	30251.42
612.77	29687.36
612.92	29802.04
613.08	29970.56
613.23	29963.54
613.39	29905.02
613.54	29490.75
613.69	29462.66
613.85	29755.23
614.00	29926.09
614.15	29848.85
614.31	29567.99
614.46	30284.19
614.62	29720.12
614.77	29811.40
614.92	29947.15
615.08	29575.01
615.23	29806.72
615.38	29722.46
615.54	29350.32
615.69	29149.03
615.84	29549.26
616.00	29823.11
616.15	29560.97
616.30	29429.90
616.46	29802.04
616.61	29703.74
616.76	29682.67
616.92	29539.90
617.07	29736.51
617.22	29345.64
617.37	29160.73
617.53	29465.00
617.68	29687.36
617.83	29366.70
617.99	28996.90
618.14	29518.84
618.29	29298.83
618.45	29654.59
618.60	29661.61
618.75	29406.49
618.90	29429.90
619.06	29170.10
619.21	29539.90
619.36	29514.16
619.51	29186.48
619.67	29226.27
619.82	28830.72
619.97	29263.72
620.12	29221.59
620.28	29369.04
620.43	29315.21
620.58	29123.29
620.73	29591.39
620.89	29413.51
621.04	29111.58
621.19	28940.72
621.34	29207.55
621.49	29146.69
621.65	29252.02
621.80	29127.97
621.95	29106.90
622.10	28914.98
622.25	28987.53
622.41	28994.56
622.56	28929.02
622.71	29291.80
622.86	28774.55
623.01	29205.20
623.16	28779.23
623.32	28961.79
623.47	28975.83
623.62	29003.92
623.77	29078.82
623.92	29186.48
624.07	29029.66
624.23	28744.12
624.38	28741.78
624.53	28594.32
624.68	29090.52
624.83	29069.45
624.98	29071.79
625.13	28652.84
625.29	29013.28
625.44	28629.43
625.59	28376.66
625.74	28856.46
625.89	28184.73
626.04	28072.39
626.19	28037.28
626.34	28416.44
626.49	28669.22
626.65	28357.93
626.80	28453.89
626.95	28371.97
627.10	28259.63
627.25	28479.64
627.40	28252.61
627.55	28641.14
627.70	28374.31
627.85	28114.52
628.00	28044.30
628.15	28018.55
628.30	28205.80
628.45	28589.64
628.60	28322.82
628.76	28390.70
628.91	28343.89
629.06	28332.18
629.21	28182.39
629.36	28156.64
629.51	28077.07
629.66	28376.66
629.81	27910.89
629.96	27709.60
630.11	27962.38
630.26	27623.00
630.41	27906.21
630.56	27941.32
630.71	28126.22
630.86	27763.43
631.01	28276.01
631.16	28334.53
631.31	28294.74
631.46	28144.94
631.61	28147.28
631.76	27735.35
631.91	27878.12
632.06	27358.52
632.21	28259.63
632.36	27786.84
632.51	27639.39
632.66	27917.91
632.81	27838.33
632.96	27718.96
633.10	28236.22
633.25	27515.34
633.40	27791.52
633.55	27779.82
633.70	27496.61
633.85	27363.20
634.00	27660.45
634.15	27379.59
634.30	27501.29
634.45	27419.38
634.60	27543.42
634.75	27543.42
634.90	27763.43
635.05	27796.20
635.19	27592.58
635.34	27754.07
635.49	27840.67
635.64	27417.04
635.79	27381.93
635.94	27468.53
636.09	27906.21
636.24	27248.52
636.39	27332.78
636.53	27545.76
636.68	27321.07
636.83	27157.24
636.98	27639.39
637.13	27615.98
637.28	27307.03
637.43	27679.18
637.57	27307.03
637.72	26984.04
637.87	27072.98
638.02	27262.56
638.17	27374.91
638.32	26890.41
638.46	27213.41
638.61	27297.67
638.76	26562.74
638.91	27002.76
639.06	27063.61
639.20	27129.15
639.35	27133.83
639.50	27098.72
639.65	27285.97
639.80	27147.87
639.94	27089.36
640.09	26794.45
640.24	27023.83
640.39	26988.72
640.54	26796.79
640.68	26838.92
640.83	26881.05
640.98	26216.34
641.13	26717.22
641.27	26782.75
641.42	26607.21
641.57	26740.62
641.72	27150.21
641.86	26700.83
642.01	26874.03
642.16	26536.99
642.31	26118.04
642.45	26686.79
642.60	26679.77
642.75	26225.70
642.90	26277.19
643.04	26431.67
643.19	26321.66
643.34	26251.45
643.48	26733.60
643.63	26588.49
643.78	26300.60
643.93	26277.19
644.07	26787.43
644.22	26789.77
644.37	26686.79
644.51	26417.63
644.66	26787.43
644.81	26581.46
644.95	26164.85
645.10	26525.29
645.25	26471.46
645.39	25982.29
645.54	26094.63
645.69	26499.55
645.83	26291.24
645.98	26462.10
646.13	26024.42
646.27	26485.50
646.42	26572.10
646.57	26263.15
646.71	26094.63
646.86	26214.00
647.00	25715.47
647.15	26333.37
647.30	26118.04
647.44	25891.01
647.59	25919.09
647.74	26050.16
647.88	25886.32
648.03	26136.76
648.17	26167.19
648.32	25958.88
648.47	25968.24
648.61	26096.97
648.76	26199.96
648.90	26429.33
649.05	26190.59
649.20	26031.44
649.34	25986.97
649.49	25991.65
649.63	26111.02
649.78	25652.27
649.92	25553.97
650.07	26206.98
650.21	26082.93
650.36	25865.26
650.51	25640.57
650.65	25727.17
650.80	25710.78
650.94	25551.63
651.09	25638.23
651.23	25535.24
651.38	25539.93
651.52	25462.69
651.67	25717.81
651.81	25675.68
651.96	25813.77
652.10	25528.22
652.25	25827.81
652.39	25970.58
652.54	25848.88
652.68	25577.37
652.83	25696.74
652.97	25795.04
653.12	25710.78
653.26	25572.69
653.41	25689.72
653.55	25137.35
653.70	25348.00
653.84	25294.17
653.99	25614.82
654.13	25706.10
654.27	25153.74
654.42	25408.86
654.56	25509.50
654.71	25411.20
654.85	25371.41
655.00	25551.63
655.14	25455.67
655.29	25055.43
655.43	25312.89
655.57	25177.14
655.72	25123.31
655.86	25261.40
656.01	25172.46
656.15	24936.07
656.30	25202.89
656.44	25193.53
656.58	25022.67
656.73	24996.92
656.87	24999.26
657.01	25280.13
657.16	25109.27
657.30	25301.19
657.45	24594.35
657.59	24992.24
657.73	24812.02
657.88	25074.16
658.02	25050.75
658.16	25181.82
658.31	24713.72
658.45	24748.82
658.60	24687.97
658.74	24671.59
658.88	24589.67
659.03	24739.46
659.17	24753.51
659.31	24730.10
659.46	24573.28
659.60	24999.26
659.74	24603.71
659.89	24690.31
660.03	24390.72
660.17	24465.62
660.32	24596.69
660.46	24460.94
660.60	24301.78
660.74	24128.58
660.89	24533.50
661.03	24140.29
661.17	24355.61
661.32	24247.95
661.46	24187.10
661.60	24636.48
661.74	24474.98
661.89	24414.13
662.03	24407.11
662.17	24123.90
662.31	24093.47
662.46	23922.62
662.60	24191.78
662.74	24201.14
662.88	23915.59
663.03	23922.62
663.17	23735.37
663.31	23845.38
663.45	24044.32
663.60	23843.04
663.74	23740.05
663.88	23985.81
664.02	23349.18
664.17	23915.59
664.31	23716.65
664.45	23477.91
664.59	23735.37
664.73	23379.61
664.88	23740.05
665.02	23342.16
665.16	23065.98
665.30	23314.08
665.44	23187.69
665.59	23241.52
665.73	23400.68
665.87	23098.75
666.01	23489.62
666.15	23339.82
666.29	23178.33
666.44	23229.82
666.58	23332.80
666.72	23159.60
666.86	23082.36
667.00	23255.56
667.14	23332.80
667.28	22991.08
667.43	22787.46
667.57	23037.89
667.71	22979.38
667.85	23000.44
667.99	22785.12
668.13	22473.82
668.27	22991.08
668.41	22941.93
668.56	22614.26
668.70	22651.70
668.84	22857.67
668.98	22750.01
669.12	22607.23
669.26	22443.40
669.40	22345.09
669.54	22497.23
669.68	22490.21
669.82	22345.09
669.96	22082.95
670.10	22223.39
670.25	22251.47
670.39	22345.09
670.53	22345.09
670.67	22239.77
670.81	21977.63
670.95	22150.83
671.09	22415.31
671.23	21816.13
671.37	22045.51
671.51	22237.43
671.65	21994.01
671.79	21893.37
671.93	21696.77
672.07	21759.96
672.21	21661.66
672.35	21481.44
672.49	21561.02
672.63	21757.62
672.77	21462.71
672.91	21816.13
673.05	21427.60
673.19	21553.99
673.33	21656.98
673.47	21565.70
673.61	21427.60
673.75	21401.86
673.89	21289.51
674.03	21366.75
674.17	21287.17
674.31	21319.94
674.45	21156.10
674.59	20973.54
674.73	21106.95
674.87	21062.48
675.01	20826.09
675.15	20919.71
675.29	20837.79
675.43	20805.02
675.56	20938.43
675.70	20985.24
675.84	20711.40
675.98	20159.03
676.12	20783.96
676.26	20739.49
676.40	20772.25
676.54	20634.16
676.68	20620.12
676.82	20163.72
676.96	20205.84
677.10	20109.88
677.23	20372.02
677.37	20210.53
677.51	19929.66
677.65	19866.47
677.79	19679.22
677.93	19850.08
678.07	19733.06
678.21	19868.81
678.34	19592.62
678.48	19758.80
678.62	19339.85
678.76	19707.31
678.90	19564.54
679.04	19442.83
679.18	19646.46
679.31	19117.50
679.45	19407.72
679.59	18946.64
679.73	19075.37
679.87	19147.92
680.00	19056.64
680.14	18881.10
680.28	19115.16
680.42	19089.41
680.56	19140.90
680.70	18845.99
680.83	19122.18
680.97	18801.52
681.11	18799.18
681.25	18724.29
681.39	18735.99
681.52	18831.95
681.66	18438.74
681.80	18387.25
681.94	18602.58
682.07	18153.20
682.21	18239.79
682.35	17886.37
682.49	17891.06
682.62	18003.40
682.76	17937.87
682.90	17935.53
683.04	17921.48
683.17	17900.42
683.31	17799.77
683.45	18106.38
683.59	17724.88
683.72	17830.20
683.86	17556.36
684.00	17514.23
684.13	17446.35
684.27	17329.33
684.41	17476.78
684.55	17195.92
684.68	17046.12
684.82	17177.19
684.96	17240.39
685.09	17055.48
685.23	16940.80
685.37	16994.63
685.50	17209.96
685.64	16924.41
685.78	17011.01
685.91	17142.08
686.05	17036.76
686.19	16858.88
686.32	16695.04
686.46	16388.43
686.60	16542.91
686.73	16503.12
686.87	16652.91
687.01	16191.83
687.14	16248.00
687.28	16058.42
687.42	16095.86
687.55	15864.15
687.69	16233.96
687.82	16035.01
687.96	16135.65
688.10	15967.13
688.23	15974.16
688.37	15765.85
688.50	15789.25
688.64	15861.81
688.78	15962.45
688.91	15807.98
689.05	15721.38
689.18	15506.05
689.32	15035.60
689.46	15339.87
689.59	15332.85
689.73	15229.87
689.86	15075.39
690.00	15059.01
690.13	14979.43
690.27	15405.41
690.41	15108.16
690.54	14944.32
690.68	14995.81
690.81	15105.82
690.95	14794.53
691.08	14794.53
691.22	14813.25
691.35	15169.01
691.49	15054.33
691.62	14771.12
691.76	14494.94
691.89	14537.07
692.03	14576.86
692.16	14298.33
692.30	14389.61
692.43	14235.14
692.57	14052.58
692.70	14167.26
692.84	14195.35
692.97	13991.72
693.11	14087.68
693.24	14200.03
693.38	13818.52
693.51	13820.86
693.65	13839.59
693.78	13635.96
693.92	13738.94
694.05	13640.64
694.19	13633.62
694.32	13535.32
694.45	13495.53
694.59	13294.24
694.72	13252.11
694.86	13181.90
694.99	13060.19
695.13	13268.50
695.26	13249.77
695.39	12849.54
695.53	13256.79
695.66	13041.46
695.80	12996.99
695.93	12875.29
696.07	13018.06
696.20	12950.18
696.33	12683.36
696.47	12784.01
696.60	12886.99
696.73	12774.64
696.87	12678.68
697.00	12486.76
697.14	12395.48
697.27	12262.07
697.40	12135.68
697.54	12208.23
697.67	12292.49
697.80	12175.47
697.94	11840.77
698.07	11999.93
698.21	12088.87
698.34	12135.68
698.47	12369.73
698.61	11997.59
698.74	11995.25
698.87	11990.56
699.01	11824.39
699.14	11693.32
699.27	11644.17
699.40	11599.70
699.54	11587.99
699.67	11611.40
699.80	11323.51
699.94	11335.21
700.07	11463.94
700.20	11272.02
700.34	11180.74
700.47	11117.54
700.60	11414.79
700.73	11559.91
700.87	11009.88
701.00	11080.10
701.13	11180.74
701.26	10939.66
701.40	10920.94
701.53	11030.94
701.66	11026.26
701.79	10967.75
701.93	10729.02
702.06	10829.66
702.19	10530.07
702.32	10619.01
702.46	10560.50
702.59	10506.66
702.72	10424.75
702.85	10214.10
702.99	10485.60
703.12	10281.97
703.25	10296.02
703.38	10162.61
703.51	10202.40
703.65	10296.02
703.78	10244.52
703.91	10228.14
704.04	10040.90
704.17	10029.20
704.31	10017.49
704.44	10101.75
704.57	9909.83
704.70	9825.57
704.83	9802.16
704.96	9593.86
705.10	9802.16
705.23	9518.96
>>>>>End Processed Spectral Data<<<<<
