SpectraSuite Data File
++++++++++++++++++++++++++++++++++++
Date: Fri Oct 18 13:58:02 GMT-05:00 2013
User: bianchi
Dark Spectrum Present: No
Reference Spectrum Present: No
Number of Sampled Component Spectra: 1
Spectrometers: USB2+H05261
Integration Time (usec): 50000 (USB2+H05261)
Spectra Averaged: 1 (USB2+H05261)
Boxcar Smoothing: 0 (USB2+H05261)
Correct for Electrical Dark: No (USB2+H05261)
Strobe/Lamp Enabled: No (USB2+H05261)
Correct for Detector Non-linearity: No (USB2+H05261)
Correct for Stray Light: No (USB2+H05261)
Number of Pixels in Processed Spectrum: 2048
>>>>>Begin Processed Spectral Data<<<<<
365.73	0.00
365.92	0.00
366.12	0.00
366.32	0.00
366.52	0.00
366.72	0.00
366.91	0.00
367.11	0.00
367.31	0.00
367.51	0.00
367.70	0.00
367.90	0.00
368.10	0.00
368.30	0.00
368.49	0.00
368.69	0.00
368.89	0.00
369.09	0.00
369.28	0.00
369.48	0.00
369.68	0.00
369.87	0.00
370.07	0.00
370.27	0.00
370.47	0.00
370.66	98.30
370.86	100.64
371.06	42.13
371.25	114.69
371.45	100.64
371.65	131.07
371.84	138.09
372.04	168.52
372.24	147.45
372.44	224.69
372.63	205.97
372.83	234.05
373.03	245.76
373.22	248.10
373.42	156.82
373.62	250.44
373.81	131.07
374.01	262.14
374.21	264.48
374.40	194.26
374.60	210.65
374.79	229.37
374.99	184.90
375.19	248.10
375.38	262.14
375.58	198.95
375.78	264.48
375.97	301.93
376.17	189.58
376.37	276.18
376.56	365.12
376.76	264.48
376.95	220.01
377.15	248.10
377.35	301.93
377.54	292.57
377.74	299.59
377.93	353.42
378.13	250.44
378.33	252.78
378.52	299.59
378.72	273.84
378.91	341.72
379.11	173.20
379.31	332.36
379.50	273.84
379.70	294.91
379.89	351.08
380.09	341.72
380.28	283.20
380.48	243.42
380.68	259.80
380.87	297.25
381.07	330.02
381.26	322.99
381.46	318.31
381.65	374.49
381.85	330.02
382.04	311.29
382.24	346.40
382.43	376.83
382.63	362.78
382.83	386.19
383.02	407.25
383.22	393.21
383.41	301.93
383.61	341.72
383.80	341.72
384.00	367.46
384.19	355.76
384.39	423.64
384.58	376.83
384.78	425.98
384.97	379.17
385.17	322.99
385.36	383.85
385.56	400.23
385.75	393.21
385.95	358.10
386.14	367.46
386.34	409.59
386.53	360.44
386.72	411.93
386.92	381.51
387.11	341.72
387.31	390.87
387.50	367.46
387.70	428.32
387.89	376.83
388.09	447.04
388.28	416.62
388.48	355.76
388.67	430.66
388.86	521.94
389.06	449.38
389.25	400.23
389.45	507.90
389.64	458.74
389.84	472.79
390.03	475.13
390.22	477.47
390.42	414.27
390.61	482.15
390.81	479.81
391.00	519.60
391.19	512.58
391.39	500.87
391.58	491.51
391.78	486.83
391.97	535.98
392.16	447.04
392.36	559.39
392.55	564.07
392.75	557.05
392.94	496.19
393.13	624.92
393.33	575.77
393.52	554.71
393.71	533.64
393.91	645.99
394.10	587.47
394.29	524.28
394.49	500.87
394.68	676.41
394.88	519.60
395.07	615.56
395.26	592.16
395.46	587.47
395.65	660.03
395.84	650.67
396.04	634.29
396.23	664.71
396.42	627.26
396.62	718.54
396.81	692.80
397.00	650.67
397.19	690.46
397.39	664.71
397.58	645.99
397.77	615.56
397.97	716.20
398.16	678.76
398.35	681.10
398.55	641.31
398.74	660.03
398.93	699.82
399.12	704.50
399.32	660.03
399.51	755.99
399.70	711.52
399.90	716.20
400.09	732.59
400.28	758.33
400.47	688.12
400.67	795.78
400.86	802.80
401.05	741.95
401.24	805.14
401.44	786.42
401.63	779.40
401.82	753.65
402.01	760.67
402.21	856.64
402.40	791.10
402.59	826.21
402.78	938.55
402.97	851.96
403.17	812.17
403.36	777.06
403.55	915.15
403.74	910.47
403.93	908.13
404.13	903.45
404.32	952.60
404.51	976.00
404.70	964.30
404.89	917.49
405.09	1001.75
405.28	985.37
405.47	908.13
405.66	961.96
405.85	933.87
406.05	915.15
406.24	1001.75
406.43	1100.05
406.62	952.60
406.81	1111.75
407.00	968.98
407.20	978.34
407.39	1046.22
407.58	1032.18
407.77	1004.09
407.96	1114.10
408.15	1088.35
408.34	1078.99
408.54	1107.07
408.73	1090.69
408.92	1123.46
409.11	1207.72
409.30	1160.91
409.49	1071.97
409.68	1228.78
409.87	1125.80
410.07	1165.59
410.26	1228.78
410.45	1144.52
410.64	1273.25
410.83	1348.15
411.02	1233.46
411.21	1263.89
411.40	1273.25
411.59	1252.19
411.78	1261.55
411.98	1226.44
412.17	1252.19
412.36	1282.61
412.55	1273.25
412.74	1320.06
412.93	1359.85
413.12	1282.61
413.31	1373.89
413.50	1371.55
413.69	1401.98
413.88	1406.66
414.07	1465.18
414.26	1451.13
414.45	1504.96
414.64	1476.88
414.83	1448.79
415.02	1605.61
415.22	1586.88
415.41	1533.05
415.60	1572.84
415.79	1521.35
415.98	1565.82
416.17	1633.69
416.36	1732.00
416.55	1629.01
416.74	1607.95
416.93	1685.19
417.12	1678.16
417.31	1633.69
417.50	1736.68
417.69	1727.32
417.88	1753.06
418.07	1659.44
418.26	1767.10
418.45	1753.06
418.64	1881.79
418.83	1778.81
419.02	1795.19
419.21	1795.19
419.39	1778.81
419.58	1764.76
419.77	1797.53
419.96	1900.52
420.15	1877.11
420.34	2015.20
420.53	1858.39
420.72	1942.64
420.91	1872.43
421.10	1860.73
421.29	2005.84
421.48	1935.62
421.67	1961.37
421.86	1937.96
422.05	1947.33
422.24	1949.67
422.43	1877.11
422.61	1980.09
422.80	1956.69
422.99	2108.82
423.18	2080.74
423.37	2059.67
423.56	1982.43
423.75	2047.97
423.94	2057.33
424.13	1781.15
424.32	1952.01
424.50	2038.61
424.69	2001.16
424.88	2015.20
425.07	1982.43
425.26	2005.84
425.45	2040.95
425.64	2073.71
425.83	2099.46
426.01	2057.33
426.20	2024.56
426.39	2113.50
426.58	2033.93
426.77	2064.35
426.96	2207.13
427.15	2092.44
427.33	2162.66
427.52	2043.29
427.71	2169.68
427.90	2043.29
428.09	2286.70
428.28	2172.02
428.46	2289.04
428.65	2132.23
428.84	2242.23
429.03	2312.45
429.22	2176.70
429.40	2263.30
429.59	2319.47
429.78	2115.84
429.97	2141.59
430.16	2216.49
430.34	2317.13
430.53	2338.20
430.72	2366.28
430.91	2291.38
431.10	2282.02
431.28	2385.01
431.47	2340.54
431.66	2424.80
431.85	2267.98
432.03	2396.71
432.22	2422.45
432.41	2429.48
432.60	2375.64
432.79	2340.54
432.97	2462.24
433.16	2473.95
433.35	2366.28
433.54	2513.74
433.72	2513.74
433.91	2420.11
434.10	2473.95
434.28	2555.86
434.47	2612.04
434.66	2600.34
434.85	2703.32
435.03	2537.14
435.22	2565.23
435.41	2672.89
435.59	2635.44
435.78	2525.44
435.97	2548.84
436.16	2579.27
436.34	2644.81
436.53	2609.70
436.72	2710.34
436.90	2579.27
437.09	2672.89
437.28	2670.55
437.46	2782.90
437.65	2719.70
437.84	2773.53
438.02	2787.58
438.21	2841.41
438.40	2839.07
438.58	2867.16
438.77	2874.18
438.96	2904.60
439.14	2944.39
439.33	3023.97
439.52	3019.29
439.70	2984.18
439.89	3028.65
440.08	3033.33
440.26	3040.36
440.45	3030.99
440.63	3213.56
440.82	3061.42
441.01	3208.87
441.19	3089.51
441.38	3274.41
441.57	3103.55
441.75	3342.28
441.94	3281.43
442.12	3321.22
442.31	3445.27
442.50	3267.39
442.68	3234.62
442.87	3297.81
443.05	3428.88
443.24	3440.59
443.43	3267.39
443.61	3412.50
443.80	3417.18
443.98	3421.86
444.17	3183.13
444.35	3445.27
444.54	3463.99
444.73	3389.10
444.91	3384.41
445.10	3463.99
445.28	3365.69
445.47	3417.18
445.65	3454.63
445.84	3541.23
446.02	3557.61
446.21	3344.63
446.39	3524.85
446.58	3449.95
446.77	3604.42
446.95	3445.27
447.14	3487.40
447.32	3485.06
447.51	3325.90
447.69	3452.29
447.88	3452.29
448.06	3475.70
448.25	3492.08
448.43	3552.93
448.62	3637.19
448.80	3454.63
448.99	3566.98
449.17	3562.30
449.36	3559.95
449.54	3761.24
449.73	3684.00
449.91	3747.20
450.10	3644.21
450.28	3721.45
450.46	3864.22
450.65	3620.81
450.83	3789.33
451.02	3695.71
451.20	3829.12
451.39	3751.88
451.57	3749.54
451.76	3896.99
451.94	3978.91
452.13	3857.20
452.31	3925.08
452.49	3751.88
452.68	3857.20
452.86	3794.01
453.05	3871.25
453.23	4037.42
453.42	3765.92
453.60	3911.04
453.78	3866.56
453.97	3920.40
454.15	3714.43
454.34	3896.99
454.52	4119.34
454.70	3920.40
454.89	3908.69
455.07	3953.16
455.26	4142.75
455.44	4173.18
455.62	4142.75
455.81	4067.85
455.99	4072.53
456.17	4208.28
456.36	4093.60
456.54	4170.83
456.73	4133.39
456.91	4215.30
457.09	4404.89
457.28	4219.99
457.46	4416.59
457.64	4353.40
457.83	4397.87
458.01	4386.16
458.19	4362.76
458.38	4315.95
458.56	4447.02
458.74	4273.82
458.93	4271.48
459.11	4395.53
459.29	4252.75
459.48	4496.17
459.66	4416.59
459.84	4629.58
460.03	4545.32
460.21	4512.55
460.39	4531.28
460.57	4571.07
460.76	4435.32
460.94	4683.41
461.12	4629.58
461.31	4624.90
461.49	4547.66
461.67	4669.37
461.85	4690.43
462.04	4575.75
462.22	4938.53
462.40	4690.43
462.59	4793.42
462.77	4875.34
462.95	4692.77
463.13	4678.73
463.32	4863.63
463.50	4875.34
463.68	4809.80
463.86	4772.35
464.05	4758.31
464.23	4755.97
464.41	4873.00
464.59	4887.04
464.78	5118.75
464.96	4954.91
465.14	4821.50
465.32	5011.09
465.50	4905.76
465.69	5114.07
465.87	4711.50
466.05	5015.77
466.23	4807.46
466.41	4898.74
466.60	5184.29
466.78	5083.64
466.96	5006.41
467.14	5144.50
467.32	5118.75
467.51	5233.44
467.69	4971.30
467.87	5125.77
468.05	5245.14
468.23	5149.18
468.41	5217.05
468.60	5231.10
468.78	5238.12
468.96	5076.62
469.14	5334.08
469.32	5247.48
469.50	4992.36
469.69	5336.42
469.87	5444.09
470.05	5427.70
470.23	5434.72
470.41	5420.68
470.59	5378.55
470.77	5715.59
470.95	5589.20
471.14	5603.24
471.32	5411.32
471.50	5654.73
471.68	5687.50
471.86	5626.65
472.04	5427.70
472.22	5689.84
472.40	5710.91
472.58	5542.39
472.77	5661.76
472.95	5755.38
473.13	6083.05
473.31	5879.43
473.49	5699.20
473.67	5797.51
473.85	5846.66
474.03	6031.56
474.21	5940.28
474.39	5963.68
474.57	5984.75
474.75	6197.74
474.93	6132.20
475.12	6228.17
475.30	6279.66
475.48	6024.54
475.66	6183.70
475.84	6256.25
476.02	6483.28
476.20	6300.72
476.38	6424.77
476.56	6555.84
476.74	6523.07
476.92	6736.06
477.10	6504.35
477.28	6586.27
477.46	6644.78
477.64	6726.70
477.82	6883.52
478.00	7005.22
478.18	6993.52
478.36	6972.46
478.54	6988.84
478.72	7281.41
478.90	7197.15
479.08	7045.01
479.26	7232.26
479.44	7311.83
479.62	7405.46
479.80	7428.86
479.98	7356.30
480.16	7569.29
480.34	7365.67
480.52	7676.96
480.70	7735.47
480.88	7676.96
481.06	7695.68
481.24	7651.21
481.41	7861.86
481.59	7925.05
481.77	8081.87
481.95	7941.44
482.13	8280.82
482.31	8252.73
482.49	8219.96
482.67	8102.93
482.85	8369.76
483.03	8236.35
483.21	8566.36
483.39	8531.25
483.57	8587.43
483.74	8606.15
483.92	8791.05
484.10	8559.34
484.28	8889.35
484.46	9053.19
484.64	9268.52
484.82	9144.47
485.00	9062.55
485.18	9448.74
485.35	9451.08
485.53	9687.48
485.71	9219.37
485.89	9638.33
486.07	9469.81
486.25	9715.56
486.43	9797.48
486.61	9776.42
486.78	9762.37
486.96	10054.94
487.14	10249.21
487.32	10029.20
487.50	10038.56
487.68	10361.55
487.85	10043.24
488.03	10623.69
488.21	10595.61
488.39	10567.52
488.57	10726.68
488.75	10611.99
488.92	10759.44
489.10	10977.11
489.28	10953.71
489.46	10906.90
489.64	11056.69
489.81	11234.57
489.99	11089.46
490.17	11435.86
490.35	11562.25
490.53	11712.04
490.70	11779.92
490.88	11634.80
491.06	11882.90
491.24	11822.05
491.41	11822.05
491.59	12070.14
491.77	12123.98
491.95	12053.76
492.13	12301.86
492.30	12175.47
492.48	12339.30
492.66	12409.52
492.84	12449.31
493.01	12727.83
493.19	12634.21
493.37	12730.17
493.54	12830.82
493.72	12744.22
493.90	12980.61
494.08	13165.51
494.25	13050.83
494.43	13053.17
494.61	13238.07
494.79	13547.02
494.96	13291.90
495.14	13352.76
495.32	13312.97
495.49	13778.73
495.67	13652.34
495.85	13745.97
496.02	13596.17
496.20	14188.33
496.38	13846.61
496.55	14085.34
496.73	14174.28
496.91	14141.52
497.09	14221.10
497.26	14504.30
497.44	14136.84
497.62	14560.47
497.79	14633.03
497.97	14534.73
498.14	14808.57
498.32	15129.22
498.50	15103.48
498.67	14857.72
498.85	14710.27
499.03	15049.64
499.20	14885.81
499.38	15267.31
499.56	15260.29
499.73	15180.71
499.91	15253.27
500.08	15527.11
500.26	15386.68
500.44	15496.69
500.61	15459.24
500.79	15704.99
500.97	15295.40
501.14	15793.94
501.32	15995.22
501.49	15796.28
501.67	15934.37
501.84	16095.86
502.02	15920.32
502.20	16013.95
502.37	16145.02
502.55	16313.53
502.72	16095.86
502.90	16182.46
503.07	16084.16
503.25	16107.57
503.43	16315.87
503.60	16720.79
503.78	16709.08
503.95	16779.30
504.13	16498.44
504.30	16659.93
504.48	16772.28
504.65	16704.40
504.83	16915.05
505.01	17156.13
505.18	17001.65
505.36	17060.16
505.53	17268.47
505.71	16973.56
505.88	17069.53
506.06	16898.67
506.23	17195.92
506.41	17572.74
506.58	17745.94
506.76	17451.03
506.93	17413.59
507.11	17252.09
507.28	17472.10
507.46	17736.58
507.63	17832.54
507.81	17795.09
507.98	17834.88
508.16	17860.63
508.33	17776.37
508.50	17994.04
508.68	18249.16
508.85	17954.25
509.03	17980.00
509.20	18356.82
509.38	18260.86
509.55	18597.90
509.73	18162.56
509.90	18398.95
510.08	18422.36
510.25	18295.97
510.42	18492.57
510.60	18544.06
510.77	18515.98
510.95	19183.03
511.12	18565.13
511.30	18970.04
511.47	18853.02
511.64	18995.79
511.82	18902.17
511.99	19021.53
512.17	19267.29
512.34	19133.88
512.51	19550.49
512.69	19325.80
512.86	19400.70
513.04	19534.11
513.21	19520.07
513.38	19468.58
513.56	19520.07
513.73	19360.91
513.90	19590.28
514.08	19522.41
514.25	19398.36
514.43	19768.16
514.60	19489.64
514.77	19782.21
514.95	20006.90
515.12	19843.06
515.29	19861.79
515.47	20100.52
515.64	20315.85
515.81	20467.98
515.99	20379.04
516.16	20163.72
516.33	20201.16
516.51	20343.94
516.68	19976.47
516.85	20533.52
517.03	20421.17
517.20	20552.24
517.37	20365.00
517.54	20475.01
517.72	20924.39
517.89	20563.95
518.06	20636.50
518.24	20643.52
518.41	20903.32
518.58	21001.63
518.75	20695.02
518.93	20999.29
519.10	21062.48
519.27	20856.51
519.45	20889.28
519.62	21081.21
519.79	21041.42
519.96	21333.98
520.14	21362.07
520.31	21003.97
520.48	21521.23
520.65	21460.37
520.83	21593.78
521.00	21483.78
521.17	21364.41
521.34	21563.36
521.52	21359.73
521.69	21649.96
521.86	21862.94
522.03	21664.00
522.20	21923.80
522.38	21809.11
522.55	21799.75
522.72	22033.80
522.89	21944.86
523.07	22246.79
523.24	21937.84
523.41	22281.90
523.58	22209.34
523.75	22174.24
523.92	22097.00
524.10	22169.55
524.27	22490.21
524.44	22663.41
524.61	22487.87
524.78	22796.82
524.96	22541.70
525.13	22932.57
525.30	22602.55
525.47	22792.14
525.64	22700.86
525.81	22759.37
525.98	22813.20
526.16	22658.73
526.33	22572.13
526.50	22937.25
526.67	22810.86
526.84	22904.48
527.01	23197.05
527.18	23285.99
527.36	23164.28
527.53	23175.98
527.70	23323.44
527.87	23412.38
528.04	23290.67
528.21	23278.97
528.38	23297.69
528.55	23513.02
528.72	23356.21
528.89	23454.51
529.07	23625.37
529.24	23332.80
529.41	23213.43
529.58	23604.30
529.75	23344.50
529.92	23264.92
530.09	23791.55
530.26	23669.84
530.43	23718.99
530.60	23527.06
530.77	23784.52
530.94	24018.58
531.11	23220.45
531.28	23817.29
531.46	23718.99
531.63	23931.98
531.80	24037.30
531.97	24269.01
532.14	24479.66
532.31	23985.81
532.48	24348.59
532.65	24215.18
532.82	24100.50
532.99	24247.95
533.16	24364.98
533.33	24386.04
533.50	24584.99
533.67	24650.52
533.84	24570.94
534.01	24283.06
534.18	24266.67
534.35	24549.88
534.52	24573.28
534.69	24982.88
534.86	24968.84
535.03	25029.69
535.20	24652.86
535.37	24830.74
535.54	25041.39
535.71	24563.92
535.88	24931.39
536.05	24601.37
536.22	24788.61
536.38	25230.98
536.55	24835.42
536.72	25132.67
536.89	24929.05
537.06	25235.66
537.23	25095.22
537.40	25032.03
537.57	25511.84
537.74	25287.15
537.91	25280.13
538.08	25448.64
538.25	25537.59
538.42	25427.58
538.59	25577.37
538.75	25261.40
538.92	25659.29
539.09	25441.62
539.26	25376.09
539.43	26017.40
539.60	25631.21
539.77	25280.13
539.94	25755.26
540.11	25858.24
540.28	25502.48
540.44	26031.44
540.61	25713.13
540.78	25862.92
540.95	25823.13
541.12	25748.23
541.29	25940.16
541.46	25631.21
541.62	25783.34
541.79	25862.92
541.96	25928.45
542.13	25722.49
542.30	26237.41
542.47	26071.23
542.63	26043.14
542.80	26284.22
542.97	26583.80
543.14	26499.55
543.31	26331.03
543.48	26253.79
543.64	26778.07
543.81	26319.32
543.98	26494.86
544.15	26794.45
544.32	26806.16
544.48	26623.59
544.65	26611.89
544.82	26513.59
544.99	26394.22
545.16	26862.33
545.32	26625.93
545.49	26742.96
545.66	27337.46
545.83	27192.34
546.00	26927.86
546.16	27037.87
546.33	26558.06
546.50	26735.94
546.67	26988.72
546.83	26602.53
547.00	27152.55
547.17	26848.29
547.34	27007.44
547.50	27290.65
547.67	27545.76
547.84	27166.60
548.00	27166.60
548.17	27508.32
548.34	27026.17
548.51	27459.16
548.67	27370.22
548.84	27424.06
549.01	27445.12
549.18	27550.45
549.34	27529.38
549.51	27676.83
549.68	27281.28
549.84	27056.59
550.01	27346.82
550.18	27608.96
550.34	27730.67
550.51	27906.21
550.68	27826.63
550.84	27337.46
551.01	27550.45
551.18	27653.43
551.34	27456.82
551.51	27955.36
551.68	27662.79
551.84	27749.39
552.01	27606.62
552.18	28070.04
552.34	27810.25
552.51	27728.33
552.68	27578.53
552.84	28126.22
553.01	28198.77
553.18	27915.57
553.34	28226.86
553.51	28039.62
553.67	28280.69
553.84	28184.73
554.01	28238.56
554.17	28479.64
554.34	28060.68
554.51	27974.08
554.67	28114.52
554.84	28332.18
555.00	28194.09
555.17	28109.83
555.33	28542.83
555.50	27674.49
555.67	28407.08
555.83	28294.74
556.00	28332.18
556.16	28439.85
556.33	28374.31
556.50	28458.57
556.66	28664.54
556.83	28180.05
556.99	28718.37
557.16	28201.11
557.32	28819.02
557.49	28641.14
557.65	28112.17
557.82	28458.57
557.98	28603.69
558.15	28568.58
558.32	28914.98
558.48	28322.82
558.65	29001.58
558.81	28732.42
558.98	28606.03
559.14	28643.48
559.31	28680.92
559.47	28879.87
559.64	28858.81
559.80	29017.96
559.97	29010.94
560.13	28840.08
560.30	28671.56
560.46	29013.28
560.63	29029.66
560.79	28989.88
560.96	28851.78
561.12	29134.99
561.29	28954.77
561.45	28793.27
561.61	29158.39
561.78	28793.27
561.94	29240.31
562.11	29027.32
562.27	29062.43
562.44	29223.93
562.60	28999.24
562.77	29076.48
562.93	28720.71
563.10	29322.23
563.26	29146.69
563.42	29200.52
563.59	29151.37
563.75	28863.49
563.92	29507.13
564.08	29181.80
564.24	28917.32
564.41	29275.42
564.57	29202.86
564.74	29408.83
564.90	29345.64
565.07	29048.39
565.23	29165.42
565.39	29167.76
565.56	29312.87
565.72	29322.23
565.88	29179.46
566.05	29127.97
566.21	29153.71
566.38	29289.46
566.54	29331.59
566.70	29518.84
566.87	29502.45
567.03	29406.49
567.19	29825.45
567.36	29631.18
567.52	29586.71
567.68	29890.98
567.85	29539.90
568.01	29324.57
568.17	29530.54
568.34	29858.21
568.50	29359.68
568.66	29617.14
568.83	29462.66
568.99	29202.86
569.15	29862.90
569.32	29675.65
569.48	29188.82
569.64	29706.08
569.81	29422.87
569.97	29500.11
570.13	29890.98
570.30	29701.40
570.46	29764.59
570.62	29551.60
570.78	30155.46
570.95	29151.37
571.11	29633.52
571.27	29612.46
571.43	29237.97
571.60	29820.77
571.76	29799.70
571.92	29876.94
572.09	29958.86
572.25	29928.43
572.41	29982.26
572.57	29685.01
572.74	29916.73
572.90	29277.76
573.06	29575.01
573.22	30087.59
573.38	29635.86
573.55	29804.38
573.71	30101.63
573.87	29984.60
574.03	29867.58
574.20	29993.97
574.36	29949.50
574.52	29890.98
574.68	29736.51
574.84	30129.72
575.01	30061.84
575.17	29708.42
575.33	29619.48
575.49	29848.85
575.65	29867.58
575.82	29788.00
575.98	29993.97
576.14	29874.60
576.30	30033.75
576.46	29797.36
576.62	29593.73
576.79	30174.19
576.95	29844.17
577.11	29806.72
577.27	29921.41
577.43	30052.48
577.59	29944.81
577.75	29872.26
577.92	29853.53
578.08	29766.93
578.24	29991.62
578.40	29694.38
578.56	30005.67
578.72	30237.38
578.88	30082.91
579.04	30059.50
579.21	29869.92
579.37	30094.61
579.53	30218.66
579.69	29933.11
579.85	29958.86
580.01	30040.78
580.17	30000.99
580.33	30246.74
580.49	30036.09
580.65	30305.26
580.82	30150.78
580.98	30174.19
581.14	30110.99
581.30	30480.80
581.46	30197.59
581.62	30178.87
581.78	29909.71
581.94	29998.65
582.10	29947.15
582.26	29785.66
582.42	29628.84
582.58	29832.47
582.74	30050.14
582.90	30010.35
583.06	30103.97
583.22	30064.18
583.38	29926.09
583.54	29986.94
583.70	29818.42
583.86	30073.54
584.02	29867.58
584.18	30136.74
584.34	30106.31
584.50	30363.77
584.66	30059.50
584.82	29802.04
584.98	30359.09
585.14	30256.11
585.30	30005.67
585.46	30057.16
585.62	29902.68
585.78	30017.37
585.94	29916.73
586.10	30588.46
586.26	30382.49
586.42	30356.75
586.58	30441.01
586.74	30132.06
586.90	30068.86
587.06	29689.70
587.22	30216.32
587.38	30274.83
587.54	30155.46
587.70	30588.46
587.86	30778.04
588.02	30300.58
588.18	30162.48
588.34	30511.22
588.49	30237.38
588.65	30331.00
588.81	30478.46
588.97	30143.76
589.13	30476.12
589.29	30026.73
589.45	29886.30
589.61	30522.93
589.77	30745.28
589.93	30532.29
590.08	30588.46
590.24	30764.00
590.40	30738.26
590.56	30298.23
590.72	30230.36
590.88	30499.52
591.04	29923.75
591.20	30845.92
591.35	30857.62
591.51	30347.39
591.67	30733.57
591.83	31129.12
591.99	30883.37
592.15	30654.00
592.31	30555.69
592.46	30319.30
592.62	30553.35
592.78	30295.89
592.94	30639.95
593.10	30497.18
593.26	30766.34
593.41	30710.17
593.57	30429.30
593.73	30696.13
593.89	30565.06
594.05	30845.92
594.20	30541.65
594.36	30782.73
594.52	30506.54
594.68	30705.49
594.84	30181.21
594.99	30639.95
595.15	30621.23
595.31	30756.98
595.47	30677.40
595.62	30820.17
595.78	30656.34
595.94	30567.40
596.10	30679.74
596.25	30485.48
596.41	30221.00
596.57	30387.18
596.73	30398.88
596.88	30581.44
597.04	30876.35
597.20	30672.72
597.36	30670.38
597.51	30803.79
597.67	30286.53
597.83	30712.51
597.99	30726.55
598.14	30560.37
598.30	30614.21
598.46	30670.38
598.61	30939.54
598.77	30183.55
598.93	30932.52
599.09	31098.70
599.24	30813.15
599.40	30792.09
599.56	31033.16
599.71	31267.22
599.87	30913.80
600.03	30946.56
600.18	30387.18
600.34	31087.00
600.50	30712.51
600.65	30513.56
600.81	30586.12
600.97	31068.27
601.12	30728.89
601.28	31227.43
601.44	30834.22
601.59	30541.65
601.75	31019.12
601.91	30623.57
602.06	30513.56
602.22	30515.90
602.37	30560.37
602.53	30902.09
602.69	30724.21
602.84	30890.39
603.00	30848.26
603.16	31079.97
603.31	30897.41
603.47	30515.90
603.62	30850.60
603.78	30836.56
603.94	30705.49
604.09	30988.69
604.25	30497.18
604.40	30565.06
604.56	30670.38
604.71	30890.39
604.87	30759.32
605.03	30930.18
605.18	30738.26
605.34	31068.27
605.49	30211.64
605.65	30307.60
605.80	30726.55
605.96	30630.59
606.12	30515.90
606.27	30759.32
606.43	30256.11
606.58	30799.11
606.74	30562.72
606.89	30665.70
607.05	31030.82
607.20	31138.49
607.36	31138.49
607.51	30651.66
607.67	30270.15
607.82	30464.41
607.98	30328.66
608.13	30703.15
608.29	30558.03
608.44	30518.25
608.60	30560.37
608.75	30651.66
608.91	30546.33
609.06	30506.54
609.22	30855.28
609.37	30230.36
609.53	30806.13
609.68	30756.98
609.84	30199.93
609.99	30731.23
610.15	30483.14
610.30	30305.26
610.46	30562.72
610.61	30527.61
610.76	30373.13
610.92	30120.35
611.07	30256.11
611.23	30323.98
611.38	30614.21
611.54	30504.20
611.69	29937.79
611.84	30066.52
612.00	30462.07
612.15	30707.83
612.31	30391.86
612.46	30513.56
612.62	30902.09
612.77	30499.52
612.92	30443.35
613.08	30331.00
613.23	30272.49
613.39	30319.30
613.54	30103.97
613.69	30087.59
613.85	30286.53
614.00	30342.70
614.15	30469.09
614.31	30169.51
614.46	30164.82
614.62	30080.56
614.77	30249.08
614.92	30284.19
615.08	30099.29
615.23	30277.17
615.38	30649.32
615.54	29923.75
615.69	30022.05
615.84	29883.96
616.00	29720.12
616.15	30054.82
616.30	30061.84
616.46	29825.45
616.61	29738.85
616.76	29949.50
616.92	29795.02
617.07	29998.65
617.22	29713.10
617.37	29813.74
617.53	29811.40
617.68	29851.19
617.83	29766.93
617.99	29837.15
618.14	29617.14
618.29	29855.87
618.45	29670.97
618.60	29874.60
618.75	30008.01
618.90	29869.92
619.06	29663.95
619.21	29642.88
619.36	29570.33
619.51	29984.60
619.67	29502.45
619.82	29490.75
619.97	29425.22
620.12	29469.69
620.28	29256.70
620.43	29905.02
620.58	29773.95
620.73	29890.98
620.89	29685.01
621.04	30160.14
621.19	29652.25
621.34	29244.99
621.49	29207.55
621.65	29565.65
621.80	29310.53
621.95	29142.01
622.10	29106.90
622.25	29467.34
622.41	29209.89
622.56	29160.73
622.71	29738.85
622.86	29563.31
623.01	29598.41
623.16	29130.31
623.32	29174.78
623.47	29383.09
623.62	29228.61
623.77	28982.85
623.92	29249.67
624.07	29137.33
624.23	29347.98
624.38	29275.42
624.53	29284.78
624.68	29237.97
624.83	29315.21
624.98	29603.10
625.13	28666.88
625.29	29287.12
625.44	29270.74
625.59	28842.42
625.74	28950.09
625.89	28842.42
626.04	28622.41
626.19	29149.03
626.34	29127.97
626.49	28924.34
626.65	29034.35
626.80	28765.18
626.95	28629.43
627.10	28889.23
627.25	29064.77
627.40	28903.28
627.55	28676.24
627.70	28411.76
627.85	28713.69
628.00	28379.00
628.15	28912.64
628.30	28245.58
628.45	28575.60
628.60	28783.91
628.76	28652.84
628.91	28549.85
629.06	28594.32
629.21	28720.71
629.36	28664.54
629.51	28460.91
629.66	28655.18
629.81	28673.90
629.96	28191.75
630.11	28311.12
630.26	28474.96
630.41	28418.78
630.56	28538.15
630.71	28584.96
630.86	28594.32
631.01	28364.95
631.16	28570.92
631.31	28453.89
631.46	28273.67
631.61	28081.75
631.76	28205.80
631.91	28526.45
632.06	28144.94
632.21	27985.79
632.36	28395.38
632.51	28297.08
632.66	28086.43
632.81	28018.55
632.96	28264.31
633.10	28353.25
633.25	28231.54
633.40	28421.13
633.55	28025.57
633.70	27407.67
633.85	27974.08
634.00	27892.16
634.15	27754.07
634.30	28072.39
634.45	27702.58
634.60	28018.55
634.75	27653.43
634.90	27800.88
635.05	28180.05
635.19	28135.58
635.34	27915.57
635.49	28079.41
635.64	27866.42
635.79	27910.89
635.94	28048.98
636.09	28018.55
636.24	27857.06
636.39	27611.30
636.53	27779.82
636.68	27353.84
636.83	27618.32
636.98	27960.04
637.13	27627.68
637.28	27733.01
637.43	27796.20
637.57	27828.97
637.72	27648.75
637.87	27330.44
638.02	27520.02
638.17	27637.05
638.32	27529.38
638.46	27033.19
638.61	27372.57
638.76	26888.07
638.91	27337.46
639.06	27166.60
639.20	27548.11
639.35	27803.22
639.50	27679.18
639.65	27700.24
639.80	27747.05
639.94	27498.95
640.09	27410.01
640.24	27452.14
640.39	27159.58
640.54	26920.84
640.68	27019.14
640.83	27227.45
640.98	27014.46
641.13	26796.79
641.27	27311.71
641.42	27496.61
641.57	27283.62
641.72	27185.32
641.86	26948.93
642.01	26930.20
642.16	27351.50
642.31	27119.79
642.45	27140.85
642.60	26661.04
642.75	26754.66
642.90	26714.87
643.04	26735.94
643.19	26757.00
643.34	26845.94
643.48	26647.00
643.63	26925.52
643.78	26918.50
643.93	27508.32
644.07	26792.11
644.22	26869.35
644.37	27108.08
644.51	26717.22
644.66	26778.07
644.81	26658.70
644.95	26841.26
645.10	27021.48
645.25	26742.96
645.39	26586.15
645.54	26628.27
645.69	26497.20
645.83	26742.96
645.98	26700.83
646.13	26962.97
646.27	26843.60
646.42	26539.33
646.57	26663.38
646.71	26696.15
646.86	26511.25
647.00	26274.85
647.15	26586.15
647.30	26469.12
647.44	26471.46
647.59	26485.50
647.74	26539.33
647.88	26368.48
648.03	26480.82
648.17	26628.27
648.32	26529.97
648.47	26520.61
648.61	26338.05
648.76	26878.71
648.90	26611.89
649.05	26426.99
649.20	26328.69
649.34	26333.37
649.49	25816.11
649.63	26148.46
649.78	26169.53
649.92	26340.39
650.07	26316.98
650.21	25762.28
650.36	26384.86
650.51	26316.98
650.65	26319.32
650.80	26136.76
650.94	26242.09
651.09	26143.78
651.23	26108.68
651.38	25963.56
651.52	25905.05
651.67	26134.42
651.81	25956.54
651.96	25963.56
652.10	25996.33
652.25	25935.48
652.39	26155.49
652.54	26218.68
652.68	26139.10
652.83	26167.19
652.97	26085.27
653.12	26040.80
653.26	25830.15
653.41	26113.36
653.55	25687.38
653.70	25839.51
653.84	25741.21
653.99	25862.92
654.13	25462.69
654.27	25759.94
654.42	25671.00
654.56	25837.17
654.71	25593.76
654.85	26010.37
655.00	25797.38
655.14	25886.32
655.29	25582.06
655.43	25680.36
655.57	25120.97
655.72	25537.59
655.86	25848.88
656.01	25495.46
656.15	25142.03
656.30	25198.21
656.44	25359.70
656.58	25322.26
656.73	25387.79
656.87	25357.36
657.01	25631.21
657.16	25268.42
657.30	25593.76
657.45	25390.13
657.59	25659.29
657.73	24912.66
657.88	25443.96
658.02	24964.15
658.16	25181.82
658.31	25216.93
658.45	25006.28
658.60	25069.48
658.74	25202.89
658.88	25055.43
659.03	24989.90
659.17	25226.29
659.31	25202.89
659.46	24999.26
659.60	25296.51
659.74	25048.41
659.89	25378.43
660.03	25209.91
660.17	25081.18
660.32	24664.57
660.46	24943.09
660.60	24659.88
660.74	24765.21
660.89	24526.47
661.03	24627.12
661.17	24774.57
661.32	24943.09
661.46	24594.35
661.60	24556.90
661.74	24589.67
661.89	25017.99
662.03	24702.01
662.17	24505.41
662.31	24444.56
662.46	24772.23
662.60	24177.73
662.74	24418.81
662.88	24102.84
663.03	23843.04
663.17	23915.59
663.31	23978.79
663.45	24266.67
663.60	24044.32
663.74	24091.13
663.88	24505.41
664.02	24018.58
664.17	24009.22
664.31	23805.59
664.45	23906.23
664.59	24130.92
664.73	23742.39
664.88	24091.13
665.02	23538.77
665.16	23964.75
665.30	23606.64
665.44	23524.72
665.59	23683.88
665.73	23358.55
665.87	23484.94
666.01	23379.61
666.15	23662.82
666.29	23845.38
666.44	23653.45
666.58	23311.74
666.72	23697.92
666.86	23463.87
667.00	23529.41
667.14	23515.36
667.28	23183.01
667.43	23194.71
667.57	23475.57
667.71	23073.00
667.85	23187.69
667.99	22979.38
668.13	23264.92
668.27	22831.93
668.41	23145.56
668.56	23044.91
668.70	23178.33
668.84	23281.31
668.98	23295.35
669.12	22883.42
669.26	22698.52
669.40	22735.96
669.54	22773.41
669.68	22675.11
669.82	22389.56
669.96	22838.95
670.10	22319.35
670.25	22700.86
670.39	22459.78
670.53	22469.14
670.67	22541.70
670.81	22298.28
670.95	22345.09
671.09	22705.54
671.23	22586.17
671.37	22857.67
671.51	22752.35
671.65	22419.99
671.79	22284.24
671.93	22464.46
672.07	22345.09
672.21	22029.12
672.35	22043.17
672.49	21827.84
672.63	21769.32
672.77	21797.41
672.91	21895.71
673.05	21823.16
673.19	22059.55
673.33	21876.99
673.47	21954.22
673.61	21944.86
673.75	21820.81
673.89	21671.02
674.03	21724.85
674.17	21771.66
674.31	21483.78
674.45	21359.73
674.59	21231.00
674.73	21439.31
674.87	21338.66
675.01	21123.33
675.15	21453.35
675.29	21289.51
675.43	21156.10
675.56	21270.79
675.70	20854.17
675.84	21235.68
675.98	20168.40
676.12	21003.97
676.26	21209.93
676.40	20816.72
676.54	20671.61
676.68	20879.92
676.82	20416.49
676.96	20247.97
677.10	20627.14
677.23	20315.85
677.37	20386.07
677.51	20510.11
677.65	20456.28
677.79	20395.43
677.93	20020.94
678.07	20175.42
678.21	19786.89
678.34	20053.71
678.48	19976.47
678.62	20018.60
678.76	19955.41
678.90	19943.70
679.04	19819.66
679.18	19545.81
679.31	19545.81
679.45	19403.04
679.59	19325.80
679.73	19358.57
679.87	19339.85
680.00	19145.58
680.14	19538.79
680.28	19370.27
680.42	19080.05
680.56	19236.86
680.70	18920.89
680.83	19367.93
680.97	18778.12
681.11	18941.96
681.25	19220.48
681.39	18670.45
681.52	18855.36
681.66	18539.38
681.80	18649.39
681.94	18614.28
682.07	18511.30
682.21	18466.83
682.35	18204.69
682.49	18242.14
682.62	18146.17
682.76	18024.47
682.90	18246.82
683.04	18281.92
683.17	18195.32
683.31	18108.72
683.45	18305.33
683.59	18029.15
683.72	17909.78
683.86	17989.36
684.00	17916.80
684.13	18008.08
684.27	17888.71
684.41	17649.98
684.55	17231.02
684.68	17390.18
684.82	17481.46
684.96	17214.64
685.09	17277.83
685.23	17488.48
685.37	17240.39
685.50	17287.20
685.64	17266.13
685.78	17376.14
685.91	17064.85
686.05	17348.05
686.19	16978.25
686.32	17011.01
686.46	16762.92
686.60	16657.59
686.73	16865.90
686.87	16751.21
687.01	16856.54
687.14	16451.63
687.28	16468.01
687.42	16313.53
687.55	16313.53
687.69	16273.74
687.82	16173.10
687.96	16299.49
688.10	15976.50
688.23	16191.83
688.37	16287.79
688.50	16292.47
688.64	16079.48
688.78	16154.38
688.91	15810.32
689.05	15889.90
689.18	15744.78
689.32	15398.38
689.46	15468.60
689.59	15599.67
689.73	15545.84
689.86	15360.94
690.00	15482.64
690.13	15719.04
690.27	15314.13
690.41	15606.69
690.54	15295.40
690.68	15103.48
690.81	15234.55
690.95	15164.33
691.08	15119.86
691.22	15129.22
691.35	15068.37
691.49	15145.61
691.62	14911.55
691.76	14773.46
691.89	14857.72
692.03	14499.62
692.16	14455.15
692.30	14565.15
692.43	14508.98
692.57	14391.95
692.70	14293.65
692.84	14373.23
692.97	14413.02
693.11	14511.32
693.24	14185.99
693.38	14169.60
693.51	14073.64
693.65	14164.92
693.78	13788.10
693.92	13965.98
694.05	13816.18
694.19	13923.85
694.32	13633.62
694.45	13710.86
694.59	13741.29
694.72	13701.50
694.86	13315.31
694.99	13434.68
695.13	13273.18
695.26	13331.69
695.39	13673.41
695.53	13207.64
695.66	13247.43
695.80	13174.88
695.93	13261.48
696.07	13312.97
696.20	13043.81
696.33	13135.09
696.47	12823.80
696.60	12936.14
696.73	12830.82
696.87	13123.38
697.00	12587.40
697.14	12734.85
697.27	12449.31
697.40	12470.37
697.54	12465.69
697.67	12503.14
697.80	12414.20
697.94	12348.67
698.07	12355.69
698.21	12257.39
698.34	12065.46
698.47	12306.54
698.61	12250.36
698.74	12367.39
698.87	12149.72
699.01	12023.33
699.14	11925.03
699.27	11939.07
699.40	11840.77
699.54	11786.94
699.67	11517.78
699.80	11655.87
699.94	11576.29
700.07	11562.25
700.20	11695.66
700.34	11290.74
700.47	11159.67
700.60	11304.79
700.73	11566.93
700.87	11351.60
701.00	11260.32
701.13	11122.23
701.26	11344.58
701.40	11234.57
701.53	11040.31
701.66	11054.35
701.79	11229.89
701.93	11147.97
702.06	11040.31
702.19	10817.96
702.32	10878.81
702.46	10876.47
702.59	10565.18
702.72	10534.75
702.85	10707.95
702.99	10518.37
703.12	10576.88
703.25	10431.77
703.38	10520.71
703.51	10265.59
703.65	10300.70
703.78	10115.80
703.91	10249.21
704.04	10181.33
704.17	10354.53
704.31	10076.01
704.44	9907.49
704.57	10052.60
704.70	9825.57
704.83	9750.67
704.96	9832.59
705.10	9767.06
705.23	9708.54
>>>>>End Processed Spectral Data<<<<<
