SpectraSuite Data File
++++++++++++++++++++++++++++++++++++
Date: Fri Oct 18 13:58:10 GMT-05:00 2013
User: bianchi
Dark Spectrum Present: No
Reference Spectrum Present: No
Number of Sampled Component Spectra: 1
Spectrometers: USB2+H05261
Integration Time (usec): 50000 (USB2+H05261)
Spectra Averaged: 1 (USB2+H05261)
Boxcar Smoothing: 0 (USB2+H05261)
Correct for Electrical Dark: No (USB2+H05261)
Strobe/Lamp Enabled: No (USB2+H05261)
Correct for Detector Non-linearity: No (USB2+H05261)
Correct for Stray Light: No (USB2+H05261)
Number of Pixels in Processed Spectrum: 2048
>>>>>Begin Processed Spectral Data<<<<<
365.73	0.00
365.92	0.00
366.12	0.00
366.32	0.00
366.52	0.00
366.72	0.00
366.91	0.00
367.11	0.00
367.31	0.00
367.51	0.00
367.70	0.00
367.90	0.00
368.10	0.00
368.30	0.00
368.49	0.00
368.69	0.00
368.89	0.00
369.09	0.00
369.28	0.00
369.48	0.00
369.68	0.00
369.87	0.00
370.07	0.00
370.27	0.00
370.47	0.00
370.66	81.92
370.86	194.26
371.06	119.37
371.25	79.58
371.45	102.98
371.65	128.73
371.84	112.35
372.04	128.73
372.24	166.18
372.44	121.71
372.63	154.48
372.83	262.14
373.03	222.35
373.22	194.26
373.42	217.67
373.62	154.48
373.81	278.52
374.01	290.23
374.21	243.42
374.40	215.33
374.60	283.20
374.79	248.10
374.99	236.39
375.19	187.24
375.38	217.67
375.58	255.12
375.78	327.68
375.97	259.80
376.17	257.46
376.37	278.52
376.56	304.27
376.76	234.05
376.95	269.16
377.15	269.16
377.35	257.46
377.54	276.18
377.74	285.55
377.93	341.72
378.13	248.10
378.33	273.84
378.52	262.14
378.72	259.80
378.91	313.63
379.11	301.93
379.31	330.02
379.50	266.82
379.70	273.84
379.89	299.59
380.09	341.72
380.28	299.59
380.48	301.93
380.68	390.87
380.87	292.57
381.07	283.20
381.26	360.44
381.46	332.36
381.65	374.49
381.85	358.10
382.04	369.80
382.24	372.15
382.43	311.29
382.63	318.31
382.83	383.85
383.02	266.82
383.22	397.89
383.41	372.15
383.61	346.40
383.80	418.96
384.00	330.02
384.19	351.08
384.39	463.43
384.58	353.42
384.78	306.61
384.97	393.21
385.17	407.25
385.36	433.00
385.56	374.49
385.75	404.91
385.95	351.08
386.14	449.38
386.34	367.46
386.53	461.09
386.72	402.57
386.92	442.36
387.11	461.09
387.31	397.89
387.50	465.77
387.70	388.53
387.89	390.87
388.09	458.74
388.28	449.38
388.48	379.17
388.67	397.89
388.86	414.27
389.06	463.43
389.25	496.19
389.45	533.64
389.64	454.06
389.84	503.22
390.03	390.87
390.22	538.32
390.42	463.43
390.61	465.77
390.81	507.90
391.00	531.30
391.19	451.72
391.39	449.38
391.58	470.45
391.78	578.11
391.97	507.90
392.16	580.45
392.36	482.15
392.55	475.13
392.75	533.64
392.94	543.00
393.13	582.79
393.33	528.96
393.52	571.09
393.71	559.39
393.91	564.07
394.10	547.69
394.29	662.37
394.49	552.37
394.68	519.60
394.88	514.92
395.07	589.82
395.26	638.97
395.46	685.78
395.65	702.16
395.84	725.57
396.04	613.22
396.23	589.82
396.42	692.80
396.62	648.33
396.81	650.67
397.00	564.07
397.19	622.58
397.39	723.23
397.58	660.03
397.77	737.27
397.97	695.14
398.16	702.16
398.35	763.01
398.55	767.70
398.74	667.05
398.93	734.93
399.12	671.73
399.32	713.86
399.51	805.14
399.70	727.91
399.90	704.50
400.09	805.14
400.28	774.72
400.47	816.85
400.67	819.19
400.86	805.14
401.05	737.27
401.24	746.63
401.44	793.44
401.63	767.70
401.82	828.55
402.01	856.64
402.21	802.80
402.40	924.51
402.59	774.72
402.78	858.98
402.97	844.93
403.17	877.70
403.36	828.55
403.55	929.19
403.74	912.81
403.93	861.32
404.13	926.85
404.32	880.04
404.51	847.27
404.70	957.28
404.89	938.55
405.09	924.51
405.28	870.68
405.47	1013.45
405.66	985.37
405.85	1015.79
406.05	1046.22
406.24	1041.54
406.43	1004.09
406.62	1114.10
406.81	1020.47
407.00	1050.90
407.20	1036.86
407.39	990.05
407.58	1027.50
407.77	1055.58
407.96	1144.52
408.15	1093.03
408.34	1074.31
408.54	1184.31
408.73	1156.22
408.92	1167.93
409.11	1163.25
409.30	1228.78
409.49	1123.46
409.68	1193.67
409.87	1196.01
410.07	1191.33
410.26	1191.33
410.45	1235.80
410.64	1158.57
410.83	1121.12
411.02	1226.44
411.21	1249.85
411.40	1200.69
411.59	1320.06
411.78	1282.61
411.98	1301.34
412.17	1287.29
412.36	1289.64
412.55	1343.47
412.74	1345.81
412.93	1378.58
413.12	1303.68
413.31	1497.94
413.50	1359.85
413.69	1296.66
413.88	1502.62
414.07	1444.11
414.26	1446.45
414.45	1561.14
414.64	1547.09
414.83	1455.81
415.02	1647.74
415.22	1549.43
415.41	1556.46
415.60	1572.84
415.79	1547.09
415.98	1624.33
416.17	1652.42
416.36	1626.67
416.55	1739.02
416.74	1682.85
416.93	1652.42
417.12	1739.02
417.31	1729.66
417.50	1732.00
417.69	1755.40
417.88	1753.06
418.07	1739.02
418.26	1748.38
418.45	1895.83
418.64	1837.32
418.83	1888.81
419.02	1825.62
419.21	1849.02
419.39	1816.26
419.58	1940.30
419.77	1863.07
419.96	1933.28
420.15	1785.83
420.34	2003.50
420.53	1774.13
420.72	1919.24
420.91	1844.34
421.10	1975.41
421.29	2008.18
421.48	2005.84
421.67	1961.37
421.86	2001.16
422.05	2134.57
422.24	1989.46
422.43	2036.27
422.61	1954.35
422.80	2054.99
422.99	2066.69
423.18	1886.47
423.37	2040.95
423.56	2115.84
423.75	1977.75
423.94	1963.71
424.13	1975.41
424.32	1872.43
424.50	2111.16
424.69	2083.08
424.88	2193.08
425.07	2026.90
425.26	2045.63
425.45	2073.71
425.64	1996.48
425.83	1975.41
426.01	2024.56
426.20	2097.12
426.39	2054.99
426.58	2069.03
426.77	2136.91
426.96	2139.25
427.15	2090.10
427.33	2207.13
427.52	2218.83
427.71	2132.23
427.90	2129.89
428.09	2120.53
428.28	2136.91
428.46	2202.44
428.65	2244.57
428.84	2230.53
429.03	2251.60
429.22	2186.06
429.40	2317.13
429.59	2422.45
429.78	2200.10
429.97	2162.66
430.16	2331.17
430.34	2385.01
430.53	2394.37
430.72	2333.51
430.91	2317.13
431.10	2310.11
431.28	2335.85
431.47	2368.62
431.66	2392.03
431.85	2431.82
432.03	2516.08
432.22	2429.48
432.41	2471.61
432.60	2574.59
432.79	2525.44
432.97	2413.09
433.16	2487.99
433.35	2534.80
433.54	2516.08
433.72	2551.18
433.91	2548.84
434.10	2525.44
434.28	2506.71
434.47	2700.98
434.66	2619.06
434.85	2593.31
435.03	2619.06
435.22	2626.08
435.41	2768.85
435.59	2663.53
435.78	2602.68
435.97	2581.61
436.16	2792.26
436.34	2651.83
436.53	2719.70
436.72	2843.75
436.90	2586.29
437.09	2848.43
437.28	2597.99
437.46	2806.30
437.65	2635.44
437.84	2747.79
438.02	2909.29
438.21	2862.48
438.40	2743.11
438.58	2946.73
438.77	2932.69
438.96	3007.59
439.14	2923.33
439.33	2960.78
439.52	3021.63
439.70	3091.85
439.89	3066.10
440.08	3096.53
440.26	3124.62
440.45	3094.19
440.63	3014.61
440.82	3143.34
441.01	3138.66
441.19	3133.98
441.38	3192.49
441.57	3243.98
441.75	3225.26
441.94	3295.47
442.12	3346.97
442.31	3361.01
442.50	3262.71
442.68	3433.57
442.87	3421.86
443.05	3452.29
443.24	3389.10
443.43	3459.31
443.61	3585.70
443.80	3475.70
443.98	3433.57
444.17	3272.07
444.35	3508.46
444.54	3506.12
444.73	3616.13
444.91	3449.95
445.10	3522.51
445.28	3346.97
445.47	3405.48
445.65	3487.40
445.84	3527.19
446.02	3520.17
446.21	3681.66
446.39	3485.06
446.58	3569.32
446.77	3662.94
446.95	3405.48
447.14	3522.51
447.32	3475.70
447.51	3599.74
447.69	3480.38
447.88	3548.25
448.06	3653.58
448.25	3630.17
448.43	3578.68
448.62	3562.30
448.80	3578.68
448.99	3590.38
449.17	3686.34
449.36	3667.62
449.54	3599.74
449.73	3707.41
449.91	3662.94
450.10	3719.11
450.28	3714.43
450.46	3824.44
450.65	3679.32
450.83	3756.56
451.02	3915.72
451.20	3978.91
451.39	3943.80
451.57	3817.41
451.76	3812.73
451.94	3735.50
452.13	3843.16
452.31	3889.97
452.49	3983.59
452.68	3983.59
452.86	3988.27
453.05	4004.66
453.23	4128.70
453.42	3939.12
453.60	3861.88
453.78	3873.59
453.97	4007.00
454.15	3838.48
454.34	4138.07
454.52	4021.04
454.70	4007.00
454.89	3971.89
455.07	4070.19
455.26	4088.92
455.44	4229.35
455.62	4168.49
455.81	4067.85
455.99	4124.02
456.17	4156.79
456.36	4294.88
456.54	4311.27
456.73	4315.95
456.91	4292.54
457.09	4320.63
457.28	4468.08
457.46	4245.73
457.64	4484.47
457.83	4493.83
458.01	4327.65
458.19	4430.63
458.38	4437.66
458.56	4552.34
458.74	4578.09
458.93	4308.93
459.11	4442.34
459.29	4386.16
459.48	4599.15
459.66	4531.28
459.84	4559.36
460.03	4631.92
460.21	4533.62
460.39	4580.43
460.57	4674.05
460.76	4753.63
460.94	4662.35
461.12	4671.71
461.31	4842.57
461.49	4812.14
461.67	4498.51
461.85	4702.14
462.04	4739.58
462.22	5163.22
462.40	4868.31
462.59	4868.31
462.77	4968.96
462.95	4868.31
463.13	4699.80
463.32	4973.64
463.50	4894.06
463.68	4840.23
463.86	5011.09
464.05	4915.12
464.23	4865.97
464.41	4997.04
464.59	4966.62
464.78	4971.30
464.96	4912.78
465.14	4873.00
465.32	4978.32
465.50	4877.68
465.69	5135.14
465.87	5050.88
466.05	4983.00
466.23	5036.83
466.41	5111.73
466.60	5355.15
466.78	5149.18
466.96	5114.07
467.14	5181.95
467.32	5357.49
467.51	5366.85
467.69	5261.52
467.87	5167.90
468.05	5287.27
468.23	5205.35
468.41	5203.01
468.60	5411.32
468.78	5313.02
468.96	5259.18
469.14	5320.04
469.32	5210.03
469.50	5259.18
469.69	5427.70
469.87	5549.41
470.05	5530.69
470.23	5476.85
470.41	5488.56
470.59	5542.39
470.77	5495.58
470.95	5551.75
471.14	5673.46
471.32	5715.59
471.50	5834.96
471.68	5701.54
471.86	5771.76
472.04	5687.50
472.22	5823.25
472.40	5788.14
472.58	5804.53
472.77	5841.98
472.95	5760.06
473.13	6104.12
473.31	5715.59
473.49	5841.98
473.67	5996.45
473.85	6162.63
474.03	6141.57
474.21	6097.10
474.39	6115.82
474.57	6134.54
474.75	6270.30
474.93	6270.30
475.12	6265.61
475.30	6282.00
475.48	6392.00
475.66	6176.67
475.84	6408.39
476.02	6408.39
476.20	6562.86
476.38	6661.16
476.56	6810.96
476.74	6724.36
476.92	6684.57
477.10	6698.61
477.28	6602.65
477.46	6747.76
477.64	6778.19
477.82	6995.86
478.00	7035.65
478.18	7218.21
478.36	7150.34
478.54	7375.03
478.72	7110.55
478.90	7377.37
479.08	7323.54
479.26	7309.49
479.44	7604.40
479.62	7482.69
479.80	7557.59
479.98	7672.28
480.16	7681.64
480.34	7534.18
480.52	7812.71
480.70	7829.09
480.88	7751.85
481.06	7754.19
481.24	7735.47
481.41	8035.06
481.59	8067.83
481.77	8250.39
481.95	8060.80
482.13	8245.71
482.31	8320.60
482.49	8468.06
482.67	8446.99
482.85	8641.26
483.03	8645.94
483.21	8774.67
483.39	8662.32
483.57	8681.05
483.74	8889.35
483.92	8868.29
484.10	8725.52
484.28	9160.86
484.46	9179.58
484.64	9280.22
484.82	9172.56
485.00	9256.82
485.18	9408.95
485.35	9640.67
485.53	9525.98
485.71	9696.84
485.89	9769.40
486.07	9778.76
486.25	9727.27
486.43	9893.44
486.61	10068.98
486.78	9888.76
486.96	10043.24
487.14	10073.67
487.32	10249.21
487.50	10314.74
487.68	10619.01
487.85	10494.96
488.03	10647.10
488.21	11026.26
488.39	10911.58
488.57	10672.84
488.75	11012.22
488.92	11192.44
489.10	11159.67
489.28	11283.72
489.46	11375.00
489.64	11218.19
489.81	11447.56
489.99	11534.16
490.17	11391.39
490.35	11653.53
490.53	11648.85
490.70	11939.07
490.88	11941.41
491.06	12030.35
491.24	11974.18
491.41	12177.81
491.59	12163.76
491.77	12058.44
491.95	12217.60
492.13	12372.07
492.30	12496.12
492.48	12313.56
492.66	12688.04
492.84	12379.09
493.01	12655.28
493.19	12840.18
493.37	12863.58
493.54	13217.01
493.72	13259.13
493.90	13032.10
494.08	13186.58
494.25	13401.91
494.43	13455.74
494.61	13415.95
494.79	13418.29
494.96	13547.02
495.14	13846.61
495.32	13858.31
495.49	13802.14
495.67	13879.38
495.85	14087.68
496.02	14183.65
496.20	14094.71
496.38	14190.67
496.55	14209.39
496.73	14516.00
496.91	14335.78
497.09	14544.09
497.26	14656.43
497.44	14647.07
497.62	14899.85
497.79	14876.44
497.97	14944.32
498.14	14958.36
498.32	15229.87
498.50	15304.76
498.67	15260.29
498.85	15309.44
499.03	15379.66
499.20	15171.35
499.38	15370.30
499.56	15335.19
499.73	15716.70
499.91	15936.71
500.08	15857.13
500.26	15807.98
500.44	15435.83
500.61	15726.06
500.79	15850.11
500.97	15925.00
501.14	16187.14
501.32	16145.02
501.49	16346.30
501.67	16273.74
501.84	16240.98
502.02	16294.81
502.20	16465.67
502.37	16376.73
502.55	16442.26
502.72	16428.22
502.90	16617.80
503.07	16540.57
503.25	16622.48
503.43	16774.62
503.60	17226.34
503.78	16996.97
503.95	16975.91
504.13	17027.40
504.30	17184.21
504.48	16865.90
504.65	17109.32
504.83	16924.41
505.01	17455.72
505.18	17373.80
505.36	17839.56
505.53	17495.50
505.71	17628.92
505.88	17263.79
506.06	17422.95
506.23	17645.30
506.41	17884.03
506.58	17956.59
506.76	17811.48
506.93	17839.56
507.11	17537.63
507.28	17914.46
507.46	18040.85
507.63	18195.32
507.81	18232.77
507.98	18164.90
508.16	18001.06
508.33	18391.93
508.50	18223.41
508.68	18340.44
508.85	18611.94
509.03	18537.04
509.20	18672.79
509.38	18712.58
509.55	18562.79
509.73	18412.99
509.90	18539.38
510.08	18834.29
510.25	18895.14
510.42	19138.56
510.60	19185.37
510.77	19126.86
510.95	19227.50
511.12	19047.28
511.30	18960.68
511.47	19208.78
511.64	19276.65
511.82	19814.98
511.99	19410.06
512.17	19569.22
512.34	19403.04
512.51	19728.38
512.69	19461.55
512.86	19506.02
513.04	19929.66
513.21	19981.15
513.38	19775.19
513.56	20077.12
513.73	19578.58
513.90	20388.41
514.08	19969.45
514.25	20362.66
514.43	20112.22
514.60	20320.53
514.77	20308.83
514.95	20196.48
515.12	20393.09
515.29	20025.62
515.47	20372.02
515.64	20568.63
515.81	20587.35
515.99	20711.40
516.16	20606.08
516.33	20720.76
516.51	20524.16
516.68	20463.30
516.85	20568.63
517.03	20975.88
517.20	20725.44
517.37	20776.94
517.54	21123.33
517.72	21013.33
517.89	21083.55
518.06	21231.00
518.24	20788.64
518.41	21235.68
518.58	21341.00
518.75	21064.82
518.93	21678.04
519.10	21067.16
519.27	21549.31
519.45	21465.05
519.62	21736.56
519.79	21479.10
519.96	21436.97
520.14	21813.79
520.31	21762.30
520.48	21715.49
520.65	21848.90
520.83	21582.08
521.00	22022.10
521.17	21956.57
521.34	21771.66
521.52	21846.56
521.69	22260.84
521.86	21968.27
522.03	22136.79
522.20	22417.65
522.38	22078.27
522.55	22218.71
522.72	22185.94
522.89	22298.28
523.07	22625.96
523.24	22190.62
523.41	22588.51
523.58	22195.30
523.75	22504.25
523.92	22602.55
524.10	22600.21
524.27	22714.90
524.44	22895.12
524.61	23161.94
524.78	23168.96
524.96	23239.18
525.13	22958.31
525.30	23147.90
525.47	23000.44
525.64	23431.10
525.81	23278.97
525.98	23192.37
526.16	23442.81
526.33	23442.81
526.50	23417.06
526.67	23351.52
526.84	23407.70
527.01	23861.76
527.18	23569.19
527.36	23707.29
527.53	23669.84
527.70	24177.73
527.87	23831.33
528.04	23585.58
528.21	23707.29
528.38	23728.35
528.55	23957.72
528.72	23414.72
528.89	23552.81
529.07	24322.85
529.24	23648.77
529.41	24039.64
529.58	24065.39
529.75	23744.73
529.92	24151.99
530.09	24304.12
530.26	24025.60
530.43	24465.62
530.60	24315.83
530.77	24261.99
530.94	24025.60
531.11	24402.43
531.28	24247.95
531.46	24219.86
531.63	24519.45
531.80	24596.69
531.97	24812.02
532.14	25158.42
532.31	24542.86
532.48	24673.93
532.65	24603.71
532.82	24531.15
532.99	24687.97
533.16	24711.38
533.33	24807.34
533.50	25062.46
533.67	24816.70
533.84	24680.95
534.01	24929.05
534.18	24664.57
534.35	25387.79
534.52	24868.19
534.69	25174.80
534.86	25413.54
535.03	25642.91
535.20	25268.42
535.37	25453.33
535.54	25340.98
535.71	25109.27
535.88	25497.80
536.05	25144.38
536.22	25252.04
536.38	25305.87
536.55	25778.66
536.72	25748.23
536.89	25324.60
537.06	25408.86
537.23	25563.33
537.40	25727.17
537.57	25497.80
537.74	25757.60
537.91	26096.97
538.08	25909.73
538.25	25802.07
538.42	25830.15
538.59	25940.16
538.75	25996.33
538.92	25893.35
539.09	25827.81
539.26	25965.90
539.43	26150.81
539.60	26490.18
539.77	25795.04
539.94	26139.10
540.11	26232.72
540.28	26050.16
540.44	26204.64
540.61	26176.55
540.78	26136.76
540.95	26345.07
541.12	26298.26
541.29	26469.12
541.46	26511.25
541.62	26307.62
541.79	26569.76
541.96	26298.26
542.13	26394.22
542.30	26422.31
542.47	26801.47
542.63	26623.59
542.80	26817.86
542.97	26930.20
543.14	26843.60
543.31	26684.45
543.48	26438.69
543.64	27159.58
543.81	27147.87
543.98	27035.53
544.15	27042.55
544.32	27187.66
544.48	27569.17
544.65	27108.08
544.82	27065.96
544.99	26881.05
545.16	27154.90
545.32	27321.07
545.49	27208.73
545.66	27978.76
545.83	27632.36
546.00	27667.47
546.16	27431.08
546.33	27573.85
546.50	27239.15
546.67	27604.28
546.83	27367.88
547.00	27520.02
547.17	27402.99
547.34	27454.48
547.50	27665.13
547.67	27470.87
547.84	27543.42
548.00	27632.36
548.17	27711.94
548.34	27618.32
548.51	27955.36
548.67	28126.22
548.84	27910.89
549.01	27737.69
549.18	28070.04
549.34	27934.29
549.51	27946.00
549.68	28086.43
549.84	28060.68
550.01	27873.44
550.18	27819.61
550.34	27917.91
550.51	28135.58
550.68	28528.79
550.84	27880.46
551.01	28318.14
551.18	28348.57
551.34	28147.28
551.51	28187.07
551.68	27962.38
551.84	28334.53
552.01	28453.89
552.18	28589.64
552.34	28367.29
552.51	28477.30
552.68	28442.19
552.84	28709.01
553.01	28493.68
553.18	28620.07
553.34	28540.49
553.51	28526.45
553.67	28959.45
553.84	28966.47
554.01	28788.59
554.17	28549.85
554.34	28985.19
554.51	28650.50
554.67	28811.99
554.84	28919.66
555.00	28924.34
555.17	28484.32
555.33	28680.92
555.50	28861.15
555.67	28844.76
555.83	28737.10
556.00	28521.77
556.16	29120.95
556.33	29146.69
556.50	28879.87
556.66	28790.93
556.83	28615.39
556.99	28964.13
557.16	29855.87
557.32	29177.12
557.49	29549.26
557.65	29071.79
557.82	29149.03
557.98	29095.20
558.15	29109.24
558.32	29172.44
558.48	28982.85
558.65	29446.28
558.81	28919.66
558.98	29532.88
559.14	29537.56
559.31	29408.83
559.47	29310.53
559.64	29127.97
559.80	29263.72
559.97	29443.94
560.13	29371.38
560.30	29109.24
560.46	29074.13
560.63	29259.04
560.79	29207.55
560.96	29778.64
561.12	29226.27
561.29	29647.57
561.45	29469.69
561.61	29834.81
561.78	30094.61
561.94	29591.39
562.11	29776.30
562.27	29624.16
562.44	29322.23
562.60	29701.40
562.77	29769.27
562.93	29649.91
563.10	29862.90
563.26	29528.20
563.42	30139.08
563.59	29612.46
563.75	29851.19
563.92	29965.88
564.08	29647.57
564.24	29872.26
564.41	30052.48
564.57	29689.70
564.74	29567.99
564.90	29944.81
565.07	29507.13
565.23	30183.55
565.39	29689.70
565.56	30036.09
565.72	29972.90
565.88	30106.31
566.05	29951.84
566.21	29839.49
566.38	29982.26
566.54	30160.14
566.70	30029.07
566.87	30155.46
567.03	29951.84
567.19	30239.72
567.36	29940.13
567.52	30237.38
567.68	30450.37
567.85	30094.61
568.01	30157.80
568.17	29743.53
568.34	30148.44
568.50	30164.82
568.66	29898.00
568.83	30501.86
568.99	30237.38
569.15	30068.86
569.32	30054.82
569.48	30031.41
569.64	30089.93
569.81	30244.40
569.97	30239.72
570.13	30340.36
570.30	30026.73
570.46	30441.01
570.62	30153.12
570.78	30029.07
570.95	30190.57
571.11	30118.01
571.27	29830.13
571.43	30487.82
571.60	30307.60
571.76	30225.68
571.92	30410.58
572.09	30501.86
572.25	30192.91
572.41	30335.68
572.57	30202.27
572.74	30003.33
572.90	30167.16
573.06	30562.72
573.22	30075.88
573.38	30443.35
573.55	30382.49
573.71	30527.61
573.87	30602.50
574.03	30258.45
574.20	30157.80
574.36	30300.58
574.52	30213.98
574.68	30586.12
574.84	30424.62
575.01	30204.61
575.17	30286.53
575.33	30567.40
575.49	30129.72
575.65	30497.18
575.82	30726.55
575.98	30499.52
576.14	30771.02
576.30	30450.37
576.46	30466.75
576.62	30630.59
576.79	30270.15
576.95	30345.05
577.11	30293.55
577.27	30764.00
577.43	30597.82
577.59	30277.17
577.75	30764.00
577.92	30565.06
578.08	30321.64
578.24	30405.90
578.40	30167.16
578.56	30672.72
578.72	30838.90
578.88	30937.20
579.04	30796.77
579.21	30841.24
579.37	30930.18
579.53	30525.27
579.69	30518.25
579.85	30359.09
580.01	30511.22
580.17	30670.38
580.33	30639.95
580.49	30129.72
580.65	30859.96
580.82	30862.30
580.98	30630.59
581.14	30693.79
581.30	30658.68
581.46	30284.19
581.62	30658.68
581.78	30494.84
581.94	30742.94
582.10	30457.39
582.26	30628.25
582.42	30726.55
582.58	31215.72
582.74	30939.54
582.90	30513.56
583.06	30644.63
583.22	31089.34
583.38	30665.70
583.54	30871.67
583.70	30787.41
583.86	30576.76
584.02	30274.83
584.18	31051.89
584.34	30705.49
584.50	31168.91
584.66	30679.74
584.82	30862.30
584.98	30920.82
585.14	30705.49
585.30	30323.98
585.46	30462.07
585.62	30394.20
585.78	31002.74
585.94	30473.78
586.10	30761.66
586.26	30651.66
586.42	31014.44
586.58	31150.19
586.74	30616.55
586.90	30855.28
587.06	30473.78
587.22	30698.47
587.38	31042.53
587.54	30668.04
587.70	30981.67
587.86	30998.06
588.02	31131.47
588.18	31180.62
588.34	30937.20
588.49	30878.69
588.65	30747.62
588.81	30897.41
588.97	30920.82
589.13	30579.10
589.29	31089.34
589.45	30567.40
589.61	30747.62
589.77	31672.13
589.93	31171.25
590.08	31007.42
590.24	31049.55
590.40	30944.22
590.56	31070.61
590.72	31278.92
590.88	30675.06
591.04	30836.56
591.20	31412.33
591.35	31199.34
591.51	31255.51
591.67	31648.72
591.83	31405.31
591.99	31489.57
592.15	31358.50
592.31	31138.49
592.46	31026.14
592.62	31189.98
592.78	31395.95
592.94	30845.92
593.10	31152.53
593.26	31292.96
593.41	31248.49
593.57	31473.18
593.73	31370.20
593.89	31290.62
594.05	31112.74
594.20	30726.55
594.36	31143.17
594.52	30859.96
594.68	31087.00
594.84	31087.00
594.99	31475.52
595.15	31103.38
595.31	31676.81
595.47	31309.35
595.62	31541.06
595.78	31285.94
595.94	31515.31
596.10	31283.60
596.25	31112.74
596.41	30888.05
596.57	31388.92
596.73	31470.84
596.88	31182.96
597.04	31505.95
597.20	31529.36
597.36	31201.68
597.51	31466.16
597.67	31026.14
597.83	31613.62
597.99	31363.18
598.14	31182.96
598.30	31147.85
598.46	31248.49
598.61	31321.05
598.77	31365.52
598.93	31372.54
599.09	31171.25
599.24	31679.15
599.40	31625.32
599.56	31407.65
599.71	31356.16
599.87	31686.17
600.03	30820.17
600.18	31222.75
600.34	31054.23
600.50	31201.68
600.65	31707.24
600.81	31524.68
600.97	31508.29
601.12	31821.92
601.28	31505.95
601.44	31665.11
601.59	31225.09
601.75	31269.56
601.91	31845.33
602.06	31583.19
602.22	31391.26
602.37	31365.52
602.53	31346.79
602.69	31550.42
602.84	31637.02
603.00	31367.86
603.16	31337.43
603.31	31531.70
603.47	31559.78
603.62	31791.50
603.78	31098.70
603.94	31421.69
604.09	31419.35
604.25	31386.58
604.40	31218.07
604.56	31627.66
604.71	31803.20
604.87	31405.31
605.03	31384.24
605.18	31805.54
605.34	31435.74
605.49	30918.48
605.65	31435.74
605.80	31358.50
605.96	31660.43
606.12	31236.79
606.27	31751.71
606.43	31379.56
606.58	31372.54
606.74	31763.41
606.89	31585.53
607.05	31409.99
607.20	31175.94
607.36	31337.43
607.51	31793.84
607.67	30789.75
607.82	31370.20
607.98	31164.23
608.13	31131.47
608.29	31391.26
608.44	31278.92
608.60	31543.40
608.75	31519.99
608.91	31307.01
609.06	31103.38
609.22	31260.20
609.37	31019.12
609.53	31213.38
609.68	31000.40
609.84	30934.86
609.99	31056.57
610.15	30848.26
610.30	31122.10
610.46	30588.46
610.61	31489.57
610.76	31597.23
610.92	31023.80
611.07	30897.41
611.23	31218.07
611.38	31110.40
611.54	30433.99
611.69	30499.52
611.84	30749.96
612.00	30721.87
612.15	31061.25
612.31	30948.90
612.46	30930.18
612.62	31309.35
612.77	31269.56
612.92	31496.59
613.08	30822.51
613.23	30780.39
613.39	30616.55
613.54	30670.38
613.69	30691.44
613.85	30799.11
614.00	30937.20
614.15	30862.30
614.31	30998.06
614.46	30991.03
614.62	30808.47
614.77	31068.27
614.92	30756.98
615.08	30607.19
615.23	30787.41
615.38	30899.75
615.54	30291.21
615.69	30333.34
615.84	30595.48
616.00	30771.02
616.15	30422.28
616.30	30920.82
616.46	30628.25
616.61	30911.46
616.76	30845.92
616.92	30604.84
617.07	30930.18
617.22	30630.59
617.37	30541.65
617.53	30546.33
617.68	30920.82
617.83	30593.14
617.99	30532.29
618.14	30476.12
618.29	30604.84
618.45	30501.86
618.60	29991.62
618.75	30466.75
618.90	30352.07
619.06	30813.15
619.21	30527.61
619.36	30321.64
619.51	30216.32
619.67	30134.40
619.82	30038.44
619.97	30232.70
620.12	30331.00
620.28	29626.50
620.43	30225.68
620.58	30466.75
620.73	30066.52
620.89	30424.62
621.04	30658.68
621.19	30174.19
621.34	30195.25
621.49	29860.55
621.65	29914.39
621.80	30101.63
621.95	30134.40
622.10	30309.94
622.25	30064.18
622.41	30171.85
622.56	29738.85
622.71	30239.72
622.86	29802.04
623.01	30380.15
623.16	29673.31
623.32	29848.85
623.47	30040.78
623.62	29518.84
623.77	29874.60
623.92	29949.50
624.07	29560.97
624.23	29837.15
624.38	29876.94
624.53	29998.65
624.68	29909.71
624.83	30122.69
624.98	30052.48
625.13	29780.98
625.29	29928.43
625.44	29930.77
625.59	29347.98
625.74	29507.13
625.89	29486.07
626.04	29408.83
626.19	29816.08
626.34	29556.28
626.49	29556.28
626.65	29500.11
626.80	29656.93
626.95	29237.97
627.10	29605.44
627.25	29443.94
627.40	29462.66
627.55	29518.84
627.70	29362.02
627.85	28996.90
628.00	29514.16
628.15	29230.95
628.30	29483.73
628.45	29322.23
628.60	29317.55
628.76	29303.51
628.91	29347.98
629.06	29048.39
629.21	29095.20
629.36	29427.56
629.51	28833.06
629.66	29036.69
629.81	28933.70
629.96	29069.45
630.11	28577.94
630.26	28940.72
630.41	29340.96
630.56	29029.66
630.71	29167.76
630.86	29294.14
631.01	28973.49
631.16	29111.58
631.31	28910.30
631.46	28608.37
631.61	29064.77
631.76	28725.39
631.91	28673.90
632.06	29085.84
632.21	28816.68
632.36	28929.02
632.51	28477.30
632.66	28746.46
632.81	28718.37
632.96	28882.21
633.10	28746.46
633.25	28711.35
633.40	29015.62
633.55	28678.58
633.70	28360.27
633.85	28615.39
634.00	28081.75
634.15	28507.72
634.30	28809.65
634.45	28779.23
634.60	28634.11
634.75	28400.06
634.90	28704.33
635.05	28872.85
635.19	28350.91
635.34	28783.91
635.49	28861.15
635.64	28531.13
635.79	28781.57
635.94	28208.14
636.09	28711.35
636.24	28596.67
636.39	27995.15
636.53	28102.81
636.68	28126.22
636.83	28023.23
636.98	28266.65
637.13	28325.16
637.28	28077.07
637.43	28400.06
637.57	28402.40
637.72	28327.50
637.87	28177.71
638.02	28278.35
638.17	27983.44
638.32	28353.25
638.46	28053.66
638.61	28276.01
638.76	28053.66
638.91	27814.93
639.06	27819.61
639.20	28018.55
639.35	28512.41
639.50	28147.28
639.65	28437.51
639.80	27983.44
639.94	28030.26
640.09	28070.04
640.24	28060.68
640.39	27770.46
640.54	27536.40
640.68	27814.93
640.83	27775.14
640.98	27751.73
641.13	27405.33
641.27	27936.63
641.42	27931.95
641.57	27665.13
641.72	28037.28
641.86	27669.81
642.01	27384.27
642.16	27590.24
642.31	27337.46
642.45	27278.94
642.60	27372.57
642.75	27220.43
642.90	27166.60
643.04	27033.19
643.19	27501.29
643.34	27639.39
643.48	27985.79
643.63	27651.09
643.78	27587.89
643.93	27491.93
644.07	27798.54
644.22	27751.73
644.37	27527.04
644.51	27143.19
644.66	27585.55
644.81	27386.61
644.95	27337.46
645.10	27091.70
645.25	27234.47
645.39	27243.84
645.54	27477.89
645.69	27171.28
645.83	27559.81
645.98	27115.11
646.13	27241.50
646.27	27545.76
646.42	26738.28
646.57	27562.15
646.71	27094.04
646.86	27236.81
647.00	26944.25
647.15	27082.34
647.30	26955.95
647.44	26958.29
647.59	27166.60
647.74	27154.90
647.88	27290.65
648.03	27395.97
648.17	27168.94
648.32	27307.03
648.47	27300.01
648.61	27077.66
648.76	27384.27
648.90	26993.40
649.05	27150.21
649.20	26885.73
649.34	26698.49
649.49	26656.36
649.63	26588.49
649.78	26724.24
649.92	26469.12
650.07	26822.54
650.21	26728.92
650.36	26466.78
650.51	26459.76
650.65	26806.16
650.80	26698.49
650.94	27103.40
651.09	26623.59
651.23	26366.13
651.38	26859.99
651.52	26824.88
651.67	26572.10
651.81	26415.29
651.96	26572.10
652.10	26843.60
652.25	26206.98
652.39	26955.95
652.54	26635.30
652.68	26520.61
652.83	26572.10
652.97	26925.52
653.12	26548.70
653.26	26300.60
653.41	26754.66
653.55	26354.43
653.70	26345.07
653.84	26480.82
653.99	26120.38
654.13	26710.19
654.27	26288.90
654.42	26157.83
654.56	26366.13
654.71	26132.08
654.85	26345.07
655.00	26038.46
655.14	26319.32
655.29	26190.59
655.43	26546.36
655.57	26214.00
655.72	25977.61
655.86	25703.76
656.01	26422.31
656.15	26148.46
656.30	25816.11
656.44	26064.21
656.58	26008.03
656.73	25586.74
656.87	26181.23
657.01	26101.65
657.16	26010.37
657.30	26284.22
657.45	25883.98
657.59	26143.78
657.73	25965.90
657.88	26134.42
658.02	25930.80
658.16	25773.98
658.31	25696.74
658.45	25813.77
658.60	25649.93
658.74	25432.26
658.88	25827.81
659.03	25734.19
659.17	25577.37
659.31	26061.87
659.46	25642.91
659.60	25692.06
659.74	26052.50
659.89	25654.61
660.03	25678.02
660.17	25713.13
660.32	25855.90
660.46	25436.94
660.60	24826.06
660.74	25238.00
660.89	25200.55
661.03	25067.14
661.17	25109.27
661.32	25135.01
661.46	25465.03
661.60	25294.17
661.74	25067.14
661.89	25214.59
662.03	25062.46
662.17	25348.00
662.31	24575.62
662.46	25268.42
662.60	24517.11
662.74	25078.84
662.88	24917.34
663.03	24631.80
663.17	24631.80
663.31	24781.59
663.45	24739.46
663.60	24702.01
663.74	24573.28
663.88	24758.19
664.02	24676.27
664.17	24994.58
664.31	24423.49
664.45	24716.06
664.59	24496.05
664.73	24261.99
664.88	24491.37
665.02	24243.27
665.16	24264.33
665.30	24175.39
665.44	24018.58
665.59	24044.32
665.73	23974.11
665.87	23737.71
666.01	24306.46
666.15	24058.37
666.29	24266.67
666.44	24367.32
666.58	24004.53
666.72	23599.62
666.86	23943.68
667.00	24453.92
667.14	24318.17
667.28	24006.87
667.43	23709.63
667.57	24196.46
667.71	23859.42
667.85	23908.57
667.99	23494.30
668.13	23503.66
668.27	23716.65
668.41	23541.11
668.56	23311.74
668.70	23449.83
668.84	23718.99
668.98	23733.03
669.12	23672.18
669.26	23590.26
669.40	23693.24
669.54	23445.15
669.68	23278.97
669.82	23241.52
669.96	23311.74
670.10	23101.09
670.25	23288.33
670.39	23026.19
670.53	23243.86
670.67	22848.31
670.81	23058.96
670.95	22986.40
671.09	22923.21
671.23	22794.48
671.37	23028.53
671.51	23115.13
671.65	23014.49
671.79	22831.93
671.93	22661.07
672.07	22396.59
672.21	22878.74
672.35	22675.11
672.49	22441.06
672.63	22263.18
672.77	22155.51
672.91	22499.57
673.05	21947.20
673.19	22354.46
673.33	22111.04
673.47	22597.87
673.61	22539.36
673.75	22338.07
673.89	22244.45
674.03	22331.05
674.17	21914.44
674.31	22033.80
674.45	21951.88
674.59	21884.01
674.73	21937.84
674.87	22080.61
675.01	21689.74
675.15	21362.07
675.29	21825.50
675.43	21563.36
675.56	21493.14
675.70	21600.80
675.84	21565.70
675.98	21137.38
676.12	21326.96
676.26	21516.54
676.40	21383.13
676.54	21617.19
676.68	21689.74
676.82	20816.72
676.96	20889.28
677.10	20861.19
677.23	20900.98
677.37	20706.72
677.51	20718.42
677.65	20659.91
677.79	20475.01
677.93	20788.64
678.07	20521.82
678.21	20435.22
678.34	20259.68
678.48	20439.90
678.62	20411.81
678.76	20285.42
678.90	20297.13
679.04	19964.77
679.18	19903.92
679.31	20135.63
679.45	19887.53
679.59	20112.22
679.73	19960.09
679.87	19910.94
680.00	19590.28
680.14	19417.08
680.28	19719.01
680.42	19601.99
680.56	19798.59
680.70	19506.02
680.83	19681.56
680.97	19559.86
681.11	19475.60
681.25	19496.66
681.39	19363.25
681.52	19236.86
681.66	19138.56
681.80	19234.52
681.94	18899.83
682.07	19215.80
682.21	18822.59
682.35	19023.87
682.49	19030.90
682.62	18539.38
682.76	18541.72
682.90	18874.08
683.04	18686.84
683.17	18824.93
683.31	18572.15
683.45	18604.92
683.59	18436.40
683.72	18370.86
683.86	18508.96
684.00	18427.04
684.13	18476.19
684.27	18104.04
684.41	17984.68
684.55	17729.56
684.68	17586.79
684.82	18005.74
684.96	17652.32
685.09	17696.79
685.23	17640.62
685.37	17619.55
685.50	17972.97
685.64	17788.07
685.78	17750.62
685.91	17722.54
686.05	17535.29
686.19	17308.26
686.32	17376.14
686.46	17191.23
686.60	16982.93
686.73	17081.23
686.87	17104.64
687.01	16957.18
687.14	16734.83
687.28	17036.76
687.42	16837.81
687.55	16985.27
687.69	16514.82
687.82	16519.50
687.96	16620.14
688.10	16662.27
688.23	16704.40
688.37	16348.64
688.50	16294.81
688.64	16402.47
688.78	16168.42
688.91	16219.91
689.05	16161.40
689.18	16102.89
689.32	15784.57
689.46	15857.13
689.59	15690.95
689.73	16163.74
689.86	15594.99
690.00	15981.18
690.13	15878.19
690.27	15843.09
690.41	15819.68
690.54	15520.09
690.68	15843.09
690.81	15618.39
690.95	15494.35
691.08	15534.14
691.22	15232.21
691.35	15215.82
691.49	15288.38
691.62	15400.72
691.76	15096.46
691.89	14904.53
692.03	14871.76
692.16	14808.57
692.30	14799.21
692.43	14604.94
692.57	14775.80
692.70	14541.75
692.84	14717.29
692.97	14623.67
693.11	14270.25
693.24	14471.53
693.38	14822.61
693.51	14387.27
693.65	14377.91
693.78	14347.48
693.92	14607.28
694.05	14162.58
694.19	14387.27
694.32	14216.41
694.45	14284.29
694.59	13895.76
694.72	13813.84
694.86	13785.76
694.99	13558.72
695.13	13549.36
695.26	13724.90
695.39	13525.96
695.53	13348.08
695.66	13610.22
695.80	13624.26
695.93	13462.76
696.07	13694.47
696.20	13650.00
696.33	13472.12
696.47	13373.82
696.60	13018.06
696.73	13266.16
696.87	13027.42
697.00	13238.07
697.14	13008.70
697.27	12662.30
697.40	12919.76
697.54	12709.11
697.67	12585.06
697.80	12645.91
697.94	12671.66
698.07	12685.70
698.21	12468.03
698.34	12582.72
698.47	12666.98
698.61	12599.10
698.74	12360.37
698.87	12205.89
699.01	12322.92
699.14	12248.02
699.27	11992.90
699.40	12236.32
699.54	12025.67
699.67	12084.19
699.80	11698.00
699.94	11915.67
700.07	11761.19
700.20	11742.47
700.34	11695.66
700.47	11524.80
700.60	11789.28
700.73	11595.01
700.87	11623.10
701.00	11562.25
701.13	11227.55
701.26	11438.20
701.40	11641.82
701.53	11407.77
701.66	11613.74
701.79	11246.27
701.93	11274.36
702.06	11110.52
702.19	11054.35
702.32	11140.95
702.46	10824.98
702.59	10649.44
702.72	10897.53
702.85	11047.33
702.99	10724.33
703.12	10733.70
703.25	10541.77
703.38	10684.55
703.51	10628.37
703.65	10469.22
703.78	10525.39
703.91	10401.34
704.04	10586.24
704.17	10274.95
704.31	10289.00
704.44	10417.72
704.57	10490.28
704.70	10036.22
704.83	10024.51
704.96	10139.20
705.10	10026.86
705.23	10193.03
>>>>>End Processed Spectral Data<<<<<
