SpectraSuite Data File
++++++++++++++++++++++++++++++++++++
Date: Fri Oct 18 13:58:03 GMT-05:00 2013
User: bianchi
Dark Spectrum Present: No
Reference Spectrum Present: No
Number of Sampled Component Spectra: 1
Spectrometers: USB2+H05261
Integration Time (usec): 50000 (USB2+H05261)
Spectra Averaged: 1 (USB2+H05261)
Boxcar Smoothing: 0 (USB2+H05261)
Correct for Electrical Dark: No (USB2+H05261)
Strobe/Lamp Enabled: No (USB2+H05261)
Correct for Detector Non-linearity: No (USB2+H05261)
Correct for Stray Light: No (USB2+H05261)
Number of Pixels in Processed Spectrum: 2048
>>>>>Begin Processed Spectral Data<<<<<
365.73	0.00
365.92	0.00
366.12	0.00
366.32	0.00
366.52	0.00
366.72	0.00
366.91	0.00
367.11	0.00
367.31	0.00
367.51	0.00
367.70	0.00
367.90	0.00
368.10	0.00
368.30	0.00
368.49	0.00
368.69	0.00
368.89	0.00
369.09	0.00
369.28	0.00
369.48	0.00
369.68	0.00
369.87	0.00
370.07	0.00
370.27	0.00
370.47	14.04
370.66	58.51
370.86	72.56
371.06	112.35
371.25	121.71
371.45	105.32
371.65	189.58
371.84	142.77
372.04	117.03
372.24	142.77
372.44	159.16
372.63	147.45
372.83	257.46
373.03	180.22
373.22	177.88
373.42	210.65
373.62	215.33
373.81	227.03
374.01	220.01
374.21	212.99
374.40	234.05
374.60	212.99
374.79	170.86
374.99	245.76
375.19	222.35
375.38	203.63
375.58	241.08
375.78	285.55
375.97	294.91
376.17	346.40
376.37	330.02
376.56	283.20
376.76	252.78
376.95	187.24
377.15	311.29
377.35	234.05
377.54	301.93
377.74	278.52
377.93	227.03
378.13	273.84
378.33	271.50
378.52	248.10
378.72	311.29
378.91	266.82
379.11	255.12
379.31	271.50
379.50	283.20
379.70	362.78
379.89	339.38
380.09	220.01
380.28	243.42
380.48	411.93
380.68	285.55
380.87	355.76
381.07	318.31
381.26	339.38
381.46	337.04
381.65	414.27
381.85	311.29
382.04	322.99
382.24	381.51
382.43	353.42
382.63	367.46
382.83	353.42
383.02	372.15
383.22	444.70
383.41	367.46
383.61	379.17
383.80	344.06
384.00	388.53
384.19	388.53
384.39	437.68
384.58	362.78
384.78	400.23
384.97	369.80
385.17	388.53
385.36	402.57
385.56	402.57
385.75	322.99
385.95	397.89
386.14	353.42
386.34	454.06
386.53	397.89
386.72	437.68
386.92	395.55
387.11	418.96
387.31	475.13
387.50	479.81
387.70	358.10
387.89	376.83
388.09	440.02
388.28	500.87
388.48	477.47
388.67	463.43
388.86	397.89
389.06	409.59
389.25	505.56
389.45	449.38
389.64	545.34
389.84	454.06
390.03	496.19
390.22	409.59
390.42	493.85
390.61	437.68
390.81	486.83
391.00	463.43
391.19	463.43
391.39	514.92
391.58	550.03
391.78	510.24
391.97	479.81
392.16	540.66
392.36	575.77
392.55	568.75
392.75	521.94
392.94	454.06
393.13	524.28
393.33	596.84
393.52	617.90
393.71	596.84
393.91	571.09
394.10	566.41
394.29	526.62
394.49	594.50
394.68	550.03
394.88	559.39
395.07	638.97
395.26	533.64
395.46	578.11
395.65	645.99
395.84	580.45
396.04	624.92
396.23	594.50
396.42	596.84
396.62	613.22
396.81	681.10
397.00	720.88
397.19	624.92
397.39	704.50
397.58	641.31
397.77	690.46
397.97	662.37
398.16	676.41
398.35	699.82
398.55	741.95
398.74	699.82
398.93	739.61
399.12	716.20
399.32	772.38
399.51	758.33
399.70	723.23
399.90	702.16
400.09	758.33
400.28	713.86
400.47	791.10
400.67	753.65
400.86	791.10
401.05	739.61
401.24	851.96
401.44	770.04
401.63	851.96
401.82	805.14
402.01	781.74
402.21	880.04
402.40	891.74
402.59	828.55
402.78	777.06
402.97	779.40
403.17	889.40
403.36	940.90
403.55	842.59
403.74	891.74
403.93	835.57
404.13	917.49
404.32	999.41
404.51	908.13
404.70	952.60
404.89	884.72
405.09	910.47
405.28	926.85
405.47	959.62
405.66	1029.84
405.85	1025.15
406.05	945.58
406.24	919.83
406.43	985.37
406.62	966.64
406.81	1114.10
407.00	1008.77
407.20	1029.84
407.39	997.07
407.58	1015.79
407.77	1067.28
407.96	1160.91
408.15	1043.88
408.34	1104.73
408.54	1025.15
408.73	1062.60
408.92	1069.62
409.11	1165.59
409.30	1088.35
409.49	1086.01
409.68	1172.61
409.87	1123.46
410.07	1186.65
410.26	1235.80
410.45	1200.69
410.64	1240.48
410.83	1144.52
411.02	1245.16
411.21	1303.68
411.40	1252.19
411.59	1238.14
411.78	1277.93
411.98	1294.32
412.17	1306.02
412.36	1235.80
412.55	1259.21
412.74	1336.45
412.93	1401.98
413.12	1420.71
413.31	1409.00
413.50	1432.41
413.69	1425.39
413.88	1409.00
414.07	1369.21
414.26	1345.81
414.45	1472.20
414.64	1343.47
414.83	1437.09
415.02	1533.05
415.22	1570.50
415.41	1687.53
415.60	1455.81
415.79	1626.67
415.98	1570.50
416.17	1549.43
416.36	1673.48
416.55	1692.21
416.74	1715.61
416.93	1596.25
417.12	1614.97
417.31	1774.13
417.50	1643.06
417.69	1795.19
417.88	1682.85
418.07	1696.89
418.26	1760.08
418.45	1682.85
418.64	1870.09
418.83	1872.43
419.02	1790.51
419.21	1806.89
419.39	1933.28
419.58	1809.23
419.77	1813.92
419.96	1984.77
420.15	1877.11
420.34	1870.09
420.53	1944.99
420.72	1902.86
420.91	1832.64
421.10	1783.49
421.29	1987.11
421.48	1895.83
421.67	1926.26
421.86	1987.11
422.05	1886.47
422.24	1905.20
422.43	1926.26
422.61	1881.79
422.80	2050.31
422.99	2092.44
423.18	1961.37
423.37	2113.50
423.56	2040.95
423.75	1930.94
423.94	2019.88
424.13	1870.09
424.32	1891.15
424.50	2050.31
424.69	2033.93
424.88	1996.48
425.07	2003.50
425.26	1977.75
425.45	2017.54
425.64	2033.93
425.83	2043.29
426.01	1963.71
426.20	2050.31
426.39	2064.35
426.58	2054.99
426.77	2054.99
426.96	2167.34
427.15	2062.01
427.33	2036.27
427.52	2183.72
427.71	2087.76
427.90	2047.97
428.09	2111.16
428.28	2073.71
428.46	2165.00
428.65	2228.19
428.84	2244.57
429.03	2298.41
429.22	2101.80
429.40	2172.02
429.59	2162.66
429.78	2207.13
429.97	2125.21
430.16	2148.61
430.34	2293.72
430.53	2335.85
430.72	2352.24
430.91	2324.15
431.10	2328.83
431.28	2328.83
431.47	2413.09
431.66	2399.05
431.85	2438.84
432.03	2471.61
432.22	2492.67
432.41	2464.58
432.60	2415.43
432.79	2544.16
432.97	2560.55
433.16	2495.01
433.35	2534.80
433.54	2590.97
433.72	2513.74
433.91	2462.24
434.10	2457.56
434.28	2373.30
434.47	2562.89
434.66	2551.18
434.85	2623.74
435.03	2590.97
435.22	2616.72
435.41	2619.06
435.59	2614.38
435.78	2668.21
435.97	2693.96
436.16	2649.49
436.34	2605.02
436.53	2710.34
436.72	2780.56
436.90	2813.32
437.09	2686.94
437.28	2719.70
437.46	2778.22
437.65	2668.21
437.84	2815.66
438.02	2780.56
438.21	2813.32
438.40	2773.53
438.58	2967.80
438.77	2813.32
438.96	2906.95
439.14	3035.67
439.33	3000.57
439.52	2930.35
439.70	2939.71
439.89	2993.55
440.08	3063.76
440.26	2998.23
440.45	3061.42
440.63	3080.14
440.82	3194.83
441.01	3215.90
441.19	3258.03
441.38	3192.49
441.57	3148.02
441.75	3112.91
441.94	3222.92
442.12	3141.00
442.31	3302.50
442.50	3279.09
442.68	3290.79
442.87	3325.90
443.05	3258.03
443.24	3391.44
443.43	3351.65
443.61	3358.67
443.80	3496.76
443.98	3414.84
444.17	3220.58
444.35	3513.14
444.54	3461.65
444.73	3431.23
444.91	3468.67
445.10	3471.01
445.28	3403.14
445.47	3384.41
445.65	3485.06
445.84	3478.04
446.02	3524.85
446.21	3379.73
446.39	3372.71
446.58	3548.25
446.77	3461.65
446.95	3454.63
447.14	3588.04
447.32	3461.65
447.51	3412.50
447.69	3440.59
447.88	3435.91
448.06	3417.18
448.25	3396.12
448.43	3513.14
448.62	3541.23
448.80	3414.84
448.99	3473.36
449.17	3541.23
449.36	3571.66
449.54	3742.52
449.73	3775.28
449.91	3613.79
450.10	3618.47
450.28	3815.07
450.46	3822.09
450.65	3726.13
450.83	3709.75
451.02	3691.02
451.20	3946.14
451.39	3913.38
451.57	3742.52
451.76	3714.43
451.94	3791.67
452.13	3899.33
452.31	3737.84
452.49	3775.28
452.68	3822.09
452.86	3866.56
453.05	3908.69
453.23	3999.98
453.42	3873.59
453.60	3761.24
453.78	3901.67
453.97	3889.97
454.15	3908.69
454.34	3854.86
454.52	4016.36
454.70	3969.55
454.89	4091.26
455.07	3964.87
455.26	4105.30
455.44	4191.90
455.62	4093.60
455.81	4002.32
455.99	4128.70
456.17	4210.62
456.36	4135.73
456.54	4259.78
456.73	4159.13
456.91	4138.07
457.09	4327.65
457.28	4479.79
457.46	4332.33
457.64	4355.74
457.83	4278.50
458.01	4428.29
458.19	4346.37
458.38	4346.37
458.56	4444.68
458.74	4521.92
458.93	4454.04
459.11	4379.14
459.29	4402.55
459.48	4557.02
459.66	4402.55
459.84	4554.68
460.03	4550.00
460.21	4423.61
460.39	4575.75
460.57	4550.00
460.76	4664.69
460.94	4758.31
461.12	4629.58
461.31	4601.49
461.49	4496.17
461.67	4542.98
461.85	4737.24
462.04	4779.37
462.22	4940.87
462.40	4880.02
462.59	4683.41
462.77	4613.20
462.95	4671.71
463.13	4814.48
463.32	4880.02
463.50	4826.18
463.68	4814.48
463.86	4926.83
464.05	4814.48
464.23	4954.91
464.41	4896.40
464.59	4912.78
464.78	4971.30
464.96	4985.34
465.14	4858.95
465.32	4873.00
465.50	4966.62
465.69	5231.10
465.87	4964.28
466.05	4978.32
466.23	5102.37
466.41	5195.99
466.60	5074.28
466.78	4952.57
466.96	5022.79
467.14	4875.34
467.32	4973.64
467.51	5179.61
467.69	5011.09
467.87	5144.50
468.05	5097.69
468.23	5193.65
468.41	5207.69
468.60	5205.35
468.78	5256.84
468.96	5095.35
469.14	5348.12
469.32	5467.49
469.50	5397.28
469.69	5509.62
469.87	5378.55
470.05	5392.59
470.23	5549.41
470.41	5483.88
470.59	5416.00
470.77	5434.72
470.95	5514.30
471.14	5692.18
471.32	5544.73
471.50	5614.95
471.68	5586.86
471.86	5687.50
472.04	5689.84
472.22	5729.63
472.40	5577.50
472.58	5778.78
472.77	5579.84
472.95	5907.51
473.13	6083.05
473.31	5928.58
473.49	5856.02
473.67	5856.02
473.85	5856.02
474.03	6057.31
474.21	6010.50
474.39	6108.80
474.57	6111.14
474.75	6272.64
474.93	6244.55
475.12	6092.41
475.30	6307.74
475.48	6265.61
475.66	6293.70
475.84	6274.98
476.02	6406.05
476.20	6326.47
476.38	6548.82
476.56	6466.90
476.74	6567.54
476.92	6450.52
477.10	6555.84
477.28	6787.55
477.46	6633.08
477.64	6740.74
477.82	6696.27
478.00	6899.90
478.18	6902.24
478.36	7014.59
478.54	6855.43
478.72	7133.95
478.90	7119.91
479.08	7138.63
479.26	7407.80
479.44	7339.92
479.62	7258.00
479.80	7346.94
479.98	7543.55
480.16	7419.50
480.34	7339.92
480.52	7641.85
480.70	7454.61
480.88	7613.76
481.06	7756.54
481.24	7709.72
481.41	7812.71
481.59	7796.32
481.77	8023.36
481.95	7981.23
482.13	7992.93
482.31	7927.39
482.49	8379.12
482.67	8320.60
482.85	8241.03
483.03	8402.52
483.21	8468.06
483.39	8521.89
483.57	8369.76
483.74	8620.19
483.92	8737.22
484.10	8566.36
484.28	8887.01
484.46	8929.14
484.64	9198.31
484.82	9034.47
485.00	9172.56
485.18	9282.56
485.35	9397.25
485.53	9572.79
485.71	9603.22
485.89	9703.86
486.07	9706.20
486.25	9544.70
486.43	9607.90
486.61	9811.53
486.78	9848.97
486.96	10071.33
487.14	10162.61
487.32	10146.22
487.50	10214.10
487.68	10200.05
487.85	10384.96
488.03	10499.64
488.21	10476.24
488.39	10480.92
488.57	10698.59
488.75	10478.58
488.92	10871.79
489.10	10850.72
489.28	10848.38
489.46	11164.36
489.64	11307.13
489.81	11255.64
489.99	11269.68
490.17	11199.46
490.35	11611.40
490.53	11393.73
490.70	11955.46
490.88	11562.25
491.06	11817.36
491.24	11683.95
491.41	11908.65
491.59	12063.12
491.77	12100.57
491.95	12123.98
492.13	12280.79
492.30	12446.97
492.48	12259.73
492.66	12290.15
492.84	12737.20
493.01	12638.89
493.19	12692.73
493.37	12566.34
493.54	12730.17
493.72	13064.87
493.90	12865.92
494.08	13088.28
494.25	13123.38
494.43	13137.43
494.61	13160.83
494.79	13493.19
494.96	13301.26
495.14	13465.10
495.32	13668.73
495.49	13493.19
495.67	13540.00
495.85	13598.51
496.02	13998.74
496.20	13898.10
496.38	13935.55
496.55	13785.76
496.73	14260.88
496.91	13858.31
497.09	14143.86
497.26	14363.87
497.44	14450.47
497.62	14345.14
497.79	14717.29
497.97	14621.33
498.14	14792.19
498.32	14675.16
498.50	15030.92
498.67	14778.14
498.85	15002.83
499.03	15033.26
499.20	15040.28
499.38	15077.73
499.56	15091.77
499.73	15335.19
499.91	15564.56
500.08	15262.63
500.26	15227.53
500.44	15262.63
500.61	15515.41
500.79	15435.83
500.97	15688.61
501.14	16053.73
501.32	15971.82
501.49	15880.53
501.67	15742.44
501.84	15868.83
502.02	16042.03
502.20	16013.95
502.37	16217.57
502.55	15953.09
502.72	16257.36
502.90	16299.49
503.07	16212.89
503.25	16255.02
503.43	16039.69
503.60	16287.79
503.78	16355.66
503.95	16678.66
504.13	16407.16
504.30	16578.01
504.48	16692.70
504.65	17151.45
504.83	16912.71
505.01	17174.85
505.18	16840.15
505.36	17317.62
505.53	16912.71
505.71	17310.60
505.88	17369.12
506.06	17284.86
506.23	17408.90
506.41	17256.77
506.58	17172.51
506.76	17282.52
506.93	17451.03
507.11	17717.86
507.28	17783.39
507.46	17713.17
507.63	17685.09
507.81	17862.97
507.98	17729.56
508.16	18010.42
508.33	17774.03
508.50	18054.89
508.68	17806.80
508.85	18347.46
509.03	17954.25
509.20	17841.90
509.38	18375.55
509.55	18459.81
509.73	18281.92
509.90	18178.94
510.08	18443.42
510.25	18197.67
510.42	18761.73
510.60	18443.42
510.77	18775.78
510.95	18803.86
511.12	18792.16
511.30	18719.60
511.47	19220.48
511.64	18689.18
511.82	19016.85
511.99	19101.11
512.17	19225.16
512.34	19012.17
512.51	19353.89
512.69	19449.85
512.86	19143.24
513.04	19653.48
513.21	19683.91
513.38	19501.34
513.56	19562.20
513.73	19225.16
513.90	19604.33
514.08	19517.73
514.25	19651.14
514.43	19803.27
514.60	19735.40
514.77	19997.54
514.95	19901.58
515.12	19840.72
515.29	19768.16
515.47	19967.11
515.64	19838.38
515.81	20011.58
515.99	20418.83
516.16	20397.77
516.33	20423.51
516.51	20444.58
516.68	20350.96
516.85	20217.55
517.03	20451.60
517.20	20706.72
517.37	20439.90
517.54	20671.61
517.72	20629.48
517.89	20545.22
518.06	20484.37
518.24	20819.07
518.41	20577.99
518.58	20900.98
518.75	20594.37
518.93	21029.71
519.10	20844.81
519.27	21008.65
519.45	21048.44
519.62	20924.39
519.79	20978.22
519.96	21256.75
520.14	21324.62
520.31	21287.17
520.48	21666.34
520.65	21055.46
520.83	21460.37
521.00	21404.20
521.17	21422.92
521.34	21366.75
521.52	21551.65
521.69	21514.20
521.86	21720.17
522.03	21933.16
522.20	22204.66
522.38	21874.65
522.55	21893.37
522.72	21738.90
522.89	21788.05
523.07	22485.53
523.24	21944.86
523.41	22153.17
523.58	22085.30
523.75	22155.51
523.92	21858.26
524.10	21944.86
524.27	22532.34
524.44	22679.79
524.61	22665.75
524.78	22333.39
524.96	22532.34
525.13	22600.21
525.30	22750.01
525.47	22930.23
525.64	22932.57
525.81	22799.16
525.98	22679.79
526.16	22932.57
526.33	22827.24
526.50	23133.86
526.67	23049.60
526.84	22698.52
527.01	22675.11
527.18	23030.87
527.36	22986.40
527.53	23234.50
527.70	23307.05
527.87	23667.50
528.04	22986.40
528.21	23131.51
528.38	23211.09
528.55	23321.10
528.72	23267.27
528.89	23768.14
529.07	23576.22
529.24	23421.74
529.41	23775.16
529.58	23379.61
529.75	23740.05
529.92	23374.93
530.09	23665.16
530.26	23999.85
530.43	23843.04
530.60	23660.48
530.77	23845.38
530.94	23697.92
531.11	23728.35
531.28	23669.84
531.46	23831.33
531.63	24203.48
531.80	24269.01
531.97	24264.33
532.14	24280.72
532.31	24100.50
532.48	24168.37
532.65	24219.86
532.82	24058.37
532.99	24194.12
533.16	24163.69
533.33	24491.37
533.50	24528.81
533.67	24620.10
533.84	24388.38
534.01	24372.00
534.18	24524.13
534.35	25191.19
534.52	24383.70
534.69	24713.72
534.86	24945.43
535.03	24568.60
535.20	24863.51
535.37	24716.06
535.54	24732.44
535.71	24692.65
535.88	24863.51
536.05	24687.97
536.22	25151.40
536.38	24994.58
536.55	25153.74
536.72	25296.51
536.89	25036.71
537.06	24865.85
537.23	25479.07
537.40	25296.51
537.57	24833.08
537.74	25055.43
537.91	25287.15
538.08	25364.39
538.25	25212.25
538.42	25535.24
538.59	25469.71
538.75	25408.86
538.92	25104.59
539.09	25575.03
539.26	25649.93
539.43	25603.12
539.60	25874.62
539.77	25514.18
539.94	25923.77
540.11	25727.17
540.28	25441.62
540.44	25404.17
540.61	25837.17
540.78	25736.53
540.95	26045.48
541.12	25675.68
541.29	25710.78
541.46	26054.84
541.62	25881.64
541.79	25785.68
541.96	25542.27
542.13	25858.24
542.30	26050.16
542.47	25993.99
542.63	26134.42
542.80	26281.88
542.97	26321.66
543.14	26618.91
543.31	26380.18
543.48	26256.13
543.64	26572.10
543.81	26483.16
543.98	26628.27
544.15	27054.25
544.32	26740.62
544.48	26665.72
544.65	26859.99
544.82	26656.36
544.99	26426.99
545.16	26857.65
545.32	26473.80
545.49	26639.98
545.66	27360.86
545.83	26920.84
546.00	27166.60
546.16	26710.19
546.33	26867.01
546.50	26469.12
546.67	26693.81
546.83	26761.69
547.00	26918.50
547.17	26815.52
547.34	27084.68
547.50	27105.74
547.67	27211.07
547.84	26864.67
548.00	27468.53
548.17	26876.37
548.34	27096.38
548.51	27505.98
548.67	27725.99
548.84	27824.29
549.01	27639.39
549.18	27459.16
549.34	27058.93
549.51	27150.21
549.68	27154.90
549.84	26810.84
550.01	27674.49
550.18	27253.20
550.34	27597.26
550.51	27576.19
550.68	27777.48
550.84	27536.40
551.01	27667.47
551.18	27370.22
551.34	27798.54
551.51	27686.20
551.68	27557.47
551.84	27494.27
552.01	27857.06
552.18	27796.20
552.34	27353.84
552.51	27931.95
552.68	27868.76
552.84	27548.11
553.01	27948.34
553.18	27707.26
553.34	28004.51
553.51	28016.21
553.67	27922.59
553.84	28149.62
554.01	28222.18
554.17	27943.66
554.34	28397.72
554.51	28116.86
554.67	28133.24
554.84	27976.42
555.00	28428.15
555.17	28208.14
555.33	28407.08
555.50	28287.71
555.67	28247.93
555.83	28601.35
556.00	28252.61
556.16	28290.06
556.33	28479.64
556.50	28435.17
556.66	28568.58
556.83	28503.04
556.99	28833.06
557.16	29078.82
557.32	28900.94
557.49	28479.64
557.65	28290.06
557.82	28559.22
557.98	28208.14
558.15	28437.51
558.32	28767.52
558.48	28973.49
558.65	28912.64
558.81	28678.58
558.98	28486.66
559.14	28767.52
559.31	28453.89
559.47	29053.07
559.64	28741.78
559.80	28739.44
559.97	29034.35
560.13	28849.44
560.30	29132.65
560.46	29076.48
560.63	29001.58
560.79	29125.63
560.96	29139.67
561.12	28973.49
561.29	28774.55
561.45	29149.03
561.61	29130.31
561.78	28982.85
561.94	29104.56
562.11	29097.54
562.27	29090.52
562.44	28823.70
562.60	28912.64
562.77	28781.57
562.93	28507.72
563.10	29214.57
563.26	28800.29
563.42	29600.76
563.59	29193.50
563.75	28961.79
563.92	29188.82
564.08	28912.64
564.24	29525.86
564.41	29266.06
564.57	29483.73
564.74	29331.59
564.90	29266.06
565.07	29425.22
565.23	29301.17
565.39	29537.56
565.56	29762.25
565.72	29230.95
565.88	29252.02
566.05	29455.64
566.21	29050.73
566.38	29312.87
566.54	29619.48
566.70	29443.94
566.87	29640.54
567.03	29703.74
567.19	29788.00
567.36	29699.06
567.52	29610.12
567.68	29612.46
567.85	29261.38
568.01	29420.53
568.17	29312.87
568.34	29350.32
568.50	29537.56
568.66	29743.53
568.83	29902.68
568.99	29457.98
569.15	29259.04
569.32	29240.31
569.48	29198.18
569.64	29572.67
569.81	29474.37
569.97	29476.71
570.13	29762.25
570.30	29577.35
570.46	29776.30
570.62	29638.20
570.78	29275.42
570.95	29252.02
571.11	29727.14
571.27	29624.16
571.43	29453.30
571.60	29530.54
571.76	29282.44
571.92	30139.08
572.09	29771.61
572.25	29869.92
572.41	30075.88
572.57	29713.10
572.74	30026.73
572.90	29532.88
573.06	29722.46
573.22	29668.63
573.38	29502.45
573.55	29546.92
573.71	29804.38
573.87	30110.99
574.03	29570.33
574.20	29937.79
574.36	29507.13
574.52	30047.80
574.68	29809.06
574.84	29771.61
575.01	29551.60
575.17	29937.79
575.33	29703.74
575.49	29862.90
575.65	29921.41
575.82	29795.02
575.98	29713.10
576.14	29862.90
576.30	30017.37
576.46	29544.58
576.62	29818.42
576.79	30036.09
576.95	29769.27
577.11	29823.11
577.27	29963.54
577.43	30043.12
577.59	29869.92
577.75	29883.96
577.92	29790.34
578.08	29874.60
578.24	29790.34
578.40	29968.22
578.56	29715.44
578.72	30120.35
578.88	30323.98
579.04	30110.99
579.21	29783.32
579.37	29874.60
579.53	30043.12
579.69	29876.94
579.85	29841.83
580.01	29708.42
580.17	29902.68
580.33	29900.34
580.49	29876.94
580.65	30005.67
580.82	30328.66
580.98	30054.82
581.14	29977.58
581.30	30316.96
581.46	30103.97
581.62	30031.41
581.78	29610.12
581.94	30136.74
582.10	29731.83
582.26	30050.14
582.42	29876.94
582.58	30160.14
582.74	30143.76
582.90	29893.32
583.06	30307.60
583.22	29738.85
583.38	30232.70
583.54	29865.24
583.70	30204.61
583.86	30066.52
584.02	30022.05
584.18	30052.48
584.34	30230.36
584.50	30178.87
584.66	30019.71
584.82	29919.07
584.98	29825.45
585.14	30136.74
585.30	29830.13
585.46	29970.56
585.62	29804.38
585.78	30038.44
585.94	30125.04
586.10	30096.95
586.26	30232.70
586.42	30349.73
586.58	30125.04
586.74	30167.16
586.90	29776.30
587.06	29970.56
587.22	30054.82
587.38	30174.19
587.54	30150.78
587.70	30122.69
587.86	30536.97
588.02	30082.91
588.18	30490.16
588.34	30401.22
588.49	30258.45
588.65	30204.61
588.81	30211.64
588.97	30221.00
589.13	30143.76
589.29	30178.87
589.45	30263.13
589.61	30658.68
589.77	30827.20
589.93	30698.47
590.08	30506.54
590.24	30426.96
590.40	30331.00
590.56	30515.90
590.72	30061.84
590.88	29951.84
591.04	30108.65
591.20	30464.41
591.35	30445.69
591.51	30871.67
591.67	30668.04
591.83	30995.71
591.99	30969.97
592.15	30412.92
592.31	30836.56
592.46	30085.25
592.62	30415.26
592.78	30452.71
592.94	30380.15
593.10	30307.60
593.26	30728.89
593.41	31040.18
593.57	30373.13
593.73	30651.66
593.89	30679.74
594.05	30707.83
594.20	30691.44
594.36	30520.59
594.52	30607.19
594.68	30422.28
594.84	30796.77
594.99	30403.56
595.15	30801.45
595.31	30827.20
595.47	30443.35
595.62	30602.50
595.78	30478.46
595.94	30618.89
596.10	30597.82
596.25	30572.08
596.41	30499.52
596.57	30789.75
596.73	30693.79
596.88	30391.86
597.04	30932.52
597.20	30913.80
597.36	30712.51
597.51	30794.43
597.67	30242.06
597.83	30923.16
597.99	30862.30
598.14	30569.74
598.30	30307.60
598.46	30466.75
598.61	30773.36
598.77	30876.35
598.93	30501.86
599.09	30911.46
599.24	31367.86
599.40	30628.25
599.56	30960.61
599.71	30829.54
599.87	31012.10
600.03	31012.10
600.18	30593.14
600.34	30628.25
600.50	30436.33
600.65	31016.78
600.81	30834.22
600.97	30946.56
601.12	30551.01
601.28	30693.79
601.44	30792.09
601.59	30682.08
601.75	30459.73
601.91	31091.68
602.06	30572.08
602.22	30871.67
602.37	30815.49
602.53	31037.84
602.69	30792.09
602.84	30930.18
603.00	30794.43
603.16	30792.09
603.31	30644.63
603.47	30881.03
603.62	30752.30
603.78	30642.29
603.94	30553.35
604.09	30848.26
604.25	30508.88
604.40	30644.63
604.56	30824.86
604.71	30749.96
604.87	30663.36
605.03	30508.88
605.18	30555.69
605.34	30852.94
605.49	30366.11
605.65	30965.29
605.80	30178.87
605.96	30267.81
606.12	30639.95
606.27	30513.56
606.43	30558.03
606.58	30813.15
606.74	30639.95
606.89	30953.58
607.05	30618.89
607.20	31274.24
607.36	30794.43
607.51	30492.50
607.67	30377.81
607.82	30485.48
607.98	30553.35
608.13	30656.34
608.29	30452.71
608.44	30473.78
608.60	30691.44
608.75	30955.93
608.91	30925.50
609.06	30309.94
609.22	30642.29
609.37	30546.33
609.53	30263.13
609.68	30082.91
609.84	30171.85
609.99	30670.38
610.15	30408.24
610.30	30368.45
610.46	30150.78
610.61	30089.93
610.76	30410.58
610.92	30307.60
611.07	30291.21
611.23	30408.24
611.38	30284.19
611.54	30082.91
611.69	30277.17
611.84	29947.15
612.00	30197.59
612.15	30188.23
612.31	30333.34
612.46	30286.53
612.62	30611.87
612.77	30506.54
612.92	30686.76
613.08	30242.06
613.23	30213.98
613.39	30075.88
613.54	30061.84
613.69	30476.12
613.85	29961.20
614.00	30148.44
614.15	30810.81
614.31	30089.93
614.46	30707.83
614.62	29542.24
614.77	30078.22
614.92	30457.39
615.08	30176.53
615.23	30132.06
615.38	29926.09
615.54	29919.07
615.69	29839.49
615.84	29816.08
616.00	30118.01
616.15	30190.57
616.30	30136.74
616.46	30359.09
616.61	29802.04
616.76	30366.11
616.92	29860.55
617.07	30075.88
617.22	29474.37
617.37	29612.46
617.53	29617.14
617.68	30167.16
617.83	29942.47
617.99	29991.62
618.14	29420.53
618.29	30017.37
618.45	29717.78
618.60	29827.79
618.75	29661.61
618.90	29610.12
619.06	29626.50
619.21	29415.85
619.36	29890.98
619.51	29734.17
619.67	29200.52
619.82	29172.44
619.97	29839.49
620.12	29387.77
620.28	29088.18
620.43	29799.70
620.58	29748.21
620.73	29689.70
620.89	29420.53
621.04	29769.27
621.19	29677.99
621.34	29780.98
621.49	29240.31
621.65	29443.94
621.80	29692.04
621.95	28701.99
622.10	29521.18
622.25	29207.55
622.41	29015.62
622.56	29315.21
622.71	29219.25
622.86	29329.25
623.01	29675.65
623.16	29553.94
623.32	29340.96
623.47	29167.76
623.62	29017.96
623.77	29266.06
623.92	29001.58
624.07	29076.48
624.23	28854.12
624.38	29123.29
624.53	29329.25
624.68	29212.23
624.83	29200.52
624.98	29542.24
625.13	28945.41
625.29	29249.67
625.44	28971.15
625.59	29184.14
625.74	28648.16
625.89	28940.72
626.04	28751.14
626.19	29010.94
626.34	28931.36
626.49	29125.63
626.65	28910.30
626.80	28709.01
626.95	29020.30
627.10	28701.99
627.25	28854.12
627.40	28498.36
627.55	28493.68
627.70	28638.80
627.85	28779.23
628.00	28512.41
628.15	28566.24
628.30	28861.15
628.45	28943.06
628.60	28608.37
628.76	28481.98
628.91	28816.68
629.06	28449.21
629.21	28671.56
629.36	28678.58
629.51	28524.11
629.66	28505.38
629.81	28458.57
629.96	28280.69
630.11	27908.55
630.26	28545.17
630.41	28137.92
630.56	28418.78
630.71	28301.76
630.86	28655.18
631.01	28252.61
631.16	28496.02
631.31	28280.69
631.46	28311.12
631.61	28116.86
631.76	28484.32
631.91	28474.96
632.06	28095.79
632.21	27929.61
632.36	28184.73
632.51	28329.84
632.66	28004.51
632.81	27981.10
632.96	28166.01
633.10	28133.24
633.25	28236.22
633.40	27728.33
633.55	28163.67
633.70	27857.06
633.85	27887.48
634.00	27599.60
634.15	27995.15
634.30	27924.93
634.45	28105.15
634.60	27906.21
634.75	28147.28
634.90	27859.40
635.05	27852.38
635.19	27824.29
635.34	28032.60
635.49	28041.96
635.64	28079.41
635.79	27938.97
635.94	27644.07
636.09	27627.68
636.24	27742.37
636.39	27374.91
636.53	27700.24
636.68	27393.63
636.83	27737.69
636.98	27505.98
637.13	27796.20
637.28	27953.02
637.43	27922.59
637.57	27562.15
637.72	27335.12
637.87	27487.25
638.02	27557.47
638.17	27342.14
638.32	27424.06
638.46	27658.11
638.61	27026.17
638.76	27264.90
638.91	27466.19
639.06	26878.71
639.20	27356.18
639.35	27854.72
639.50	27964.72
639.65	27522.36
639.80	27353.84
639.94	27374.91
640.09	27459.16
640.24	27271.92
640.39	27302.35
640.54	27232.13
640.68	27175.96
640.83	27047.23
640.98	26878.71
641.13	26810.84
641.27	27152.55
641.42	27005.10
641.57	27267.24
641.72	27295.33
641.86	27087.02
642.01	26771.05
642.16	26930.20
642.31	26904.46
642.45	27124.47
642.60	26815.52
642.75	26782.75
642.90	26878.71
643.04	27063.61
643.19	26452.73
643.34	26649.34
643.48	26614.23
643.63	26855.31
643.78	26927.86
643.93	26845.94
644.07	26920.84
644.22	26838.92
644.37	26733.60
644.51	26794.45
644.66	26321.66
644.81	26576.78
644.95	26731.26
645.10	26689.13
645.25	27115.11
645.39	26759.34
645.54	26700.83
645.69	26462.10
645.83	27035.53
645.98	26464.44
646.13	26637.64
646.27	26675.09
646.42	26279.54
646.57	26345.07
646.71	26628.27
646.86	27117.45
647.00	26759.34
647.15	26040.80
647.30	26403.58
647.44	26328.69
647.59	26211.66
647.74	26206.98
647.88	26394.22
648.03	26742.96
648.17	26651.68
648.32	26567.42
648.47	26822.54
648.61	26675.09
648.76	26473.80
648.90	26251.45
649.05	26628.27
649.20	26349.75
649.34	26232.72
649.49	26054.84
649.63	26132.08
649.78	26167.19
649.92	26052.50
650.07	26188.25
650.21	26078.25
650.36	26125.06
650.51	26382.52
650.65	26171.87
650.80	25799.73
650.94	26214.00
651.09	25916.75
651.23	25900.37
651.38	26120.38
651.52	26349.75
651.67	26008.03
651.81	25921.43
651.96	25942.50
652.10	25975.27
652.25	26092.29
652.39	26319.32
652.54	25972.92
652.68	26029.10
652.83	25717.81
652.97	26401.24
653.12	25919.09
653.26	25766.96
653.41	26162.51
653.55	25708.44
653.70	26153.15
653.84	25582.06
653.99	25757.60
654.13	25591.42
654.27	25781.00
654.42	25614.82
654.56	25570.35
654.71	25876.96
654.85	25872.28
655.00	25811.43
655.14	25453.33
655.29	25752.91
655.43	25460.35
655.57	25390.13
655.72	25254.38
655.86	25579.71
656.01	25694.40
656.15	25411.20
656.30	25312.89
656.44	25067.14
656.58	25130.33
656.73	25268.42
656.87	25270.76
657.01	25371.41
657.16	25596.10
657.30	25280.13
657.45	25125.65
657.59	25579.71
657.73	25385.45
657.88	25294.17
658.02	25275.45
658.16	25223.95
658.31	25298.85
658.45	25153.74
658.60	24643.50
658.74	25120.97
658.88	25095.22
659.03	24978.20
659.17	24865.85
659.31	25165.44
659.46	25053.09
659.60	25228.63
659.74	24975.86
659.89	25074.16
660.03	24755.85
660.17	24786.27
660.32	24657.54
660.46	24718.40
660.60	24266.67
660.74	24627.12
660.89	24900.96
661.03	24446.90
661.17	24500.73
661.32	24463.28
661.46	24748.82
661.60	24259.65
661.74	24606.05
661.89	24589.67
662.03	24758.19
662.17	24493.71
662.31	24524.13
662.46	24456.26
662.60	23910.91
662.74	24147.31
662.88	24467.96
663.03	24414.13
663.17	24121.56
663.31	23957.72
663.45	23908.57
663.60	24072.41
663.74	24233.91
663.88	24191.78
664.02	24063.05
664.17	24449.24
664.31	23838.36
664.45	23814.95
664.59	23461.53
664.73	23800.91
664.88	23931.98
665.02	23606.64
665.16	23587.92
665.30	23726.01
665.44	23372.59
665.59	23770.48
665.73	23477.91
665.87	23365.57
666.01	23665.16
666.15	23592.60
666.29	23466.21
666.44	23414.72
666.58	23623.03
666.72	23274.29
666.86	23644.09
667.00	23307.05
667.14	23747.08
667.28	23344.50
667.43	23234.50
667.57	23363.23
667.71	23171.30
667.85	23145.56
667.99	23150.24
668.13	22974.70
668.27	23082.36
668.41	22855.33
668.56	23119.81
668.70	23227.48
668.84	22829.59
668.98	23016.83
669.12	23150.24
669.26	22953.63
669.40	22920.87
669.54	22548.72
669.68	22700.86
669.82	22682.13
669.96	22581.49
670.10	22586.17
670.25	22352.12
670.39	22450.42
670.53	22494.89
670.67	22431.69
670.81	22478.50
670.95	22661.07
671.09	22614.26
671.23	22181.26
671.37	22436.38
671.51	22553.40
671.65	22331.05
671.79	22382.54
671.93	21958.91
672.07	22132.11
672.21	22057.21
672.35	21916.78
672.49	22071.25
672.63	21884.01
672.77	21668.68
672.91	21610.17
673.05	21823.16
673.19	21879.33
673.33	21916.78
673.47	21710.81
673.61	21853.58
673.75	21734.21
673.89	21764.64
674.03	21710.81
674.17	21406.54
674.31	21493.14
674.45	21343.35
674.59	21434.63
674.73	21818.47
674.87	20954.82
675.01	21228.66
675.15	21420.58
675.29	20844.81
675.43	20882.26
675.56	21167.80
675.70	21085.89
675.84	21029.71
675.98	20585.01
676.12	21018.01
676.26	20891.62
676.40	21041.42
676.54	20655.23
676.68	20680.97
676.82	20231.59
676.96	20439.90
677.10	20489.05
677.23	20531.18
677.37	20472.67
677.51	20329.89
677.65	20320.53
677.79	20435.22
677.93	20159.03
678.07	20016.26
678.21	19850.08
678.34	19751.78
678.48	19772.85
678.62	19988.18
678.76	19580.92
678.90	19620.71
679.04	19730.72
679.18	19669.86
679.31	19559.86
679.45	19499.00
679.59	19143.24
679.73	19419.42
679.87	19199.41
680.00	19136.22
680.14	19117.50
680.28	19173.67
680.42	19117.50
680.56	18998.13
680.70	18925.57
680.83	19068.34
680.97	19297.72
681.11	18986.43
681.25	18789.82
681.39	18735.99
681.52	18703.22
681.66	18689.18
681.80	18693.86
681.94	18424.70
682.07	18534.70
682.21	18827.27
682.35	18635.35
682.49	18398.95
682.62	18286.61
682.76	18204.69
682.90	18235.11
683.04	18207.03
683.17	18359.16
683.31	18258.52
683.45	17916.80
683.59	18164.90
683.72	17972.97
683.86	17820.84
684.00	17696.79
684.13	17535.29
684.27	17675.73
684.41	17465.08
684.55	17135.06
684.68	17631.26
684.82	17371.46
684.96	17212.30
685.09	17357.41
685.23	17088.25
685.37	17422.95
685.50	17369.12
685.64	17598.49
685.78	17114.00
685.91	17411.25
686.05	17231.02
686.19	17048.46
686.32	17240.39
686.46	17076.55
686.60	16741.85
686.73	16772.28
686.87	16463.33
687.01	16556.95
687.14	16556.95
687.28	16081.82
687.42	16472.69
687.55	16123.95
687.69	16060.76
687.82	16173.10
687.96	16205.87
688.10	16262.04
688.23	16269.06
688.37	16269.06
688.50	16049.05
688.64	15887.56
688.78	15700.31
688.91	15817.34
689.05	15992.88
689.18	15709.68
689.32	15756.49
689.46	15496.69
689.59	15405.41
689.73	15569.24
689.86	15288.38
690.00	15543.50
690.13	15353.91
690.27	15587.97
690.41	15424.13
690.54	15269.66
690.68	15405.41
690.81	15059.01
690.95	15309.44
691.08	15220.50
691.22	15056.67
691.35	14808.57
691.49	14860.06
691.62	15066.03
691.76	14813.25
691.89	14789.85
692.03	14469.19
692.16	14508.98
692.30	14398.98
692.43	14370.89
692.57	14232.80
692.70	14593.24
692.84	14363.87
692.97	14228.12
693.11	14473.87
693.24	14122.79
693.38	14111.09
693.51	13954.27
693.65	14132.15
693.78	13841.93
693.92	13752.99
694.05	13895.76
694.19	13617.24
694.32	13607.87
694.45	13645.32
694.59	13394.89
694.72	13502.55
694.86	13366.80
694.99	13146.79
695.13	13018.06
695.26	13209.98
695.39	13341.05
695.53	13247.43
695.66	13200.62
695.80	13247.43
695.93	13167.85
696.07	13249.77
696.20	13319.99
696.33	13109.34
696.47	12980.61
696.60	13149.13
696.73	12989.97
696.87	12978.27
697.00	12690.38
697.14	12746.56
697.27	12451.65
697.40	12540.59
697.54	12610.81
697.67	12620.17
697.80	12418.88
697.94	12170.79
698.07	12149.72
698.21	12252.70
698.34	12400.16
698.47	12145.04
698.61	12086.53
698.74	12266.75
698.87	12294.83
699.01	11969.50
699.14	11822.05
699.27	11974.18
699.40	11819.71
699.54	11726.08
699.67	11712.04
699.80	11665.23
699.94	11831.41
700.07	11571.61
700.20	11393.73
700.34	11286.06
700.47	11386.71
700.60	11232.23
700.73	11466.28
700.87	11239.25
701.00	11005.20
701.13	11463.94
701.26	11293.08
701.40	11330.53
701.53	11169.04
701.66	11286.06
701.79	10967.75
701.93	10850.72
702.06	10745.40
702.19	10780.51
702.32	10670.50
702.46	10583.90
702.59	10602.63
702.72	10382.62
702.85	10410.70
702.99	10335.81
703.12	10567.52
703.25	10267.93
703.38	10368.57
703.51	10209.42
703.65	10317.08
703.78	10363.89
703.91	10080.69
704.04	10509.01
704.17	10209.42
704.31	10197.71
704.44	10164.95
704.57	9923.87
704.70	9722.59
704.83	9767.06
704.96	9757.69
705.10	9753.01
705.23	9696.84
>>>>>End Processed Spectral Data<<<<<
