SpectraSuite Data File
++++++++++++++++++++++++++++++++++++
Date: Fri Oct 18 13:58:18 GMT-05:00 2013
User: bianchi
Dark Spectrum Present: No
Reference Spectrum Present: No
Number of Sampled Component Spectra: 1
Spectrometers: USB2+H05261
Integration Time (usec): 50000 (USB2+H05261)
Spectra Averaged: 1 (USB2+H05261)
Boxcar Smoothing: 0 (USB2+H05261)
Correct for Electrical Dark: No (USB2+H05261)
Strobe/Lamp Enabled: No (USB2+H05261)
Correct for Detector Non-linearity: No (USB2+H05261)
Correct for Stray Light: No (USB2+H05261)
Number of Pixels in Processed Spectrum: 2048
>>>>>Begin Processed Spectral Data<<<<<
365.73	0.00
365.92	0.00
366.12	0.00
366.32	0.00
366.52	0.00
366.72	0.00
366.91	0.00
367.11	0.00
367.31	0.00
367.51	0.00
367.70	0.00
367.90	0.00
368.10	0.00
368.30	0.00
368.49	0.00
368.69	0.00
368.89	0.00
369.09	0.00
369.28	0.00
369.48	0.00
369.68	0.00
369.87	0.00
370.07	0.00
370.27	0.00
370.47	0.00
370.66	93.62
370.86	30.43
371.06	161.50
371.25	133.41
371.45	166.18
371.65	184.90
371.84	133.41
372.04	191.92
372.24	117.03
372.44	102.98
372.63	131.07
372.83	187.24
373.03	173.20
373.22	205.97
373.42	210.65
373.62	231.71
373.81	231.71
374.01	264.48
374.21	231.71
374.40	205.97
374.60	285.55
374.79	182.56
374.99	222.35
375.19	222.35
375.38	203.63
375.58	159.16
375.78	313.63
375.97	234.05
376.17	283.20
376.37	208.31
376.56	236.39
376.76	187.24
376.95	217.67
377.15	339.38
377.35	245.76
377.54	259.80
377.74	238.73
377.93	236.39
378.13	304.27
378.33	322.99
378.52	198.95
378.72	243.42
378.91	313.63
379.11	203.63
379.31	280.86
379.50	266.82
379.70	341.72
379.89	285.55
380.09	299.59
380.28	381.51
380.48	315.97
380.68	285.55
380.87	313.63
381.07	308.95
381.26	320.65
381.46	339.38
381.65	280.86
381.85	269.16
382.04	367.46
382.24	325.33
382.43	376.83
382.63	365.12
382.83	325.33
383.02	360.44
383.22	383.85
383.41	358.10
383.61	393.21
383.80	332.36
384.00	322.99
384.19	369.80
384.39	367.46
384.58	423.64
384.78	451.72
384.97	299.59
385.17	423.64
385.36	437.68
385.56	360.44
385.75	414.27
385.95	400.23
386.14	428.32
386.34	409.59
386.53	386.19
386.72	428.32
386.92	425.98
387.11	433.00
387.31	358.10
387.50	360.44
387.70	428.32
387.89	437.68
388.09	414.27
388.28	458.74
388.48	444.70
388.67	496.19
388.86	505.56
389.06	437.68
389.25	454.06
389.45	447.04
389.64	437.68
389.84	512.58
390.03	472.79
390.22	496.19
390.42	484.49
390.61	496.19
390.81	449.38
391.00	421.30
391.19	535.98
391.39	566.41
391.58	538.32
391.78	552.37
391.97	526.62
392.16	545.34
392.36	500.87
392.55	517.26
392.75	552.37
392.94	411.93
393.13	463.43
393.33	524.28
393.52	510.24
393.71	493.85
393.91	580.45
394.10	514.92
394.29	554.71
394.49	615.56
394.68	587.47
394.88	615.56
395.07	538.32
395.26	624.92
395.46	606.20
395.65	552.37
395.84	552.37
396.04	662.37
396.23	627.26
396.42	650.67
396.62	648.33
396.81	608.54
397.00	634.29
397.19	603.86
397.39	681.10
397.58	725.57
397.77	704.50
397.97	727.91
398.16	690.46
398.35	662.37
398.55	594.50
398.74	650.67
398.93	716.20
399.12	634.29
399.32	657.69
399.51	615.56
399.70	716.20
399.90	784.08
400.09	704.50
400.28	713.86
400.47	697.48
400.67	737.27
400.86	702.16
401.05	919.83
401.24	788.76
401.44	819.19
401.63	844.93
401.82	870.68
402.01	823.87
402.21	840.25
402.40	828.55
402.59	840.25
402.78	819.19
402.97	919.83
403.17	945.58
403.36	828.55
403.55	844.93
403.74	912.81
403.93	866.00
404.13	826.21
404.32	933.87
404.51	898.77
404.70	943.24
404.89	931.53
405.09	983.02
405.28	957.28
405.47	912.81
405.66	947.92
405.85	997.07
406.05	1022.81
406.24	1041.54
406.43	1083.67
406.62	1022.81
406.81	1069.62
407.00	950.26
407.20	1074.31
407.39	971.32
407.58	990.05
407.77	1128.14
407.96	1104.73
408.15	1060.26
408.34	1027.50
408.54	1069.62
408.73	1109.41
408.92	1142.18
409.11	1107.07
409.30	1114.10
409.49	1153.88
409.68	1130.48
409.87	1163.25
410.07	1095.37
410.26	1188.99
410.45	1121.12
410.64	1165.59
410.83	1277.93
411.02	1146.86
411.21	1252.19
411.40	1160.91
411.59	1238.14
411.78	1179.63
411.98	1270.91
412.17	1270.91
412.36	1219.42
412.55	1308.36
412.74	1387.94
412.93	1383.26
413.12	1352.83
413.31	1519.01
413.50	1439.43
413.69	1376.24
413.88	1413.68
414.07	1467.52
414.26	1423.05
414.45	1430.07
414.64	1462.83
414.83	1509.65
415.02	1519.01
415.22	1500.28
415.41	1626.67
415.60	1526.03
415.79	1624.33
415.98	1577.52
416.17	1596.25
416.36	1493.26
416.55	1577.52
416.74	1600.93
416.93	1673.48
417.12	1680.50
417.31	1666.46
417.50	1692.21
417.69	1785.83
417.88	1802.21
418.07	1736.68
418.26	1666.46
418.45	1746.04
418.64	1785.83
418.83	1741.36
419.02	1757.74
419.21	1837.32
419.39	1762.42
419.58	1811.57
419.77	1802.21
419.96	1842.00
420.15	1970.73
420.34	1851.36
420.53	1853.70
420.72	1877.11
420.91	1849.02
421.10	1867.75
421.29	2045.63
421.48	1975.41
421.67	1952.01
421.86	1996.48
422.05	1996.48
422.24	1959.03
422.43	1977.75
422.61	1982.43
422.80	2005.84
422.99	2012.86
423.18	2005.84
423.37	2033.93
423.56	1994.14
423.75	2029.24
423.94	2017.54
424.13	1764.76
424.32	1893.49
424.50	2122.87
424.69	2085.42
424.88	1952.01
425.07	2047.97
425.26	1942.64
425.45	1919.24
425.64	2078.40
425.83	1984.77
426.01	1998.82
426.20	2001.16
426.39	1921.58
426.58	2057.33
426.77	2101.80
426.96	2099.46
427.15	2129.89
427.33	2113.50
427.52	2127.55
427.71	2092.44
427.90	2118.18
428.09	2118.18
428.28	2204.78
428.46	2237.55
428.65	2216.49
428.84	2120.53
429.03	2333.51
429.22	2235.21
429.40	2115.84
429.59	2200.10
429.78	2129.89
429.97	2099.46
430.16	2111.16
430.34	2310.11
430.53	2324.15
430.72	2377.98
430.91	2359.26
431.10	2242.23
431.28	2359.26
431.47	2275.00
431.66	2394.37
431.85	2352.24
432.03	2408.41
432.22	2340.54
432.41	2459.90
432.60	2448.20
432.79	2361.60
432.97	2502.03
433.16	2387.35
433.35	2410.75
433.54	2548.84
433.72	2569.91
433.91	2490.33
434.10	2410.75
434.28	2544.16
434.47	2511.39
434.66	2558.21
434.85	2572.25
435.03	2532.46
435.22	2516.08
435.41	2689.28
435.59	2670.55
435.78	2700.98
435.97	2579.27
436.16	2780.56
436.34	2523.10
436.53	2642.46
436.72	2724.38
436.90	2619.06
437.09	2876.52
437.28	2705.66
437.46	2789.92
437.65	2750.13
437.84	2782.90
438.02	2693.96
438.21	2722.04
438.40	2810.98
438.58	2768.85
438.77	2787.58
438.96	2881.20
439.14	2981.84
439.33	2862.48
439.52	3002.91
439.70	3045.04
439.89	3047.38
440.08	3126.96
440.26	3119.93
440.45	3005.25
440.63	2974.82
440.82	3164.40
441.01	3150.36
441.19	3033.33
441.38	3199.51
441.57	3356.33
441.75	3164.40
441.94	3262.71
442.12	3311.86
442.31	3375.05
442.50	3328.24
442.68	3316.54
442.87	3368.03
443.05	3330.58
443.24	3459.31
443.43	3248.66
443.61	3419.52
443.80	3531.87
443.98	3344.63
444.17	3164.40
444.35	3321.22
444.54	3384.41
444.73	3494.42
444.91	3541.23
445.10	3499.10
445.28	3473.36
445.47	3353.99
445.65	3475.70
445.84	3531.87
446.02	3576.34
446.21	3414.84
446.39	3419.52
446.58	3527.19
446.77	3496.76
446.95	3325.90
447.14	3506.12
447.32	3555.27
447.51	3487.40
447.69	3536.55
447.88	3435.91
448.06	3524.85
448.25	3527.19
448.43	3566.98
448.62	3616.13
448.80	3571.66
448.99	3583.36
449.17	3541.23
449.36	3421.86
449.54	3564.64
449.73	3772.94
449.91	3660.60
450.10	3712.09
450.28	3829.12
450.46	3852.52
450.65	3662.94
450.83	3803.37
451.02	3740.18
451.20	3721.45
451.39	3735.50
451.57	3737.84
451.76	3702.73
451.94	3749.54
452.13	4023.38
452.31	3796.35
452.49	3794.01
452.68	3861.88
452.86	3967.21
453.05	3859.54
453.23	3971.89
453.42	3808.05
453.60	3768.26
453.78	3836.14
453.97	3990.61
454.15	3845.50
454.34	3892.31
454.52	4072.53
454.70	3948.48
454.89	4105.30
455.07	4007.00
455.26	3920.40
455.44	4028.06
455.62	4177.86
455.81	4007.00
455.99	4149.77
456.17	4060.83
456.36	4322.97
456.54	4189.56
456.73	4170.83
456.91	4367.44
457.09	4245.73
457.28	4388.50
457.46	4311.27
457.64	4526.60
457.83	4386.16
458.01	4290.20
458.19	4360.42
458.38	4334.67
458.56	4428.29
458.74	4332.33
458.93	4540.64
459.11	4465.74
459.29	4381.48
459.48	4507.87
459.66	4603.83
459.84	4505.53
460.03	4582.77
460.21	4571.07
460.39	4461.06
460.57	4409.57
460.76	4610.86
460.94	4601.49
461.12	4568.73
461.31	4552.34
461.49	4578.09
461.67	4517.23
461.85	4741.93
462.04	4510.21
462.22	4971.30
462.40	4837.89
462.59	4894.06
462.77	4751.29
462.95	4943.21
463.13	4751.29
463.32	4704.48
463.50	4732.56
463.68	4819.16
463.86	4938.53
464.05	4741.93
464.23	4870.65
464.41	4999.38
464.59	4781.71
464.78	4971.30
464.96	4919.81
465.14	4809.80
465.32	4847.25
465.50	4966.62
465.69	4971.30
465.87	4954.91
466.05	4915.12
466.23	5050.88
466.41	4971.30
466.60	5228.76
466.78	5048.54
466.96	5191.31
467.14	5071.94
467.32	5032.15
467.51	5069.60
467.69	4980.66
467.87	5055.56
468.05	5130.45
468.23	5036.83
468.41	5109.39
468.60	5310.68
468.78	5219.39
468.96	5027.47
469.14	5135.14
469.32	5247.48
469.50	5142.16
469.69	5411.32
469.87	5537.71
470.05	5371.53
470.23	5495.58
470.41	5324.72
470.59	5425.36
470.77	5437.06
470.95	5509.62
471.14	5568.13
471.32	5439.40
471.50	5535.37
471.68	5369.19
471.86	5645.37
472.04	5673.46
472.22	5755.38
472.40	5509.62
472.58	5584.52
472.77	5687.50
472.95	5841.98
473.13	6080.71
473.31	5755.38
473.49	5788.14
473.67	5961.34
473.85	5980.07
474.03	5994.11
474.21	5966.03
474.39	6026.88
474.57	6122.84
474.75	6127.52
474.93	6136.88
475.12	6136.88
475.30	6071.35
475.48	6282.00
475.66	6214.12
475.84	6214.12
476.02	6335.83
476.20	6237.53
476.38	6373.28
476.56	6537.12
476.74	6509.03
476.92	6448.18
477.10	6429.45
477.28	6530.09
477.46	6630.74
477.64	6743.08
477.82	6743.08
478.00	6815.64
478.18	6963.09
478.36	7105.87
478.54	7112.89
478.72	7110.55
478.90	7246.30
479.08	7220.55
479.26	7155.02
479.44	7403.11
479.62	7215.87
479.80	7609.08
479.98	7424.18
480.16	7510.78
480.34	7506.10
480.52	7506.10
480.70	7637.17
480.88	7632.49
481.06	7590.36
481.24	7763.56
481.41	7852.50
481.59	7864.20
481.77	7939.10
481.95	7922.71
482.13	8322.94
482.31	8163.79
482.49	8290.18
482.67	8182.51
482.85	8393.16
483.03	8439.97
483.21	8559.34
483.39	8557.00
483.57	8510.19
483.74	8659.98
483.92	8657.64
484.10	8652.96
484.28	9006.38
484.46	8943.19
484.64	9200.65
484.82	8952.55
485.00	9032.13
485.18	9408.95
485.35	9334.06
485.53	9287.25
485.71	9425.34
485.89	9544.70
486.07	9664.07
486.25	9533.00
486.43	9591.52
486.61	9881.74
486.78	9942.60
486.96	9802.16
487.14	10038.56
487.32	9989.41
487.50	10148.56
487.68	10359.21
487.85	10342.83
488.03	10644.76
488.21	10621.35
488.39	10539.43
488.57	10714.97
488.75	10832.00
488.92	10869.45
489.10	10843.70
489.28	11016.90
489.46	11222.87
489.64	11197.12
489.81	11346.92
489.99	11145.63
490.17	11077.76
490.35	11489.69
490.53	11625.44
490.70	11669.91
490.88	11672.25
491.06	11824.39
491.24	11740.13
491.41	11875.88
491.59	11988.22
491.77	12081.85
491.95	12102.91
492.13	12109.93
492.30	12170.79
492.48	12390.80
492.66	12273.77
492.84	12360.37
493.01	12755.92
493.19	12479.74
493.37	12603.78
493.54	12830.82
493.72	12737.20
493.90	12809.75
494.08	13116.36
494.25	12931.46
494.43	13245.09
494.61	13294.24
494.79	13509.57
494.96	13107.00
495.14	13315.31
495.32	13434.68
495.49	13469.78
495.67	13776.39
495.85	13907.46
496.02	13923.85
496.20	13642.98
496.38	13968.32
496.55	14017.47
496.73	14326.42
496.91	13982.36
497.09	14216.41
497.26	14127.47
497.44	14281.95
497.62	14593.24
497.79	14611.96
497.97	14607.28
498.14	14780.48
498.32	14836.66
498.50	14656.43
498.67	14984.11
498.85	14850.70
499.03	15030.92
499.20	14888.15
499.38	15272.00
499.56	15267.31
499.73	15236.89
499.91	15166.67
500.08	15365.62
500.26	15318.81
500.44	15342.21
500.61	15506.05
500.79	15737.76
500.97	15744.78
501.14	15763.51
501.32	15719.04
501.49	15557.54
501.67	15728.40
501.84	15850.11
502.02	15955.43
502.20	15618.39
502.37	16177.78
502.55	16020.97
502.72	16233.96
502.90	16149.70
503.07	16044.37
503.25	16325.24
503.43	15936.71
503.60	16451.63
503.78	16861.22
503.95	16468.01
504.13	16535.88
504.30	16341.62
504.48	16458.65
504.65	16833.13
504.83	16879.94
505.01	16961.86
505.18	16681.00
505.36	17291.88
505.53	16760.58
505.71	17160.81
505.88	17011.01
506.06	17177.19
506.23	17247.41
506.41	17390.18
506.58	17366.78
506.76	17483.80
506.93	17425.29
507.11	17233.36
507.28	17479.12
507.46	17352.73
507.63	17507.21
507.81	17991.70
507.98	17556.36
508.16	17664.02
508.33	17874.67
508.50	17958.93
508.68	18043.19
508.85	18455.12
509.03	18148.51
509.20	18478.53
509.38	18310.01
509.55	18441.08
509.73	18349.80
509.90	18387.25
510.08	18087.66
510.25	18260.86
510.42	18459.81
510.60	18714.92
510.77	18766.42
510.95	18927.91
511.12	18544.06
511.30	18691.52
511.47	18998.13
511.64	18923.23
511.82	19257.93
511.99	18869.40
512.17	19370.27
512.34	19208.78
512.51	19168.99
512.69	19206.44
512.86	19255.59
513.04	19302.40
513.21	19089.41
513.38	19410.06
513.56	19454.53
513.73	19241.54
513.90	19187.71
514.08	19697.95
514.25	19758.80
514.43	19676.88
514.60	19800.93
514.77	20084.14
514.95	19974.13
515.12	19695.61
515.29	19754.12
515.47	19744.76
515.64	20336.91
515.81	20245.63
515.99	20070.09
516.16	20173.08
516.33	20475.01
516.51	20479.69
516.68	20224.57
516.85	20636.50
517.03	20491.39
517.20	20709.06
517.37	20491.39
517.54	20442.24
517.72	20884.60
517.89	20360.32
518.06	20627.14
518.24	20727.78
518.41	20720.76
518.58	20992.26
518.75	20964.18
518.93	21427.60
519.10	20741.83
519.27	20847.15
519.45	20884.60
519.62	21120.99
519.79	20702.04
519.96	21118.65
520.14	21083.55
520.31	20961.84
520.48	21352.71
520.65	21055.46
520.83	21422.92
521.00	21350.37
521.17	21422.92
521.34	21275.47
521.52	21500.16
521.69	21675.70
521.86	21956.57
522.03	21577.40
522.20	21738.90
522.38	21865.28
522.55	21954.22
522.72	21785.71
522.89	21546.97
523.07	22008.06
523.24	22015.08
523.41	21851.24
523.58	22490.21
523.75	22302.96
523.92	21638.25
524.10	22389.56
524.27	22185.94
524.44	22249.13
524.61	22410.63
524.78	22277.22
524.96	22387.22
525.13	22466.80
525.30	22520.63
525.47	22576.81
525.64	22553.40
525.81	22637.66
525.98	22988.74
526.16	22621.28
526.33	22530.00
526.50	23077.68
526.67	22815.54
526.84	22794.48
527.01	22885.76
527.18	22986.40
527.36	23009.81
527.53	23068.32
527.70	23363.23
527.87	23501.32
528.04	23255.56
528.21	22906.82
528.38	23232.16
528.55	23543.45
528.72	23232.16
528.89	23440.47
529.07	23241.52
529.24	23653.45
529.41	23620.69
529.58	23538.77
529.75	23339.82
529.92	23522.38
530.09	23307.05
530.26	23627.71
530.43	23885.17
530.60	23718.99
530.77	23761.12
530.94	23538.77
531.11	23967.09
531.28	23817.29
531.46	23868.78
531.63	24051.34
531.80	23744.73
531.97	24051.34
532.14	24215.18
532.31	24133.26
532.48	24100.50
532.65	23896.87
532.82	23775.16
532.99	24051.34
533.16	24290.08
533.33	24343.91
533.50	24657.54
533.67	24301.78
533.84	24376.68
534.01	24116.88
534.18	24442.21
534.35	24140.29
534.52	24650.52
534.69	24643.50
534.86	24945.43
535.03	24322.85
535.20	24823.72
535.37	24709.04
535.54	24805.00
535.71	24381.36
535.88	24655.20
536.05	24533.50
536.22	24582.65
536.38	24931.39
536.55	25001.60
536.72	24847.13
536.89	24912.66
537.06	25153.74
537.23	24800.32
537.40	24830.74
537.57	25149.06
537.74	24964.15
537.91	25507.16
538.08	25188.85
538.25	25097.56
538.42	25387.79
538.59	25151.40
538.75	25188.85
538.92	25102.25
539.09	25378.43
539.26	25633.55
539.43	25425.24
539.60	25577.37
539.77	25165.44
539.94	25666.31
540.11	25249.70
540.28	25565.67
540.44	25486.09
540.61	25675.68
540.78	25624.18
540.95	25654.61
541.12	25715.47
541.29	25935.48
541.46	25769.30
541.62	25853.56
541.79	26024.42
541.96	26003.35
542.13	25591.42
542.30	25848.88
542.47	26401.24
542.63	26031.44
542.80	26443.37
542.97	26192.94
543.14	26443.37
543.31	26405.92
543.48	26539.33
543.64	26272.51
543.81	26483.16
543.98	26501.89
544.15	26735.94
544.32	26647.00
544.48	26693.81
544.65	26558.06
544.82	26340.39
544.99	26284.22
545.16	26508.91
545.32	26607.21
545.49	26611.89
545.66	26897.44
545.83	26419.97
546.00	26780.41
546.16	26691.47
546.33	26654.02
546.50	26434.01
546.67	26677.43
546.83	26438.69
547.00	26948.93
547.17	27178.30
547.34	26733.60
547.50	26932.54
547.67	27035.53
547.84	27096.38
548.00	27042.55
548.17	27140.85
548.34	27019.14
548.51	27225.11
548.67	27248.52
548.84	27337.46
549.01	27080.00
549.18	26773.39
549.34	27098.72
549.51	26923.18
549.68	27351.50
549.84	27253.20
550.01	27393.63
550.18	27384.27
550.34	27482.57
550.51	27655.77
550.68	27555.13
550.84	27080.00
551.01	27311.71
551.18	27562.15
551.34	27683.86
551.51	27520.02
551.68	27716.62
551.84	27744.71
552.01	27342.14
552.18	27667.47
552.34	27583.21
552.51	27885.14
552.68	27821.95
552.84	27714.28
553.01	27978.76
553.18	28121.54
553.34	28063.02
553.51	27885.14
553.67	27910.89
553.84	27990.47
554.01	28224.52
554.17	27981.10
554.34	28173.03
554.51	28154.30
554.67	27751.73
554.84	27791.52
555.00	28299.42
555.17	28219.84
555.33	27810.25
555.50	28215.16
555.67	28451.55
555.83	28053.66
556.00	28257.29
556.16	28561.56
556.33	28428.15
556.50	28144.94
556.66	28577.94
556.83	28680.92
556.99	28390.70
557.16	28629.43
557.32	28517.09
557.49	28397.72
557.65	28446.87
557.82	28409.42
557.98	28386.02
558.15	28252.61
558.32	28858.81
558.48	28278.35
558.65	28858.81
558.81	28364.95
558.98	28826.04
559.14	28624.75
559.31	28287.71
559.47	28320.48
559.64	28631.77
559.80	28753.48
559.97	28788.59
560.13	28687.95
560.30	28704.33
560.46	29132.65
560.63	28980.51
560.79	28709.01
560.96	28844.76
561.12	28650.50
561.29	28842.42
561.45	28680.92
561.61	29109.24
561.78	29050.73
561.94	28823.70
562.11	29296.49
562.27	28699.65
562.44	28765.18
562.60	28788.59
562.77	28765.18
562.93	28563.90
563.10	28989.88
563.26	28989.88
563.42	29282.44
563.59	28971.15
563.75	29539.90
563.92	29233.29
564.08	28748.80
564.24	29275.42
564.41	28861.15
564.57	29123.29
564.74	28966.47
564.90	29350.32
565.07	29120.95
565.23	28851.78
565.39	29116.26
565.56	29560.97
565.72	29043.71
565.88	29347.98
566.05	29120.95
566.21	28854.12
566.38	28807.31
566.54	29401.81
566.70	29462.66
566.87	29813.74
567.03	29244.99
567.19	29647.57
567.36	29298.83
567.52	29102.22
567.68	29500.11
567.85	29350.32
568.01	29439.26
568.17	29142.01
568.34	29432.24
568.50	29750.55
568.66	29537.56
568.83	29823.11
568.99	29390.11
569.15	29469.69
569.32	29483.73
569.48	29130.31
569.64	29216.91
569.81	29486.07
569.97	29216.91
570.13	29310.53
570.30	29298.83
570.46	29680.33
570.62	29685.01
570.78	29535.22
570.95	28964.13
571.11	29907.37
571.27	29333.93
571.43	29483.73
571.60	29476.71
571.76	29687.36
571.92	29338.62
572.09	29673.31
572.25	29731.83
572.41	29378.40
572.57	29565.65
572.74	29848.85
572.90	29392.45
573.06	29427.56
573.22	29469.69
573.38	29806.72
573.55	29603.10
573.71	29685.01
573.87	29905.02
574.03	29806.72
574.20	29706.08
574.36	29549.26
574.52	29352.66
574.68	29944.81
574.84	29542.24
575.01	29347.98
575.17	29654.59
575.33	29919.07
575.49	29785.66
575.65	29792.68
575.82	29830.13
575.98	29848.85
576.14	29823.11
576.30	29883.96
576.46	29898.00
576.62	29553.94
576.79	29898.00
576.95	29436.92
577.11	29488.41
577.27	29909.71
577.43	29626.50
577.59	29804.38
577.75	29701.40
577.92	29420.53
578.08	29303.51
578.24	29567.99
578.40	29692.04
578.56	29909.71
578.72	29722.46
578.88	30284.19
579.04	30022.05
579.21	29544.58
579.37	29881.62
579.53	29649.91
579.69	29479.05
579.85	29560.97
580.01	30012.69
580.17	29364.36
580.33	29888.64
580.49	29689.70
580.65	30050.14
580.82	29610.12
580.98	29998.65
581.14	29785.66
581.30	29603.10
581.46	29722.46
581.62	30129.72
581.78	29441.60
581.94	29965.88
582.10	29659.27
582.26	29745.87
582.42	29862.90
582.58	29656.93
582.74	30237.38
582.90	29998.65
583.06	29930.77
583.22	29692.04
583.38	29799.70
583.54	30075.88
583.70	30024.39
583.86	29975.24
584.02	29876.94
584.18	30036.09
584.34	29839.49
584.50	30019.71
584.66	29942.47
584.82	29560.97
584.98	29813.74
585.14	29991.62
585.30	29968.22
585.46	30438.67
585.62	29762.25
585.78	30099.29
585.94	29804.38
586.10	29998.65
586.26	29993.97
586.42	30267.81
586.58	30237.38
586.74	30092.27
586.90	29722.46
587.06	29668.63
587.22	30099.29
587.38	29928.43
587.54	29963.54
587.70	30391.86
587.86	30141.42
588.02	30375.47
588.18	30249.08
588.34	30345.05
588.49	30113.33
588.65	30185.89
588.81	29919.07
588.97	30213.98
589.13	29940.13
589.29	30312.28
589.45	30054.82
589.61	30160.14
589.77	30384.83
589.93	30064.18
590.08	30183.55
590.24	30323.98
590.40	30410.58
590.56	30691.44
590.72	30363.77
590.88	29500.11
591.04	30384.83
591.20	30431.65
591.35	30162.48
591.51	30597.82
591.67	30113.33
591.83	30391.86
591.99	30242.06
592.15	30300.58
592.31	30209.29
592.46	30101.63
592.62	30272.49
592.78	30602.50
592.94	30246.74
593.10	30497.18
593.26	30675.06
593.41	30808.47
593.57	30375.47
593.73	30553.35
593.89	30749.96
594.05	30335.68
594.20	30319.30
594.36	30384.83
594.52	30469.09
594.68	30466.75
594.84	30469.09
594.99	30499.52
595.15	30302.92
595.31	30171.85
595.47	30480.80
595.62	30663.36
595.78	30419.94
595.94	30480.80
596.10	30445.69
596.25	30401.22
596.41	29991.62
596.57	30101.63
596.73	30309.94
596.88	30471.43
597.04	30735.92
597.20	30654.00
597.36	30553.35
597.51	30438.67
597.67	30487.82
597.83	30307.60
597.99	30391.86
598.14	30562.72
598.30	30415.26
598.46	30178.87
598.61	30377.81
598.77	30127.38
598.93	30572.08
599.09	30593.14
599.24	30897.41
599.40	30691.44
599.56	30717.19
599.71	30504.20
599.87	30991.03
600.03	30441.01
600.18	30511.22
600.34	30216.32
600.50	30508.88
600.65	30480.80
600.81	30532.29
600.97	30490.16
601.12	31094.02
601.28	30668.04
601.44	30740.60
601.59	30501.86
601.75	30569.74
601.91	30504.20
602.06	30529.95
602.22	30768.68
602.37	30293.55
602.53	30520.59
602.69	30906.77
602.84	30305.26
603.00	30543.99
603.16	30616.55
603.31	30588.46
603.47	30623.57
603.62	30595.48
603.78	30553.35
603.94	30827.20
604.09	30328.66
604.25	30228.02
604.40	30319.30
604.56	30492.50
604.71	30801.45
604.87	30338.02
605.03	30749.96
605.18	30785.07
605.34	30515.90
605.49	30281.85
605.65	30242.06
605.80	30043.12
605.96	30307.60
606.12	30108.65
606.27	30520.59
606.43	30132.06
606.58	30429.30
606.74	30658.68
606.89	30352.07
607.05	30827.20
607.20	30263.13
607.36	30817.83
607.51	30466.75
607.67	29914.39
607.82	30373.13
607.98	30469.09
608.13	30649.32
608.29	30352.07
608.44	30429.30
608.60	30490.16
608.75	30305.26
608.91	30712.51
609.06	30391.86
609.22	30319.30
609.37	30110.99
609.53	29888.64
609.68	30211.64
609.84	30033.75
609.99	30040.78
610.15	29846.51
610.30	30050.14
610.46	30246.74
610.61	30162.48
610.76	30754.64
610.92	30347.39
611.07	30176.53
611.23	30057.16
611.38	30216.32
611.54	29937.79
611.69	29930.77
611.84	30185.89
612.00	30209.29
612.15	30146.10
612.31	30345.05
612.46	29993.97
612.62	30150.78
612.77	29886.30
612.92	30431.65
613.08	30092.27
613.23	30286.53
613.39	29998.65
613.54	29825.45
613.69	30122.69
613.85	29790.34
614.00	29895.66
614.15	29886.30
614.31	29656.93
614.46	30288.87
614.62	29757.57
614.77	30412.92
614.92	30143.76
615.08	29986.94
615.23	29654.59
615.38	29874.60
615.54	29198.18
615.69	29745.87
615.84	29369.04
616.00	29984.60
616.15	29443.94
616.30	29869.92
616.46	29647.57
616.61	30024.39
616.76	30003.33
616.92	29514.16
617.07	29865.24
617.22	29392.45
617.37	29785.66
617.53	30012.69
617.68	29715.44
617.83	29343.30
617.99	29350.32
618.14	29745.87
618.29	29301.17
618.45	29670.97
618.60	29802.04
618.75	29888.64
618.90	29443.94
619.06	29521.18
619.21	29493.09
619.36	29542.24
619.51	29305.85
619.67	29001.58
619.82	29259.04
619.97	29151.37
620.12	29390.11
620.28	29125.63
620.43	29418.19
620.58	29879.28
620.73	29670.97
620.89	29446.28
621.04	29504.79
621.19	29266.06
621.34	29418.19
621.49	29324.57
621.65	28978.17
621.80	29495.43
621.95	28912.64
622.10	28889.23
622.25	28896.25
622.41	29137.33
622.56	28994.56
622.71	29589.05
622.86	29560.97
623.01	29340.96
623.16	29043.71
623.32	29104.56
623.47	29343.30
623.62	29340.96
623.77	29003.92
623.92	28996.90
624.07	28898.59
624.23	28746.46
624.38	28690.29
624.53	28865.83
624.68	28767.52
624.83	29184.14
624.98	28929.02
625.13	28919.66
625.29	28929.02
625.44	29046.05
625.59	28662.20
625.74	28641.14
625.89	28306.44
626.04	28753.48
626.19	28617.73
626.34	28566.24
626.49	28863.49
626.65	28610.71
626.80	28744.12
626.95	28603.69
627.10	28400.06
627.25	28386.02
627.40	28407.08
627.55	28311.12
627.70	28432.83
627.85	28261.97
628.00	28975.83
628.15	28566.24
628.30	28704.33
628.45	28498.36
628.60	28182.39
628.76	28669.22
628.91	28201.11
629.06	28411.76
629.21	28591.98
629.36	28271.33
629.51	28346.23
629.66	28453.89
629.81	28311.12
629.96	28355.59
630.11	28212.82
630.26	28081.75
630.41	28273.67
630.56	28201.11
630.71	27967.06
630.86	28114.52
631.01	28311.12
631.16	28402.40
631.31	28126.22
631.46	28205.80
631.61	27950.68
631.76	28039.62
631.91	28088.77
632.06	28226.86
632.21	27812.59
632.36	28318.14
632.51	27800.88
632.66	27962.38
632.81	27475.55
632.96	27737.69
633.10	27931.95
633.25	28128.56
633.40	27730.67
633.55	27751.73
633.70	27520.02
633.85	27730.67
634.00	27810.25
634.15	28088.77
634.30	27672.15
634.45	27852.38
634.60	27538.74
634.75	27857.06
634.90	27520.02
635.05	27852.38
635.19	27833.65
635.34	27709.60
635.49	27775.14
635.64	28128.56
635.79	27534.06
635.94	27339.80
636.09	27693.22
636.24	27641.73
636.39	27358.52
636.53	27384.27
636.68	27845.35
636.83	27398.31
636.98	27449.80
637.13	27407.67
637.28	27555.13
637.43	27508.32
637.57	27608.96
637.72	27309.37
637.87	27300.01
638.02	27124.47
638.17	26946.59
638.32	27290.65
638.46	27300.01
638.61	26925.52
638.76	26764.03
638.91	27388.95
639.06	27271.92
639.20	27274.26
639.35	27520.02
639.50	27101.06
639.65	27421.72
639.80	26991.06
639.94	27185.32
640.09	26991.06
640.24	27122.13
640.39	27290.65
640.54	26684.45
640.68	26785.09
640.83	26838.92
640.98	26895.10
641.13	26895.10
641.27	27129.15
641.42	27122.13
641.57	27028.51
641.72	27002.76
641.86	26836.58
642.01	27084.68
642.16	26913.82
642.31	26789.77
642.45	26817.86
642.60	26508.91
642.75	26445.71
642.90	26799.13
643.04	26721.90
643.19	26663.38
643.34	26920.84
643.48	26780.41
643.63	27028.51
643.78	26515.93
643.93	27035.53
644.07	26831.90
644.22	27049.57
644.37	26810.84
644.51	26665.72
644.66	26705.51
644.81	26541.68
644.95	26686.79
645.10	26609.55
645.25	26478.48
645.39	26778.07
645.54	26567.42
645.69	26422.31
645.83	26347.41
645.98	26628.27
646.13	26235.06
646.27	26745.30
646.42	26403.58
646.57	26686.79
646.71	26387.20
646.86	26623.59
647.00	26497.20
647.15	26221.02
647.30	26518.27
647.44	25851.22
647.59	26424.65
647.74	26324.01
647.88	26148.46
648.03	26555.72
648.17	26223.36
648.32	26532.31
648.47	26415.29
648.61	26031.44
648.76	26431.67
648.90	26771.05
649.05	26314.64
649.20	26045.48
649.34	25958.88
649.49	26043.14
649.63	26012.71
649.78	25886.32
649.92	25834.83
650.07	26225.70
650.21	26094.63
650.36	25898.03
650.51	25846.54
650.65	25968.24
650.80	26237.41
650.94	26087.61
651.09	25743.55
651.23	25954.20
651.38	26071.23
651.52	25619.50
651.67	25881.64
651.81	26045.48
651.96	25802.07
652.10	25656.95
652.25	26157.83
652.39	25921.43
652.54	25773.98
652.68	25954.20
652.83	25551.63
652.97	26033.78
653.12	25605.46
653.26	25458.01
653.41	25610.14
653.55	25228.63
653.70	25397.15
653.84	25905.05
653.99	25678.02
654.13	25659.29
654.27	25680.36
654.42	25317.57
654.56	25881.64
654.71	25694.40
654.85	25741.21
655.00	25947.18
655.14	25551.63
655.29	25481.41
655.43	25556.31
655.57	25647.59
655.72	25296.51
655.86	25476.73
656.01	25324.60
656.15	25195.87
656.30	25158.42
656.44	25443.96
656.58	25233.32
656.73	25261.40
656.87	25165.44
657.01	25027.35
657.16	25198.21
657.30	25317.57
657.45	25626.53
657.59	25053.09
657.73	25027.35
657.88	25170.12
658.02	25298.85
658.16	24900.96
658.31	24917.34
658.45	24945.43
658.60	24842.45
658.74	25123.31
658.88	24716.06
659.03	24484.34
659.17	25123.31
659.31	25022.67
659.46	24758.19
659.60	24687.97
659.74	25144.38
659.89	24945.43
660.03	24643.50
660.17	24631.80
660.32	24538.18
660.46	24666.91
660.60	24327.53
660.74	24503.07
660.89	24505.41
661.03	24329.87
661.17	24521.79
661.32	24526.47
661.46	24573.28
661.60	24627.12
661.74	24533.50
661.89	24690.31
662.03	24332.21
662.17	24336.89
662.31	23908.57
662.46	24161.35
662.60	24407.11
662.74	24018.58
662.88	24018.58
663.03	23962.40
663.17	24208.16
663.31	24044.32
663.45	24219.86
663.60	24144.97
663.74	23447.49
663.88	23805.59
664.02	24002.19
664.17	23971.77
664.31	23688.56
664.45	23756.44
664.59	23707.29
664.73	23388.97
664.88	23625.37
665.02	23440.47
665.16	23513.02
665.30	23253.22
665.44	23477.91
665.59	23545.79
665.73	23412.38
665.87	23498.98
666.01	23206.41
666.15	23421.74
666.29	23489.62
666.44	23531.75
666.58	23108.11
666.72	23276.63
666.86	23173.64
667.00	23407.70
667.14	23211.09
667.28	23658.14
667.43	23019.17
667.57	23229.82
667.71	22705.54
667.85	22909.16
667.99	22604.89
668.13	23012.15
668.27	23063.64
668.41	22824.90
668.56	22775.75
668.70	22419.99
668.84	22892.78
668.98	22993.42
669.12	22731.28
669.26	22822.56
669.40	22700.86
669.54	22696.17
669.68	22522.98
669.82	22422.33
669.96	22258.49
670.10	22361.48
670.25	22260.84
670.39	22228.07
670.53	22328.71
670.67	22038.48
670.81	22448.08
670.95	22239.77
671.09	22298.28
671.23	22043.17
671.37	22473.82
671.51	22326.37
671.65	22232.75
671.79	21905.07
671.93	21834.86
672.07	22396.59
672.21	22061.89
672.35	21722.51
672.49	21668.68
672.63	21876.99
672.77	21710.81
672.91	21734.21
673.05	21631.23
673.19	21502.50
673.33	21661.66
673.47	21671.02
673.61	21692.08
673.75	21530.59
673.89	21577.40
674.03	21362.07
674.17	21378.45
674.31	21352.71
674.45	20898.64
674.59	21135.04
674.73	21268.45
674.87	21305.90
675.01	21048.44
675.15	20889.28
675.29	20723.10
675.43	20926.73
675.56	21135.04
675.70	21036.74
675.84	20952.48
675.98	20421.17
676.12	20720.76
676.26	20809.70
676.40	20957.16
676.54	20514.80
676.68	20568.63
676.82	20386.07
676.96	20510.11
677.10	20449.26
677.23	20175.42
677.37	20159.03
677.51	20229.25
677.65	20355.64
677.79	19899.23
677.93	20280.74
678.07	19812.63
678.21	19702.63
678.34	20032.65
678.48	19950.73
678.62	19899.23
678.76	19754.12
678.90	19494.32
679.04	19814.98
679.18	19740.08
679.31	19342.19
679.45	18963.02
679.59	19344.53
679.73	19159.63
679.87	19145.58
680.00	19035.58
680.14	18867.06
680.28	18944.30
680.42	18836.63
680.56	18970.04
680.70	18855.36
680.83	19124.52
680.97	18988.77
681.11	18728.97
681.25	18717.26
681.39	18593.22
681.52	18588.53
681.66	18396.61
681.80	18244.48
681.94	18387.25
682.07	18352.14
682.21	18377.89
682.35	17930.84
682.49	18190.64
682.62	17956.59
682.76	18150.85
682.90	18106.38
683.04	18050.21
683.17	18073.62
683.31	18047.87
683.45	18015.10
683.59	17895.74
683.72	17682.75
683.86	17830.20
684.00	17823.18
684.13	17366.78
684.27	17664.02
684.41	17556.36
684.55	17394.86
684.68	17184.21
684.82	17317.62
684.96	17160.81
685.09	17193.58
685.23	16954.84
685.37	17221.66
685.50	17146.76
685.64	16966.54
685.78	17081.23
685.91	16882.28
686.05	16491.41
686.19	16669.30
686.32	16758.24
686.46	16587.38
686.60	16409.50
686.73	16297.15
686.87	16606.10
687.01	16533.54
687.14	16255.02
687.28	16367.37
687.42	16493.76
687.55	15946.07
687.69	16133.31
687.82	16177.78
687.96	16184.80
688.10	16119.27
688.23	15908.62
688.37	16100.55
688.50	15887.56
688.64	15709.68
688.78	15824.36
688.91	15658.18
689.05	15566.90
689.18	15648.82
689.32	15131.56
689.46	15356.25
689.59	15164.33
689.73	15246.25
689.86	15248.59
690.00	15201.78
690.13	15325.83
690.27	15054.33
690.41	15349.23
690.54	15061.35
690.68	15213.48
690.81	15180.71
690.95	15250.93
691.08	15059.01
691.22	15103.48
691.35	14881.13
691.49	14874.10
691.62	14824.95
691.76	14588.56
691.89	14420.04
692.03	14335.78
692.16	14424.72
692.30	14579.20
692.43	14171.94
692.57	14050.24
692.70	14394.29
692.84	13982.36
692.97	13912.14
693.11	14003.43
693.24	14136.84
693.38	14033.85
693.51	14033.85
693.65	14083.00
693.78	13909.80
693.92	13774.05
694.05	13642.98
694.19	13607.87
694.32	13568.09
694.45	13666.39
694.59	13329.35
694.72	13549.36
694.86	13319.99
694.99	13249.77
695.13	13284.88
695.26	13247.43
695.39	13228.71
695.53	13142.11
695.66	13217.01
695.80	13064.87
695.93	12978.27
696.07	13062.53
696.20	13184.24
696.33	13025.08
696.47	12886.99
696.60	12648.26
696.73	12718.47
696.87	12774.64
697.00	12622.51
697.14	12582.72
697.27	12428.24
697.40	12222.28
697.54	12449.31
697.67	12145.04
697.80	12311.22
697.94	12306.54
698.07	12023.33
698.21	12140.36
698.34	12198.87
698.47	12229.30
698.61	11976.52
698.74	12285.47
698.87	12255.04
699.01	11946.09
699.14	11817.36
699.27	11786.94
699.40	11695.66
699.54	11595.01
699.67	11726.08
699.80	11545.86
699.94	11482.67
700.07	11417.13
700.20	11379.68
700.34	11290.74
700.47	11515.44
700.60	11356.28
700.73	11213.51
700.87	11232.23
701.00	11215.85
701.13	11035.63
701.26	11026.26
701.40	11147.97
701.53	11068.39
701.66	11075.42
701.79	10911.58
701.93	10988.82
702.06	10642.42
702.19	10523.05
702.32	10581.56
702.46	10651.78
702.59	10511.35
702.72	10228.14
702.85	10560.50
702.99	10274.95
703.12	10296.02
703.25	10211.76
703.38	10270.27
703.51	10333.47
703.65	10092.39
703.78	10410.70
703.91	10085.37
704.04	10223.46
704.17	10188.35
704.31	10092.39
704.44	10052.60
704.57	9951.96
704.70	9848.97
704.83	9781.10
704.96	9804.50
705.10	9914.51
705.23	9612.58
>>>>>End Processed Spectral Data<<<<<
