SpectraSuite Data File
++++++++++++++++++++++++++++++++++++
Date: Fri Oct 18 13:58:29 GMT-05:00 2013
User: bianchi
Dark Spectrum Present: No
Reference Spectrum Present: No
Number of Sampled Component Spectra: 1
Spectrometers: USB2+H05261
Integration Time (usec): 50000 (USB2+H05261)
Spectra Averaged: 1 (USB2+H05261)
Boxcar Smoothing: 0 (USB2+H05261)
Correct for Electrical Dark: No (USB2+H05261)
Strobe/Lamp Enabled: No (USB2+H05261)
Correct for Detector Non-linearity: No (USB2+H05261)
Correct for Stray Light: No (USB2+H05261)
Number of Pixels in Processed Spectrum: 2048
>>>>>Begin Processed Spectral Data<<<<<
365.73	0.00
365.92	0.00
366.12	0.00
366.32	0.00
366.52	0.00
366.72	0.00
366.91	0.00
367.11	0.00
367.31	0.00
367.51	0.00
367.70	0.00
367.90	0.00
368.10	0.00
368.30	0.00
368.49	0.00
368.69	0.00
368.89	0.00
369.09	0.00
369.28	0.00
369.48	0.00
369.68	0.00
369.87	0.00
370.07	0.00
370.27	0.00
370.47	0.00
370.66	77.24
370.86	110.01
371.06	147.45
371.25	145.11
371.45	124.05
371.65	170.86
371.84	110.01
372.04	131.07
372.24	107.66
372.44	210.65
372.63	170.86
372.83	196.60
373.03	175.54
373.22	133.41
373.42	227.03
373.62	187.24
373.81	189.58
374.01	177.88
374.21	217.67
374.40	142.77
374.60	262.14
374.79	332.36
374.99	227.03
375.19	189.58
375.38	191.92
375.58	212.99
375.78	250.44
375.97	243.42
376.17	273.84
376.37	250.44
376.56	238.73
376.76	250.44
376.95	243.42
377.15	245.76
377.35	227.03
377.54	269.16
377.74	287.89
377.93	287.89
378.13	276.18
378.33	318.31
378.52	313.63
378.72	306.61
378.91	292.57
379.11	271.50
379.31	313.63
379.50	287.89
379.70	294.91
379.89	318.31
380.09	283.20
380.28	271.50
380.48	271.50
380.68	294.91
380.87	292.57
381.07	264.48
381.26	348.74
381.46	367.46
381.65	341.72
381.85	276.18
382.04	353.42
382.24	332.36
382.43	255.12
382.63	348.74
382.83	341.72
383.02	320.65
383.22	369.80
383.41	330.02
383.61	404.91
383.80	327.68
384.00	372.15
384.19	337.04
384.39	404.91
384.58	351.08
384.78	320.65
384.97	379.17
385.17	351.08
385.36	397.89
385.56	374.49
385.75	365.12
385.95	395.55
386.14	376.83
386.34	395.55
386.53	369.80
386.72	435.34
386.92	383.85
387.11	411.93
387.31	390.87
387.50	456.40
387.70	395.55
387.89	367.46
388.09	367.46
388.28	428.32
388.48	416.62
388.67	390.87
388.86	404.91
389.06	444.70
389.25	449.38
389.45	423.64
389.64	526.62
389.84	531.30
390.03	475.13
390.22	475.13
390.42	479.81
390.61	554.71
390.81	578.11
391.00	533.64
391.19	519.60
391.39	521.94
391.58	519.60
391.78	479.81
391.97	465.77
392.16	528.96
392.36	603.86
392.55	531.30
392.75	482.15
392.94	482.15
393.13	519.60
393.33	629.60
393.52	531.30
393.71	613.22
393.91	566.41
394.10	503.22
394.29	594.50
394.49	617.90
394.68	624.92
394.88	545.34
395.07	653.01
395.26	543.00
395.46	685.78
395.65	568.75
395.84	580.45
396.04	603.86
396.23	587.47
396.42	624.92
396.62	622.58
396.81	550.03
397.00	648.33
397.19	662.37
397.39	636.63
397.58	681.10
397.77	704.50
397.97	681.10
398.16	685.78
398.35	704.50
398.55	662.37
398.74	695.14
398.93	704.50
399.12	622.58
399.32	631.94
399.51	645.99
399.70	713.86
399.90	660.03
400.09	751.31
400.28	854.30
400.47	739.61
400.67	720.88
400.86	781.74
401.05	709.18
401.24	746.63
401.44	812.17
401.63	751.31
401.82	777.06
402.01	840.25
402.21	861.32
402.40	819.19
402.59	873.02
402.78	819.19
402.97	819.19
403.17	793.44
403.36	760.67
403.55	830.89
403.74	943.24
403.93	786.42
404.13	826.21
404.32	821.53
404.51	924.51
404.70	931.53
404.89	992.39
405.09	924.51
405.28	898.77
405.47	973.66
405.66	966.64
405.85	964.30
406.05	980.68
406.24	940.90
406.43	1018.13
406.62	1086.01
406.81	1039.20
407.00	980.68
407.20	1020.47
407.39	1013.45
407.58	1107.07
407.77	987.71
407.96	1041.54
408.15	1151.54
408.34	994.73
408.54	1198.35
408.73	1097.71
408.92	1095.37
409.11	1196.01
409.30	1214.74
409.49	1158.57
409.68	1125.80
409.87	1086.01
410.07	1123.46
410.26	1203.04
410.45	1210.06
410.64	1177.29
410.83	1252.19
411.02	1170.27
411.21	1282.61
411.40	1242.82
411.59	1277.93
411.78	1200.69
411.98	1270.91
412.17	1317.72
412.36	1263.89
412.55	1352.83
412.74	1320.06
412.93	1268.57
413.12	1177.29
413.31	1451.13
413.50	1343.47
413.69	1387.94
413.88	1376.24
414.07	1317.72
414.26	1420.71
414.45	1348.15
414.64	1453.47
414.83	1490.92
415.02	1502.62
415.22	1479.22
415.41	1554.12
415.60	1600.93
415.79	1502.62
415.98	1528.37
416.17	1586.88
416.36	1502.62
416.55	1647.74
416.74	1591.56
416.93	1666.46
417.12	1621.99
417.31	1619.65
417.50	1689.87
417.69	1682.85
417.88	1727.32
418.07	1694.55
418.26	1837.32
418.45	1755.40
418.64	1776.47
418.83	1785.83
419.02	1724.97
419.21	1844.34
419.39	1788.17
419.58	1715.61
419.77	1741.36
419.96	1891.15
420.15	1865.41
420.34	1832.64
420.53	1905.20
420.72	1989.46
420.91	1851.36
421.10	1912.22
421.29	1891.15
421.48	1935.62
421.67	2008.18
421.86	1935.62
422.05	1879.45
422.24	1893.49
422.43	1881.79
422.61	1949.67
422.80	1966.05
422.99	1921.58
423.18	2010.52
423.37	1975.41
423.56	1970.73
423.75	2052.65
423.94	1893.49
424.13	1879.45
424.32	2001.16
424.50	2052.65
424.69	2078.40
424.88	2036.27
425.07	2015.20
425.26	1991.80
425.45	2115.84
425.64	2015.20
425.83	2141.59
426.01	2057.33
426.20	1996.48
426.39	1942.64
426.58	2005.84
426.77	2099.46
426.96	2026.90
427.15	2101.80
427.33	2047.97
427.52	2157.97
427.71	2012.86
427.90	2277.34
428.09	2036.27
428.28	2101.80
428.46	2127.55
428.65	2260.96
428.84	2172.02
429.03	2340.54
429.22	2176.70
429.40	2204.78
429.59	2326.49
429.78	2101.80
429.97	2193.08
430.16	2169.68
430.34	2253.94
430.53	2275.00
430.72	2202.44
430.91	2347.56
431.10	2286.70
431.28	2359.26
431.47	2305.43
431.66	2307.77
431.85	2305.43
432.03	2282.02
432.22	2469.27
432.41	2464.58
432.60	2562.89
432.79	2380.32
432.97	2324.15
433.16	2513.74
433.35	2518.42
433.54	2457.56
433.72	2480.97
433.91	2483.31
434.10	2415.43
434.28	2544.16
434.47	2548.84
434.66	2541.82
434.85	2562.89
435.03	2511.39
435.22	2523.10
435.41	2665.87
435.59	2597.99
435.78	2686.94
435.97	2640.12
436.16	2630.76
436.34	2532.46
436.53	2558.21
436.72	2752.47
436.90	2640.12
437.09	2745.45
437.28	2789.92
437.46	2691.62
437.65	2677.57
437.84	2771.19
438.02	2698.64
438.21	2679.91
438.40	2637.78
438.58	2785.24
438.77	3028.65
438.96	2832.05
439.14	2949.08
439.33	2888.22
439.52	2895.24
439.70	2958.44
439.89	3059.08
440.08	3030.99
440.26	3021.63
440.45	3014.61
440.63	3094.19
440.82	3047.38
441.01	3171.43
441.19	3091.85
441.38	3236.96
441.57	3260.37
441.75	3155.04
441.94	3288.45
442.12	3220.58
442.31	3283.77
442.50	3190.15
442.68	3206.53
442.87	3288.45
443.05	3353.99
443.24	3438.25
443.43	3356.33
443.61	3309.52
443.80	3515.48
443.98	3332.92
444.17	3302.50
444.35	3330.58
444.54	3428.88
444.73	3428.88
444.91	3506.12
445.10	3361.01
445.28	3447.61
445.47	3393.78
445.65	3353.99
445.84	3398.46
446.02	3552.93
446.21	3279.09
446.39	3398.46
446.58	3393.78
446.77	3501.44
446.95	3325.90
447.14	3524.85
447.32	3681.66
447.51	3552.93
447.69	3438.25
447.88	3494.42
448.06	3405.48
448.25	3461.65
448.43	3520.17
448.62	3517.83
448.80	3513.14
448.99	3527.19
449.17	3475.70
449.36	3566.98
449.54	3581.02
449.73	3613.79
449.91	3524.85
450.10	3583.36
450.28	3709.75
450.46	3805.71
450.65	3613.79
450.83	3667.62
451.02	3744.86
451.20	3758.90
451.39	3913.38
451.57	3712.09
451.76	3667.62
451.94	3740.18
452.13	3985.93
452.31	3843.16
452.49	3707.41
452.68	3784.65
452.86	3735.50
453.05	3840.82
453.23	3901.67
453.42	3747.20
453.60	3880.61
453.78	3920.40
453.97	3831.46
454.15	3953.16
454.34	3775.28
454.52	4201.26
454.70	3885.29
454.89	3983.59
455.07	3854.86
455.26	4002.32
455.44	4088.92
455.62	4072.53
455.81	4095.94
455.99	4039.76
456.17	4107.64
456.36	4131.05
456.54	3925.08
456.73	4203.60
456.91	4269.14
457.09	4243.39
457.28	4191.90
457.46	4205.94
457.64	4322.97
457.83	4236.37
458.01	4166.15
458.19	4255.09
458.38	4318.29
458.56	4477.44
458.74	4334.67
458.93	4386.16
459.11	4320.63
459.29	4477.44
459.48	4482.13
459.66	4287.86
459.84	4479.79
460.03	4603.83
460.21	4414.25
460.39	4461.06
460.57	4587.45
460.76	4526.60
460.94	4580.43
461.12	4638.94
461.31	4713.84
461.49	4550.00
461.67	4465.74
461.85	4753.63
462.04	4526.60
462.22	4784.06
462.40	4760.65
462.59	4854.27
462.77	4713.84
462.95	4664.69
463.13	4744.27
463.32	4856.61
463.50	4713.84
463.68	4699.80
463.86	4692.77
464.05	4887.04
464.23	4657.67
464.41	4758.31
464.59	4777.03
464.78	4880.02
464.96	4840.23
465.14	4903.42
465.32	4966.62
465.50	4882.36
465.69	4919.81
465.87	4947.89
466.05	4929.17
466.23	5111.73
466.41	4940.87
466.60	5081.30
466.78	5107.05
466.96	4997.04
467.14	4980.66
467.32	5050.88
467.51	5074.28
467.69	5205.35
467.87	4950.23
468.05	5226.42
468.23	5100.03
468.41	5057.90
468.60	5212.37
468.78	5144.50
468.96	5144.50
469.14	5174.92
469.32	5221.74
469.50	5064.92
469.69	5170.24
469.87	5406.64
470.05	5589.20
470.23	5418.34
470.41	5366.85
470.59	5572.82
470.77	5170.24
470.95	5378.55
471.14	5537.71
471.32	5488.56
471.50	5511.96
471.68	5488.56
471.86	5708.57
472.04	5526.00
472.22	5888.79
472.40	5331.74
472.58	5486.22
472.77	5692.18
472.95	5687.50
473.13	6040.92
473.31	5774.10
473.49	5741.33
473.67	5783.46
473.85	5816.23
474.03	5912.19
474.21	5919.21
474.39	6059.65
474.57	5954.32
474.75	6026.88
474.93	6214.12
475.12	5900.49
475.30	6193.06
475.48	6134.54
475.66	6139.23
475.84	6143.91
476.02	6249.23
476.20	6305.40
476.38	6406.05
476.56	6527.75
476.74	6586.27
476.92	6434.13
477.10	6616.69
477.28	6588.61
477.46	6387.32
477.64	6668.19
477.82	6614.35
478.00	6977.14
478.18	6923.30
478.36	6839.05
478.54	6927.99
478.72	6995.86
478.90	6860.11
479.08	7140.97
479.26	7300.13
479.44	7194.81
479.62	7375.03
479.80	7136.29
479.98	7171.40
480.16	7508.44
480.34	7559.93
480.52	7379.71
480.70	7552.91
480.88	7702.70
481.06	7382.05
481.24	7468.65
481.41	7609.08
481.59	7646.53
481.77	7812.71
481.95	7852.50
482.13	7815.05
482.31	7946.12
482.49	8194.22
482.67	8297.20
482.85	8147.40
483.03	8360.39
483.21	8489.12
483.39	8554.66
483.57	8489.12
483.74	8477.42
483.92	8638.92
484.10	8603.81
484.28	8891.70
484.46	8908.08
484.64	9015.74
484.82	8851.91
485.00	8837.86
485.18	9170.22
485.35	9383.21
485.53	9174.90
485.71	9217.03
485.89	9394.91
486.07	9486.19
486.25	9563.43
486.43	9462.79
486.61	9472.15
486.78	9734.29
486.96	9966.00
487.14	10094.73
487.32	9769.40
487.50	9956.64
487.68	10167.29
487.85	10146.22
488.03	10160.27
488.21	10633.05
488.39	10422.41
488.57	10785.19
488.75	10635.39
488.92	10995.84
489.10	10726.68
489.28	10689.23
489.46	11047.33
489.64	10768.80
489.81	11150.31
489.99	11040.31
490.17	11269.68
490.35	11487.35
490.53	11304.79
490.70	11571.61
490.88	11573.95
491.06	11592.67
491.24	11555.22
491.41	11667.57
491.59	11726.08
491.77	11693.32
491.95	11894.60
492.13	12020.99
492.30	12006.95
492.48	12163.76
492.66	12116.95
492.84	12084.19
493.01	12390.80
493.19	12388.46
493.37	12634.21
493.54	12578.04
493.72	12875.29
493.90	12723.15
494.08	12842.52
494.25	12877.63
494.43	13053.17
494.61	13034.44
494.79	13090.62
494.96	13069.55
495.14	13109.34
495.32	13422.97
495.49	13369.14
495.67	13575.11
495.85	13514.25
496.02	13673.41
496.20	13930.87
496.38	13994.06
496.55	13937.89
496.73	13752.99
496.91	13905.12
497.09	13848.95
497.26	14298.33
497.44	14054.92
497.62	14183.65
497.79	14310.04
497.97	14068.96
498.14	14457.49
498.32	14586.22
498.50	14593.24
498.67	14743.03
498.85	14504.30
499.03	14726.65
499.20	14895.17
499.38	14883.47
499.56	14895.17
499.73	15133.90
499.91	15325.83
500.08	15499.03
500.26	15227.53
500.44	15342.21
500.61	15534.14
500.79	15583.29
500.97	15559.88
501.14	15686.27
501.32	15630.10
501.49	15819.68
501.67	15653.50
501.84	16119.27
502.02	15875.85
502.20	15789.25
502.37	15913.30
502.55	16009.26
502.72	15882.88
502.90	16070.12
503.07	15936.71
503.25	16145.02
503.43	16128.63
503.60	16379.07
503.78	16582.70
503.95	16393.11
504.13	16215.23
504.30	16652.91
504.48	16400.13
504.65	16519.50
504.83	16505.46
505.01	16711.42
505.18	16622.48
505.36	16802.71
505.53	16767.60
505.71	16830.79
505.88	16891.65
506.06	16861.22
506.23	17130.38
506.41	17043.78
506.58	17027.40
506.76	17282.52
506.93	17156.13
507.11	17055.48
507.28	17247.41
507.46	17411.25
507.63	17341.03
507.81	17575.08
507.98	17343.37
508.16	17619.55
508.33	17818.50
508.50	17673.39
508.68	17813.82
508.85	17865.31
509.03	17905.10
509.20	18031.49
509.38	18312.35
509.55	18132.13
509.73	18235.11
509.90	17951.91
510.08	17785.73
510.25	18150.85
510.42	18565.13
510.60	18651.73
510.77	18420.02
510.95	18384.91
511.12	18576.83
511.30	18530.02
511.47	18551.09
511.64	18511.30
511.82	18939.62
511.99	18850.67
512.17	18988.77
512.34	18771.10
512.51	18864.72
512.69	18991.11
512.86	19007.49
513.04	19199.41
513.21	19147.92
513.38	19094.09
513.56	19023.87
513.73	19058.98
513.90	19335.17
514.08	19335.17
514.25	19356.23
514.43	19524.75
514.60	19707.31
514.77	19501.34
514.95	19606.67
515.12	19683.91
515.29	19419.42
515.47	19461.55
515.64	19744.76
515.81	19831.36
515.99	20215.21
516.16	20032.65
516.33	20004.56
516.51	20154.35
516.68	20231.59
516.85	20027.96
517.03	19868.81
517.20	20166.06
517.37	20285.42
517.54	20489.05
517.72	20320.53
517.89	20528.84
518.06	20449.26
518.24	20226.91
518.41	20460.96
518.58	20737.15
518.75	20383.73
518.93	20720.76
519.10	20931.41
519.27	20882.26
519.45	20872.90
519.62	20968.86
519.79	20718.42
519.96	20760.55
520.14	20758.21
520.31	21048.44
520.48	21043.76
520.65	20713.74
520.83	21228.66
521.00	21041.42
521.17	21195.89
521.34	21153.76
521.52	21521.23
521.69	21446.33
521.86	21563.36
522.03	21614.85
522.20	21558.67
522.38	21668.68
522.55	21727.19
522.72	21376.11
522.89	21451.01
523.07	21724.85
523.24	21930.82
523.41	22029.12
523.58	21853.58
523.75	22122.74
523.92	21577.40
524.10	21720.17
524.27	21949.54
524.44	21888.69
524.61	22267.86
524.78	22080.61
524.96	22146.15
525.13	22405.95
525.30	21900.39
525.47	22230.41
525.64	22345.09
525.81	22485.53
525.98	22431.69
526.16	22256.15
526.33	22324.03
526.50	22682.13
526.67	22487.87
526.84	22567.45
527.01	22405.95
527.18	22548.72
527.36	22658.73
527.53	22946.61
527.70	22691.49
527.87	23077.68
528.04	22998.10
528.21	23002.78
528.38	22955.97
528.55	22902.14
528.72	23077.68
528.89	23091.73
529.07	23257.90
529.24	23496.64
529.41	23007.47
529.58	22789.80
529.75	23049.60
529.92	23365.57
530.09	23260.24
530.26	23346.84
530.43	23250.88
530.60	23335.14
530.77	23246.20
530.94	23201.73
531.11	23152.58
531.28	23655.79
531.46	23372.59
531.63	23201.73
531.80	23508.34
531.97	23946.02
532.14	23896.87
532.31	23913.25
532.48	23630.05
532.65	23693.24
532.82	23421.74
532.99	23517.70
533.16	23931.98
533.33	24027.94
533.50	24044.32
533.67	24126.24
533.84	23957.72
534.01	24081.77
534.18	23894.53
534.35	24189.44
534.52	24065.39
534.69	24229.23
534.86	24191.78
535.03	23978.79
535.20	24013.90
535.37	24636.48
535.54	24390.72
535.71	24283.06
535.88	23967.09
536.05	24285.40
536.22	24489.03
536.38	24432.85
536.55	24718.40
536.72	24549.88
536.89	24629.46
537.06	24814.36
537.23	24737.12
537.40	24823.72
537.57	24812.02
537.74	24931.39
537.91	24950.11
538.08	25008.62
538.25	24685.63
538.42	24931.39
538.59	25135.01
538.75	24807.34
538.92	24912.66
539.09	25006.28
539.26	24896.28
539.43	25268.42
539.60	25418.22
539.77	25371.41
539.94	25748.23
540.11	25277.79
540.28	25532.90
540.44	25247.36
540.61	25001.60
540.78	25205.23
540.95	25099.90
541.12	25135.01
541.29	25249.70
541.46	25493.12
541.62	25088.20
541.79	25544.61
541.96	25364.39
542.13	25371.41
542.30	25741.21
542.47	25549.29
542.63	25710.78
542.80	25916.75
542.97	25706.10
543.14	25696.74
543.31	25869.94
543.48	25755.26
543.64	26230.38
543.81	26426.99
543.98	26333.37
544.15	25891.01
544.32	26401.24
544.48	26441.03
544.65	25713.13
544.82	25898.03
544.99	25949.52
545.16	26314.64
545.32	26160.17
545.49	26183.57
545.66	26829.56
545.83	26579.12
546.00	26333.37
546.16	26480.82
546.33	26551.04
546.50	25940.16
546.67	25993.99
546.83	26263.15
547.00	26478.48
547.17	26848.29
547.34	26803.82
547.50	26892.76
547.67	26342.73
547.84	26864.67
548.00	26546.36
548.17	26698.49
548.34	26834.24
548.51	26883.39
548.67	26878.71
548.84	26974.67
549.01	26899.78
549.18	27101.06
549.34	26616.57
549.51	26815.52
549.68	26689.13
549.84	26909.14
550.01	26869.35
550.18	27154.90
550.34	27051.91
550.51	26925.52
550.68	26958.29
550.84	26848.29
551.01	27201.71
551.18	27140.85
551.34	26836.58
551.51	27431.08
551.68	27101.06
551.84	27234.47
552.01	27374.91
552.18	27300.01
552.34	27290.65
552.51	27096.38
552.68	27248.52
552.84	27255.54
553.01	27522.36
553.18	27175.96
553.34	27688.54
553.51	27213.41
553.67	27620.66
553.84	28116.86
554.01	27405.33
554.17	27690.88
554.34	27206.39
554.51	27494.27
554.67	27522.36
554.84	27761.09
555.00	28018.55
555.17	28025.57
555.33	27866.42
555.50	27693.22
555.67	27594.92
555.83	27878.12
556.00	27866.42
556.16	28025.57
556.33	27864.08
556.50	27789.18
556.66	28046.64
556.83	27520.02
556.99	28161.33
557.16	28088.77
557.32	28320.48
557.49	28018.55
557.65	27725.99
557.82	27899.19
557.98	27791.52
558.15	28259.63
558.32	28278.35
558.48	27875.78
558.65	28182.39
558.81	28538.15
558.98	28283.03
559.14	28027.92
559.31	28769.86
559.47	28287.71
559.64	28048.98
559.80	28268.99
559.97	28308.78
560.13	28243.24
560.30	28493.68
560.46	28250.27
560.63	28407.08
560.79	28081.75
560.96	29085.84
561.12	28025.57
561.29	28166.01
561.45	27931.95
561.61	28629.43
561.78	28662.20
561.94	28753.48
562.11	28545.17
562.27	28510.07
562.44	28273.67
562.60	28383.68
562.77	28568.58
562.93	28498.36
563.10	28439.85
563.26	28247.93
563.42	29015.62
563.59	28439.85
563.75	28568.58
563.92	28692.63
564.08	28725.39
564.24	28648.16
564.41	28727.74
564.57	28872.85
564.74	28680.92
564.90	28795.61
565.07	28636.45
565.23	28577.94
565.39	29039.03
565.56	28554.54
565.72	28634.11
565.88	28905.62
566.05	28540.49
566.21	28823.70
566.38	28545.17
566.54	28606.03
566.70	28837.74
566.87	29273.08
567.03	28776.89
567.19	28954.77
567.36	29022.64
567.52	28603.69
567.68	29041.37
567.85	28606.03
568.01	28690.29
568.17	29193.50
568.34	29350.32
568.50	29001.58
568.66	29179.46
568.83	29106.90
568.99	28863.49
569.15	29212.23
569.32	28985.19
569.48	29076.48
569.64	29163.08
569.81	29191.16
569.97	28837.74
570.13	28821.36
570.30	29347.98
570.46	29127.97
570.62	28833.06
570.78	28870.51
570.95	29015.62
571.11	29170.10
571.27	29003.92
571.43	28765.18
571.60	29252.02
571.76	28919.66
571.92	29392.45
572.09	29289.46
572.25	29418.19
572.41	29022.64
572.57	29029.66
572.74	29319.89
572.90	29090.52
573.06	29266.06
573.22	29099.88
573.38	29315.21
573.55	29013.28
573.71	29109.24
573.87	29170.10
574.03	29425.22
574.20	29270.74
574.36	29001.58
574.52	29558.63
574.68	29340.96
574.84	29125.63
575.01	29495.43
575.17	29149.03
575.33	29266.06
575.49	29298.83
575.65	29205.20
575.82	29427.56
575.98	29270.74
576.14	29362.02
576.30	29228.61
576.46	29083.50
576.62	29347.98
576.79	29385.43
576.95	29436.92
577.11	29422.87
577.27	29163.08
577.43	29596.07
577.59	29230.95
577.75	29345.64
577.92	29198.18
578.08	29605.44
578.24	29528.20
578.40	29434.58
578.56	29572.67
578.72	29413.51
578.88	29809.06
579.04	29689.70
579.21	29127.97
579.37	29310.53
579.53	29518.84
579.69	29090.52
579.85	29230.95
580.01	29296.49
580.17	29130.31
580.33	29390.11
580.49	29259.04
580.65	29701.40
580.82	29399.47
580.98	29179.46
581.14	29619.48
581.30	29462.66
581.46	29453.30
581.62	29422.87
581.78	28978.17
581.94	29516.50
582.10	29509.47
582.26	29429.90
582.42	29462.66
582.58	29764.59
582.74	29542.24
582.90	29724.80
583.06	29467.34
583.22	29668.63
583.38	29586.71
583.54	29324.57
583.70	29621.82
583.86	29528.20
584.02	29144.35
584.18	29322.23
584.34	29743.53
584.50	29816.08
584.66	29181.80
584.82	29347.98
584.98	29383.09
585.14	29455.64
585.30	29413.51
585.46	29647.57
585.62	29282.44
585.78	29572.67
585.94	29149.03
586.10	29582.03
586.26	29633.52
586.42	29790.34
586.58	29612.46
586.74	29591.39
586.90	29593.73
587.06	29411.17
587.22	29303.51
587.38	29200.52
587.54	29610.12
587.70	29532.88
587.86	29476.71
588.02	29848.85
588.18	29970.56
588.34	29715.44
588.49	29546.92
588.65	29488.41
588.81	29411.17
588.97	29687.36
589.13	29490.75
589.29	29567.99
589.45	29652.25
589.61	29640.54
589.77	30316.96
589.93	30071.20
590.08	29867.58
590.24	29975.24
590.40	29567.99
590.56	29539.90
590.72	29661.61
590.88	29708.42
591.04	29729.48
591.20	30045.46
591.35	29954.18
591.51	30052.48
591.67	30026.73
591.83	30050.14
591.99	30096.95
592.15	30235.04
592.31	29556.28
592.46	29848.85
592.62	29998.65
592.78	29619.48
592.94	29673.31
593.10	29844.17
593.26	29813.74
593.41	30113.33
593.57	30012.69
593.73	29954.18
593.89	30316.96
594.05	29729.48
594.20	29518.84
594.36	29890.98
594.52	29488.41
594.68	29586.71
594.84	29759.91
594.99	29965.88
595.15	29708.42
595.31	30106.31
595.47	29497.77
595.62	30068.86
595.78	30000.99
595.94	29827.79
596.10	29940.13
596.25	29685.01
596.41	29567.99
596.57	29539.90
596.73	30153.12
596.88	29874.60
597.04	29874.60
597.20	30218.66
597.36	30192.91
597.51	30108.65
597.67	30082.91
597.83	30082.91
597.99	30115.67
598.14	29638.20
598.30	29771.61
598.46	30012.69
598.61	30087.59
598.77	30307.60
598.93	30066.52
599.09	30206.95
599.24	30319.30
599.40	30335.68
599.56	30532.29
599.71	30115.67
599.87	30270.15
600.03	29694.38
600.18	30155.46
600.34	30078.22
600.50	29944.81
600.65	30178.87
600.81	30239.72
600.97	30323.98
601.12	30309.94
601.28	30054.82
601.44	30270.15
601.59	29963.54
601.75	30005.67
601.91	29902.68
602.06	29848.85
602.22	30218.66
602.37	29720.12
602.53	29998.65
602.69	30015.03
602.84	30199.93
603.00	30139.08
603.16	29916.73
603.31	30396.54
603.47	30110.99
603.62	30169.51
603.78	30106.31
603.94	29890.98
604.09	29757.57
604.25	29989.28
604.40	29846.51
604.56	29942.47
604.71	30429.30
604.87	29790.34
605.03	30129.72
605.18	29696.72
605.34	29963.54
605.49	30031.41
605.65	30010.35
605.80	29579.69
605.96	29834.81
606.12	29738.85
606.27	30108.65
606.43	29977.58
606.58	29984.60
606.74	29958.86
606.89	29788.00
607.05	30319.30
607.20	30251.42
607.36	29942.47
607.51	29631.18
607.67	29799.70
607.82	29806.72
607.98	30265.47
608.13	29979.92
608.29	29488.41
608.44	29972.90
608.60	29862.90
608.75	30010.35
608.91	29968.22
609.06	29841.83
609.22	29762.25
609.37	29795.02
609.53	29748.21
609.68	29563.31
609.84	29603.10
609.99	30106.31
610.15	29465.00
610.30	29663.95
610.46	29481.39
610.61	29542.24
610.76	30015.03
610.92	29902.68
611.07	29851.19
611.23	29944.81
611.38	29867.58
611.54	29209.89
611.69	29448.62
611.84	29493.09
612.00	29834.81
612.15	29179.46
612.31	29731.83
612.46	29670.97
612.62	29542.24
612.77	29507.13
612.92	29619.48
613.08	29692.04
613.23	29420.53
613.39	29502.45
613.54	29329.25
613.69	29525.86
613.85	29345.64
614.00	29261.38
614.15	29816.08
614.31	29535.22
614.46	29715.44
614.62	29799.70
614.77	29369.04
614.92	29312.87
615.08	29598.41
615.23	29319.89
615.38	29193.50
615.54	29242.65
615.69	29132.65
615.84	29514.16
616.00	29460.32
616.15	29350.32
616.30	29399.47
616.46	29123.29
616.61	29071.79
616.76	29516.50
616.92	29130.31
617.07	29413.51
617.22	29420.53
617.37	29167.76
617.53	29020.30
617.68	28774.55
617.83	29200.52
617.99	29310.53
618.14	29254.36
618.29	29247.33
618.45	28795.61
618.60	29109.24
618.75	29149.03
618.90	29254.36
619.06	29039.03
619.21	28591.98
619.36	28767.52
619.51	28828.38
619.67	28795.61
619.82	28692.63
619.97	29050.73
620.12	28856.46
620.28	28563.90
620.43	28917.32
620.58	29106.90
620.73	29207.55
620.89	29043.71
621.04	29074.13
621.19	28973.49
621.34	28821.36
621.49	28905.62
621.65	28943.06
621.80	28849.44
621.95	28552.20
622.10	28800.29
622.25	28503.04
622.41	28507.72
622.56	28652.84
622.71	29003.92
622.86	28835.40
623.01	28570.92
623.16	28748.80
623.32	28467.94
623.47	28390.70
623.62	28467.94
623.77	29041.37
623.92	28514.75
624.07	28259.63
624.23	28070.04
624.38	28226.86
624.53	28636.45
624.68	28634.11
624.83	28601.35
624.98	28673.90
625.13	28168.35
625.29	28341.55
625.44	28903.28
625.59	28395.38
625.74	28320.48
625.89	28121.54
626.04	28168.35
626.19	28489.00
626.34	28130.90
626.49	28030.26
626.65	27964.72
626.80	28313.46
626.95	27775.14
627.10	28091.11
627.25	28074.73
627.40	27960.04
627.55	28046.64
627.70	28205.80
627.85	27819.61
628.00	27653.43
628.15	28016.21
628.30	28353.25
628.45	27859.40
628.60	27882.80
628.76	27899.19
628.91	28063.02
629.06	28070.04
629.21	28088.77
629.36	28290.06
629.51	27943.66
629.66	27653.43
629.81	27681.52
629.96	27641.73
630.11	27861.74
630.26	27578.53
630.41	27335.12
630.56	27400.65
630.71	27814.93
630.86	27697.90
631.01	27688.54
631.16	27974.08
631.31	27737.69
631.46	27112.77
631.61	27700.24
631.76	27697.90
631.91	27817.27
632.06	27606.62
632.21	27637.05
632.36	27412.35
632.51	27215.75
632.66	27520.02
632.81	27145.53
632.96	27332.78
633.10	27674.49
633.25	27833.65
633.40	27417.04
633.55	27164.26
633.70	27012.12
633.85	27267.24
634.00	27318.73
634.15	27548.11
634.30	26984.04
634.45	27349.16
634.60	27175.96
634.75	27351.50
634.90	27417.04
635.05	27311.71
635.19	27096.38
635.34	27599.60
635.49	27262.56
635.64	27042.55
635.79	27307.03
635.94	27232.13
636.09	27105.74
636.24	26995.74
636.39	26785.09
636.53	26899.78
636.68	26890.41
636.83	27292.99
636.98	27054.25
637.13	26953.61
637.28	27101.06
637.43	26925.52
637.57	27033.19
637.72	26916.16
637.87	26920.84
638.02	26590.83
638.17	26740.62
638.32	26593.17
638.46	26483.16
638.61	26792.11
638.76	26281.88
638.91	26670.40
639.06	26710.19
639.20	26953.61
639.35	26906.80
639.50	26979.36
639.65	26728.92
639.80	26576.78
639.94	26859.99
640.09	26911.48
640.24	26768.71
640.39	26429.33
640.54	26405.92
640.68	26686.79
640.83	26625.93
640.98	26572.10
641.13	26216.34
641.27	26595.51
641.42	26366.13
641.57	26441.03
641.72	26792.11
641.86	26387.20
642.01	26171.87
642.16	26293.58
642.31	26059.52
642.45	26487.84
642.60	26331.03
642.75	26146.12
642.90	26005.69
643.04	26043.14
643.19	26096.97
643.34	26382.52
643.48	26494.86
643.63	26185.91
643.78	26263.15
643.93	26476.14
644.07	26242.09
644.22	26040.80
644.37	25961.22
644.51	26235.06
644.66	26174.21
644.81	25893.35
644.95	25902.71
645.10	26071.23
645.25	25769.30
645.39	25724.83
645.54	25858.24
645.69	25961.22
645.83	26022.08
645.98	25731.85
646.13	26057.18
646.27	26253.79
646.42	25701.42
646.57	26106.34
646.71	25586.74
646.86	25516.52
647.00	25874.62
647.15	26045.48
647.30	25769.30
647.44	25713.13
647.59	25795.04
647.74	25837.17
647.88	25989.31
648.03	25898.03
648.17	25862.92
648.32	25617.16
648.47	25642.91
648.61	25951.86
648.76	25809.09
648.90	25610.14
649.05	25963.56
649.20	25647.59
649.34	25654.61
649.49	25348.00
649.63	25692.06
649.78	25504.82
649.92	25575.03
650.07	25729.51
650.21	25551.63
650.36	25390.13
650.51	25385.45
650.65	25549.29
650.80	25612.48
650.94	25532.90
651.09	25113.95
651.23	25511.84
651.38	25582.06
651.52	25619.50
651.67	25259.06
651.81	25338.64
651.96	25291.83
652.10	25385.45
652.25	25170.12
652.39	25336.30
652.54	25338.64
652.68	25542.27
652.83	25432.26
652.97	25530.56
653.12	25469.71
653.26	25355.02
653.41	25092.88
653.55	25006.28
653.70	25151.40
653.84	24957.13
653.99	24964.15
654.13	24954.79
654.27	24865.85
654.42	25336.30
654.56	25200.55
654.71	24987.56
654.85	24842.45
655.00	25247.36
655.14	25022.67
655.29	24676.27
655.43	25240.34
655.57	24907.98
655.72	24744.14
655.86	24823.72
656.01	24879.89
656.15	25015.65
656.30	24851.81
656.44	24807.34
656.58	24704.35
656.73	24664.57
656.87	24650.52
657.01	24617.75
657.16	24587.33
657.30	24844.79
657.45	24690.31
657.59	24638.82
657.73	24257.31
657.88	24308.80
658.02	24592.01
658.16	24566.26
658.31	24360.30
658.45	24196.46
658.60	24196.46
658.74	24503.07
658.88	24498.39
659.03	24547.54
659.17	24397.74
659.31	24283.06
659.46	24350.93
659.60	24809.68
659.74	24285.40
659.89	24599.03
660.03	24189.44
660.17	24372.00
660.32	24254.97
660.46	24025.60
660.60	23723.67
660.74	24187.10
660.89	23831.33
661.03	23805.59
661.17	23800.91
661.32	24353.27
661.46	24226.89
661.60	23922.62
661.74	23981.13
661.89	24046.66
662.03	23988.15
662.17	23967.09
662.31	23737.71
662.46	23957.72
662.60	23641.75
662.74	23616.01
662.88	23803.25
663.03	23627.71
663.17	23307.05
663.31	23435.78
663.45	23044.91
663.60	23353.87
663.74	23339.82
663.88	23297.69
664.02	23042.57
664.17	23613.66
664.31	23754.10
664.45	23403.02
664.59	23503.66
664.73	23215.77
664.88	23335.14
665.02	22726.60
665.16	22993.42
665.30	22789.80
665.44	22981.72
665.59	23063.64
665.73	23178.33
665.87	22661.07
666.01	23019.17
666.15	23131.51
666.29	23012.15
666.44	22963.00
666.58	22637.66
666.72	22679.79
666.86	22965.34
667.00	23063.64
667.14	22602.55
667.28	22340.41
667.43	22600.21
667.57	22588.51
667.71	22459.78
667.85	22604.89
667.99	22698.52
668.13	22642.34
668.27	22349.78
668.41	22913.84
668.56	22511.27
668.70	22576.81
668.84	22637.66
668.98	22291.26
669.12	22602.55
669.26	22185.94
669.40	22181.26
669.54	22207.00
669.68	22640.00
669.82	22054.87
669.96	22347.44
670.10	21872.31
670.25	21785.71
670.39	21792.73
670.53	21982.31
670.67	22221.05
670.81	21853.58
670.95	21975.29
671.09	21806.77
671.23	21750.60
671.37	21825.50
671.51	21420.58
671.65	21813.79
671.79	21455.69
671.93	21750.60
672.07	21355.05
672.21	21233.34
672.35	21254.40
672.49	21448.67
672.63	21488.46
672.77	21041.42
672.91	21343.35
673.05	21453.35
673.19	21156.10
673.33	21303.56
673.47	21153.76
673.61	21214.62
673.75	21245.04
673.89	20748.85
674.03	20828.43
674.17	20933.75
674.31	20830.77
674.45	20741.83
674.59	20753.53
674.73	20599.05
674.87	20519.48
675.01	20568.63
675.15	20695.02
675.29	20762.89
675.43	20732.47
675.56	20407.13
675.70	20528.84
675.84	20587.35
675.98	19676.88
676.12	20400.11
676.26	20556.93
676.40	20589.69
676.54	20245.63
676.68	20222.23
676.82	19838.38
676.96	19800.93
677.10	19950.73
677.23	19974.13
677.37	19761.14
677.51	19782.21
677.65	19693.27
677.79	19590.28
677.93	19419.42
678.07	19534.11
678.21	19381.98
678.34	19564.54
678.48	19482.62
678.62	19239.20
678.76	19152.60
678.90	19073.03
679.04	19080.05
679.18	19428.79
679.31	19091.75
679.45	18836.63
679.59	18850.67
679.73	18775.78
679.87	18785.14
680.00	18808.54
680.14	18457.46
680.28	18567.47
680.42	18602.58
680.56	18499.59
680.70	18506.62
680.83	18750.03
680.97	18394.27
681.11	18457.46
681.25	18403.63
681.39	18434.06
681.52	18068.94
681.66	17977.65
681.80	17907.44
681.94	17724.88
682.07	18068.94
682.21	17921.48
682.35	17680.41
682.49	17930.84
682.62	17919.14
682.76	17584.44
682.90	17495.50
683.04	17549.34
683.17	17535.29
683.31	17703.81
683.45	17717.86
683.59	17596.15
683.72	17334.01
683.86	17692.11
684.00	17231.02
684.13	17202.94
684.27	17165.49
684.41	16924.41
684.55	16901.01
684.68	17011.01
684.82	16945.48
684.96	17018.04
685.09	16844.84
685.23	16823.77
685.37	16854.20
685.50	16989.95
685.64	16837.81
685.78	16585.04
685.91	16526.52
686.05	16872.92
686.19	16610.78
686.32	16741.85
686.46	16233.96
686.60	16414.18
686.73	16248.00
686.87	15985.86
687.01	16135.65
687.14	15838.41
687.28	15843.09
687.42	15836.06
687.55	15857.13
687.69	15786.91
687.82	15840.75
687.96	15885.22
688.10	15634.78
688.23	15552.86
688.37	15882.88
688.50	15798.62
688.64	15585.63
688.78	15517.75
688.91	15314.13
689.05	15461.58
689.18	15492.01
689.32	15192.42
689.46	15218.16
689.59	15342.21
689.73	15211.14
689.86	14977.09
690.00	15007.52
690.13	15248.59
690.27	14806.23
690.41	14991.13
690.54	14829.63
690.68	14822.61
690.81	15044.96
690.95	14801.55
691.08	14703.25
691.22	14761.76
691.35	14670.48
691.49	14441.11
691.62	14363.87
691.76	14319.40
691.89	14167.26
692.03	14300.67
692.16	14183.65
692.30	14059.60
692.43	14129.81
692.57	13657.03
692.70	13841.93
692.84	13870.01
692.97	13760.01
693.11	13862.99
693.24	13919.17
693.38	13642.98
693.51	13788.10
693.65	13699.16
693.78	13675.75
693.92	13647.66
694.05	13603.19
694.19	13418.29
694.32	13303.60
694.45	13266.16
694.59	12987.63
694.72	13099.98
694.86	12877.63
694.99	12933.80
695.13	13025.08
695.26	12966.57
695.39	12833.16
695.53	12952.52
695.66	12765.28
695.80	12713.79
695.93	12823.80
696.07	12606.13
696.20	12826.14
696.33	12587.40
696.47	12482.08
696.60	12393.14
696.73	12325.26
696.87	12512.50
697.00	12397.82
697.14	12208.23
697.27	12077.16
697.40	12248.02
697.54	12116.95
697.67	11960.14
697.80	12053.76
697.94	11861.84
698.07	11824.39
698.21	12081.85
698.34	11721.40
698.47	11920.35
698.61	11932.05
698.74	11882.90
698.87	11833.75
699.01	11587.99
699.14	11616.08
699.27	11606.72
699.40	11513.10
699.54	11463.94
699.67	11499.05
699.80	11183.08
699.94	11199.46
700.07	11154.99
700.20	11143.29
700.34	10942.00
700.47	11190.10
700.60	11307.13
700.73	11206.48
700.87	11012.22
701.00	10888.17
701.13	10806.25
701.26	10949.03
701.40	11035.63
701.53	10883.49
701.66	10860.09
701.79	10787.53
701.93	10520.71
702.06	10642.42
702.19	10450.49
702.32	10448.15
702.46	10328.78
702.59	10408.36
702.72	10141.54
702.85	10157.92
702.99	10129.84
703.12	10263.25
703.25	10214.10
703.38	10167.29
703.51	10120.48
703.65	10115.80
703.78	9989.41
703.91	10188.35
704.04	9994.09
704.17	10066.64
704.31	9722.59
704.44	9853.66
704.57	9898.13
704.70	9640.67
704.83	9570.45
704.96	9542.36
705.10	9479.17
705.23	9544.70
>>>>>End Processed Spectral Data<<<<<
