SpectraSuite Data File
++++++++++++++++++++++++++++++++++++
Date: Fri Oct 18 13:58:18 GMT-05:00 2013
User: bianchi
Dark Spectrum Present: No
Reference Spectrum Present: No
Number of Sampled Component Spectra: 1
Spectrometers: USB2+H05261
Integration Time (usec): 50000 (USB2+H05261)
Spectra Averaged: 1 (USB2+H05261)
Boxcar Smoothing: 0 (USB2+H05261)
Correct for Electrical Dark: No (USB2+H05261)
Strobe/Lamp Enabled: No (USB2+H05261)
Correct for Detector Non-linearity: No (USB2+H05261)
Correct for Stray Light: No (USB2+H05261)
Number of Pixels in Processed Spectrum: 2048
>>>>>Begin Processed Spectral Data<<<<<
365.73	0.00
365.92	0.00
366.12	0.00
366.32	0.00
366.52	0.00
366.72	0.00
366.91	0.00
367.11	0.00
367.31	0.00
367.51	0.00
367.70	0.00
367.90	0.00
368.10	0.00
368.30	0.00
368.49	0.00
368.69	0.00
368.89	0.00
369.09	0.00
369.28	0.00
369.48	0.00
369.68	0.00
369.87	0.00
370.07	0.00
370.27	0.00
370.47	4.68
370.66	84.26
370.86	126.39
371.06	65.54
371.25	140.43
371.45	145.11
371.65	194.26
371.84	145.11
372.04	112.35
372.24	159.16
372.44	184.90
372.63	189.58
372.83	208.31
373.03	227.03
373.22	210.65
373.42	220.01
373.62	224.69
373.81	229.37
374.01	208.31
374.21	252.78
374.40	222.35
374.60	294.91
374.79	299.59
374.99	238.73
375.19	217.67
375.38	238.73
375.58	224.69
375.78	278.52
375.97	250.44
376.17	294.91
376.37	194.26
376.56	234.05
376.76	318.31
376.95	264.48
377.15	241.08
377.35	203.63
377.54	276.18
377.74	215.33
377.93	250.44
378.13	220.01
378.33	259.80
378.52	285.55
378.72	351.08
378.91	264.48
379.11	330.02
379.31	332.36
379.50	283.20
379.70	276.18
379.89	325.33
380.09	278.52
380.28	367.46
380.48	285.55
380.68	248.10
380.87	341.72
381.07	306.61
381.26	341.72
381.46	287.89
381.65	390.87
381.85	294.91
382.04	264.48
382.24	360.44
382.43	372.15
382.63	379.17
382.83	327.68
383.02	360.44
383.22	437.68
383.41	355.76
383.61	390.87
383.80	334.70
384.00	376.83
384.19	397.89
384.39	308.95
384.58	344.06
384.78	437.68
384.97	374.49
385.17	358.10
385.36	360.44
385.56	341.72
385.75	381.51
385.95	287.89
386.14	458.74
386.34	390.87
386.53	362.78
386.72	472.79
386.92	416.62
387.11	425.98
387.31	372.15
387.50	465.77
387.70	376.83
387.89	430.66
388.09	470.45
388.28	461.09
388.48	447.04
388.67	435.34
388.86	423.64
389.06	390.87
389.25	430.66
389.45	472.79
389.64	379.17
389.84	463.43
390.03	442.36
390.22	468.11
390.42	423.64
390.61	491.51
390.81	491.51
391.00	451.72
391.19	442.36
391.39	465.77
391.58	465.77
391.78	524.28
391.97	493.85
392.16	528.96
392.36	456.40
392.55	503.22
392.75	545.34
392.94	545.34
393.13	580.45
393.33	545.34
393.52	580.45
393.71	578.11
393.91	589.82
394.10	587.47
394.29	566.41
394.49	557.05
394.68	617.90
394.88	608.54
395.07	627.26
395.26	655.35
395.46	608.54
395.65	573.43
395.84	475.13
396.04	657.69
396.23	564.07
396.42	615.56
396.62	669.39
396.81	615.56
397.00	638.97
397.19	671.73
397.39	669.39
397.58	711.52
397.77	547.69
397.97	734.93
398.16	725.57
398.35	692.80
398.55	620.24
398.74	730.25
398.93	681.10
399.12	697.48
399.32	685.78
399.51	692.80
399.70	753.65
399.90	674.07
400.09	706.84
400.28	786.42
400.47	805.14
400.67	821.53
400.86	819.19
401.05	765.36
401.24	767.70
401.44	812.17
401.63	889.40
401.82	856.64
402.01	795.78
402.21	798.12
402.40	786.42
402.59	826.21
402.78	917.49
402.97	854.30
403.17	809.83
403.36	795.78
403.55	915.15
403.74	828.55
403.93	901.11
404.13	917.49
404.32	788.76
404.51	854.30
404.70	851.96
404.89	880.04
405.09	952.60
405.28	919.83
405.47	919.83
405.66	917.49
405.85	971.32
406.05	994.73
406.24	1008.77
406.43	961.96
406.62	1053.24
406.81	1008.77
407.00	1008.77
407.20	997.07
407.39	1013.45
407.58	1039.20
407.77	1008.77
407.96	1043.88
408.15	1043.88
408.34	1025.15
408.54	1132.82
408.73	1027.50
408.92	1069.62
409.11	1107.07
409.30	1151.54
409.49	1170.27
409.68	1142.18
409.87	1149.20
410.07	1210.06
410.26	1137.50
410.45	1170.27
410.64	1109.41
410.83	1275.59
411.02	1252.19
411.21	1287.29
411.40	1303.68
411.59	1287.29
411.78	1277.93
411.98	1275.59
412.17	1235.80
412.36	1362.19
412.55	1334.11
412.74	1357.51
412.93	1289.64
413.12	1387.94
413.31	1390.28
413.50	1413.68
413.69	1383.26
413.88	1359.85
414.07	1345.81
414.26	1469.86
414.45	1530.71
414.64	1479.22
414.83	1591.56
415.02	1526.03
415.22	1453.47
415.41	1535.39
415.60	1542.41
415.79	1556.46
415.98	1603.27
416.17	1556.46
416.36	1565.82
416.55	1666.46
416.74	1561.14
416.93	1621.99
417.12	1533.05
417.31	1654.76
417.50	1661.78
417.69	1776.47
417.88	1732.00
418.07	1671.14
418.26	1626.67
418.45	1785.83
418.64	1781.15
418.83	1825.62
419.02	1764.76
419.21	1884.13
419.39	1760.08
419.58	1802.21
419.77	1767.10
419.96	1774.13
420.15	1834.98
420.34	1891.15
420.53	1858.39
420.72	1846.68
420.91	1900.52
421.10	1907.54
421.29	1921.58
421.48	1839.66
421.67	1952.01
421.86	1975.41
422.05	2005.84
422.24	1905.20
422.43	2069.03
422.61	1849.02
422.80	2026.90
422.99	1860.73
423.18	2033.93
423.37	1998.82
423.56	2019.88
423.75	2017.54
423.94	1926.26
424.13	1806.89
424.32	1942.64
424.50	1947.33
424.69	2101.80
424.88	2087.76
425.07	1968.39
425.26	2050.31
425.45	2029.24
425.64	2024.56
425.83	2015.20
426.01	2057.33
426.20	2017.54
426.39	2062.01
426.58	1956.69
426.77	2036.27
426.96	1994.14
427.15	2097.12
427.33	2097.12
427.52	2092.44
427.71	2026.90
427.90	2174.36
428.09	2136.91
428.28	2155.63
428.46	2008.18
428.65	2228.19
428.84	2153.29
429.03	2202.44
429.22	2197.76
429.40	2249.25
429.59	2265.64
429.78	2141.59
429.97	2076.06
430.16	2251.60
430.34	2270.32
430.53	2188.40
430.72	2363.94
430.91	2342.88
431.10	2232.87
431.28	2427.14
431.47	2359.26
431.66	2457.56
431.85	2420.11
432.03	2389.69
432.22	2495.01
432.41	2298.41
432.60	2483.31
432.79	2476.29
432.97	2490.33
433.16	2523.10
433.35	2436.50
433.54	2513.74
433.72	2511.39
433.91	2438.84
434.10	2525.44
434.28	2490.33
434.47	2516.08
434.66	2616.72
434.85	2661.19
435.03	2640.12
435.22	2609.70
435.41	2635.44
435.59	2483.31
435.78	2495.01
435.97	2600.34
436.16	2710.34
436.34	2668.21
436.53	2724.38
436.72	2810.98
436.90	2633.10
437.09	2712.68
437.28	2626.08
437.46	2712.68
437.65	2670.55
437.84	2754.81
438.02	2708.00
438.21	2789.92
438.40	2675.23
438.58	2712.68
438.77	2862.48
438.96	2799.28
439.14	2853.11
439.33	2871.84
439.52	3054.40
439.70	3016.95
439.89	3023.97
440.08	2965.46
440.26	2963.12
440.45	2988.86
440.63	3096.53
440.82	3098.87
441.01	3103.55
441.19	3197.17
441.38	3265.05
441.57	3199.51
441.75	3283.77
441.94	3215.90
442.12	3279.09
442.31	3325.90
442.50	3185.47
442.68	3323.56
442.87	3325.90
443.05	3293.13
443.24	3342.28
443.43	3363.35
443.61	3304.84
443.80	3421.86
443.98	3328.24
444.17	3155.04
444.35	3590.38
444.54	3382.07
444.73	3386.76
444.91	3442.93
445.10	3461.65
445.28	3255.69
445.47	3449.95
445.65	3396.12
445.84	3414.84
446.02	3501.44
446.21	3520.17
446.39	3368.03
446.58	3417.18
446.77	3522.51
446.95	3393.78
447.14	3485.06
447.32	3606.77
447.51	3466.33
447.69	3510.80
447.88	3557.61
448.06	3438.25
448.25	3522.51
448.43	3414.84
448.62	3440.59
448.80	3623.15
448.99	3412.50
449.17	3566.98
449.36	3508.46
449.54	3648.90
449.73	3648.90
449.91	3698.05
450.10	3681.66
450.28	3740.18
450.46	3693.37
450.65	3777.62
450.83	3735.50
451.02	3763.58
451.20	3742.52
451.39	3789.33
451.57	3833.80
451.76	3634.85
451.94	3786.99
452.13	3892.31
452.31	3925.08
452.49	3749.54
452.68	3978.91
452.86	3904.01
453.05	3880.61
453.23	3967.21
453.42	3826.78
453.60	3796.35
453.78	3946.14
453.97	3866.56
454.15	3922.74
454.34	3880.61
454.52	4021.04
454.70	4058.49
454.89	4051.47
455.07	4016.36
455.26	4004.66
455.44	4065.51
455.62	4007.00
455.81	4114.66
455.99	4243.39
456.17	4093.60
456.36	4098.28
456.54	4170.83
456.73	4287.86
456.91	4217.65
457.09	4341.69
457.28	4458.72
457.46	4215.30
457.64	4322.97
457.83	4264.46
458.01	4325.31
458.19	4311.27
458.38	4348.72
458.56	4297.22
458.74	4533.62
458.93	4425.95
459.11	4367.44
459.29	4374.46
459.48	4435.32
459.66	4437.66
459.84	4484.47
460.03	4660.01
460.21	4531.28
460.39	4568.73
460.57	4528.94
460.76	4669.37
460.94	4587.45
461.12	4638.94
461.31	4599.15
461.49	4524.26
461.67	4641.28
461.85	4709.16
462.04	4711.50
462.22	4786.40
462.40	4823.84
462.59	4816.82
462.77	4702.14
462.95	4800.44
463.13	4688.09
463.32	4891.72
463.50	4798.10
463.68	4807.46
463.86	4833.21
464.05	4898.74
464.23	4805.12
464.41	4910.44
464.59	4725.54
464.78	4987.68
464.96	4908.10
465.14	4844.91
465.32	4842.57
465.50	5069.60
465.69	4940.87
465.87	4931.51
466.05	4901.08
466.23	4980.66
466.41	5020.45
466.60	5121.09
466.78	5055.56
466.96	4973.64
467.14	5104.71
467.32	5050.88
467.51	5132.79
467.69	4933.85
467.87	5060.24
468.05	5100.03
468.23	5069.60
468.41	5320.04
468.60	5036.83
468.78	5259.18
468.96	5247.48
469.14	5259.18
469.32	5378.55
469.50	5069.60
469.69	5280.25
469.87	5437.06
470.05	5392.59
470.23	5399.62
470.41	5401.96
470.59	5313.02
470.77	5483.88
470.95	5408.98
471.14	5490.90
471.32	5472.17
471.50	5612.60
471.68	5432.38
471.86	5575.16
472.04	5551.75
472.22	5874.74
472.40	5631.33
472.58	5839.64
472.77	5678.14
472.95	5699.20
473.13	5984.75
473.31	5813.89
473.49	5785.80
473.67	5678.14
473.85	5748.36
474.03	6029.22
474.21	6005.81
474.39	6108.80
474.57	6129.86
474.75	6080.71
474.93	5961.34
475.12	5991.77
475.30	6143.91
475.48	6188.38
475.66	6153.27
475.84	6160.29
476.02	6324.13
476.20	6143.91
476.38	6485.62
476.56	6466.90
476.74	6497.33
476.92	6621.38
477.10	6443.49
477.28	6647.12
477.46	6558.18
477.64	6569.88
477.82	6747.76
478.00	6850.75
478.18	6895.22
478.36	6890.54
478.54	6970.12
478.72	6958.41
478.90	7124.59
479.08	7204.17
479.26	7159.70
479.44	7243.96
479.62	7447.58
479.80	7365.67
479.98	7398.43
480.16	7442.90
480.34	7461.63
480.52	7358.64
480.70	7726.11
480.88	7681.64
481.06	7623.12
481.24	7536.52
481.41	7705.04
481.59	8011.65
481.77	7976.55
481.95	7768.24
482.13	8032.72
482.31	7992.93
482.49	8280.82
482.67	8320.60
482.85	8470.40
483.03	8423.59
483.21	8578.06
483.39	8606.15
483.57	8444.65
483.74	8585.08
483.92	8753.60
484.10	8636.58
484.28	9128.09
484.46	9027.45
484.64	9036.81
484.82	9076.60
485.00	9053.19
485.18	9200.65
485.35	9528.32
485.53	9439.38
485.71	9446.40
485.89	9390.23
486.07	9626.62
486.25	9657.05
486.43	9593.86
486.61	9614.92
486.78	9827.91
486.96	9799.82
487.14	10186.01
487.32	9942.60
487.50	10249.21
487.68	10225.80
487.85	10338.15
488.03	10387.30
488.21	10656.46
488.39	10590.92
488.57	10862.43
488.75	10644.76
488.92	10733.70
489.10	10541.77
489.28	10923.28
489.46	11012.22
489.64	10869.45
489.81	11222.87
489.99	11288.40
490.17	11456.92
490.35	11428.84
490.53	11227.55
490.70	11538.84
490.88	11531.82
491.06	11894.60
491.24	11772.89
491.41	11758.85
491.59	11880.56
491.77	11868.86
491.95	11889.92
492.13	12241.00
492.30	12140.36
492.48	12123.98
492.66	12219.94
492.84	12341.64
493.01	12306.54
493.19	12547.61
493.37	12758.26
493.54	12685.70
493.72	12596.76
493.90	12594.42
494.08	12940.82
494.25	13006.36
494.43	13099.98
494.61	13036.78
494.79	13217.01
494.96	13266.16
495.14	13270.84
495.32	13324.67
495.49	13427.65
495.67	13757.67
495.85	13640.64
496.02	13757.67
496.20	13764.69
496.38	13886.40
496.55	13954.27
496.73	14279.61
496.91	14239.82
497.09	14003.43
497.26	14319.40
497.44	14176.62
497.62	14277.27
497.79	14654.09
497.97	14319.40
498.14	14668.14
498.32	14738.35
498.50	14881.13
498.67	15047.30
498.85	14520.68
499.03	15094.11
499.20	14965.39
499.38	14885.81
499.56	15066.03
499.73	15262.63
499.91	15379.66
500.08	15349.23
500.26	15197.10
500.44	15396.04
500.61	15253.27
500.79	15557.54
500.97	15749.46
501.14	15672.23
501.32	15704.99
501.49	15791.59
501.67	15953.09
501.84	16046.71
502.02	15957.77
502.20	16039.69
502.37	16159.06
502.55	16002.24
502.72	16063.10
502.90	16212.89
503.07	16259.70
503.25	16210.55
503.43	16252.68
503.60	16435.24
503.78	16552.27
503.95	16580.36
504.13	16636.53
504.30	16437.58
504.48	16631.85
504.65	16807.39
504.83	16566.31
505.01	16795.68
505.18	16863.56
505.36	16964.20
505.53	16901.01
505.71	16800.37
505.88	16891.65
506.06	17062.51
506.23	17118.68
506.41	16943.14
506.58	17467.42
506.76	17392.52
506.93	17483.80
507.11	17369.12
507.28	17671.04
507.46	17493.16
507.63	17575.08
507.81	17701.47
507.98	17612.53
508.16	17921.48
508.33	17813.82
508.50	17481.46
508.68	17626.57
508.85	18153.20
509.03	17987.02
509.20	18146.17
509.38	18052.55
509.55	18263.20
509.73	18134.47
509.90	17994.04
510.08	18169.58
510.25	18544.06
510.42	18717.26
510.60	18853.02
510.77	18616.62
510.95	18845.99
511.12	18834.29
511.30	18625.98
511.47	18698.54
511.64	18782.80
511.82	18850.67
511.99	19000.47
512.17	18927.91
512.34	18904.51
512.51	19194.73
512.69	19178.35
512.86	19185.37
513.04	19276.65
513.21	19398.36
513.38	19161.97
513.56	19152.60
513.73	19412.40
513.90	19377.30
514.08	19452.19
514.25	19983.49
514.43	19915.62
514.60	19672.20
514.77	19932.00
514.95	19683.91
515.12	19461.55
515.29	19686.25
515.47	19896.89
515.64	20177.76
515.81	19960.09
515.99	20044.35
516.16	20198.82
516.33	19976.47
516.51	20123.93
516.68	20418.83
516.85	20191.80
517.03	20657.57
517.20	20322.87
517.37	20477.35
517.54	20563.95
517.72	20594.37
517.89	20549.90
518.06	20566.29
518.24	20484.37
518.41	20601.40
518.58	20954.82
518.75	20669.27
518.93	20957.16
519.10	20575.65
519.27	21102.27
519.45	21008.65
519.62	21048.44
519.79	21003.97
519.96	20802.68
520.14	21312.92
520.31	21373.77
520.48	20929.07
520.65	21263.77
520.83	21319.94
521.00	21380.79
521.17	21369.09
521.34	21282.49
521.52	21443.99
521.69	21448.67
521.86	21446.33
522.03	21717.83
522.20	21673.36
522.38	21933.16
522.55	21774.00
522.72	21867.63
522.89	21898.05
523.07	22115.72
523.24	21827.84
523.41	22113.38
523.58	22082.95
523.75	22232.75
523.92	21984.65
524.10	22314.67
524.27	22551.06
524.44	22345.09
524.61	22562.76
524.78	22394.25
524.96	22309.99
525.13	22537.02
525.30	22754.69
525.47	22544.04
525.64	22679.79
525.81	22370.84
525.98	22869.37
526.16	22485.53
526.33	22647.02
526.50	22899.80
526.67	22789.80
526.84	22710.22
527.01	22757.03
527.18	22979.38
527.36	23061.30
527.53	22927.89
527.70	23140.88
527.87	23393.65
528.04	23388.97
528.21	22808.52
528.38	22984.06
528.55	23379.61
528.72	23304.71
528.89	23370.25
529.07	23171.30
529.24	23339.82
529.41	23133.86
529.58	23641.75
529.75	23580.90
529.92	23686.22
530.09	23372.59
530.26	23594.94
530.43	23569.19
530.60	23552.81
530.77	23388.97
530.94	23735.37
531.11	23723.67
531.28	23559.83
531.46	23550.47
531.63	23892.19
531.80	24109.86
531.97	24159.01
532.14	23807.93
532.31	24168.37
532.48	24053.69
532.65	23852.40
532.82	24016.24
532.99	24194.12
533.16	23861.76
533.33	24641.16
533.50	24636.48
533.67	24592.01
533.84	24353.27
534.01	24189.44
534.18	24283.06
534.35	24400.08
534.52	24252.63
534.69	24620.10
534.86	24655.20
535.03	24313.48
535.20	24510.09
535.37	24545.20
535.54	24589.67
535.71	24961.81
535.88	24699.67
536.05	24439.87
536.22	24910.32
536.38	25039.05
536.55	25053.09
536.72	24917.34
536.89	24643.50
537.06	24851.81
537.23	24987.56
537.40	24765.21
537.57	25039.05
537.74	24758.19
537.91	25458.01
538.08	25254.38
538.25	24720.74
538.42	25113.95
538.59	25369.07
538.75	24907.98
538.92	25532.90
539.09	25230.98
539.26	25359.70
539.43	25392.47
539.60	25565.67
539.77	25198.21
539.94	25816.11
540.11	25432.26
540.28	25523.54
540.44	25280.13
540.61	25549.29
540.78	25362.04
540.95	25710.78
541.12	25355.02
541.29	25722.49
541.46	25195.87
541.62	25315.23
541.79	25671.00
541.96	25504.82
542.13	25481.41
542.30	25799.73
542.47	26134.42
542.63	26075.91
542.80	25776.32
542.97	26174.21
543.14	26707.85
543.31	26118.04
543.48	26324.01
543.64	26157.83
543.81	26361.45
543.98	26602.53
544.15	26565.08
544.32	26686.79
544.48	26394.22
544.65	26183.57
544.82	26834.24
544.99	26197.62
545.16	26391.88
545.32	26286.56
545.49	26993.40
545.66	26855.31
545.83	26960.63
546.00	26738.28
546.16	26698.49
546.33	26340.39
546.50	26532.31
546.67	26300.60
546.83	26333.37
547.00	26749.98
547.17	26836.58
547.34	26967.65
547.50	27204.05
547.67	27215.75
547.84	27229.79
548.00	27136.17
548.17	27377.25
548.34	27065.96
548.51	27204.05
548.67	27140.85
548.84	27431.08
549.01	27213.41
549.18	27110.43
549.34	27023.83
549.51	27161.92
549.68	27321.07
549.84	27353.84
550.01	27080.00
550.18	27154.90
550.34	27435.76
550.51	27454.48
550.68	27674.49
550.84	27192.34
551.01	27683.86
551.18	27653.43
551.34	27164.26
551.51	27538.74
551.68	27625.34
551.84	27468.53
552.01	27388.95
552.18	27604.28
552.34	27402.99
552.51	27983.44
552.68	27901.53
552.84	27845.35
553.01	27845.35
553.18	27861.74
553.34	28011.53
553.51	27819.61
553.67	27997.49
553.84	28053.66
554.01	27407.67
554.17	27662.79
554.34	28114.52
554.51	28105.15
554.67	28411.76
554.84	27892.16
555.00	28327.50
555.17	28280.69
555.33	28041.96
555.50	28350.91
555.67	27938.97
555.83	28060.68
556.00	28135.58
556.16	28149.62
556.33	28056.00
556.50	28156.64
556.66	28556.88
556.83	28191.75
556.99	28301.76
557.16	28765.18
557.32	28381.34
557.49	28641.14
557.65	27819.61
557.82	28280.69
557.98	27978.76
558.15	28526.45
558.32	28456.23
558.48	28519.43
558.65	28776.89
558.81	28814.34
558.98	28369.63
559.14	28397.72
559.31	28472.62
559.47	28570.92
559.64	28570.92
559.80	28568.58
559.97	28556.88
560.13	28219.84
560.30	28613.05
560.46	28414.10
560.63	28790.93
560.79	28718.37
560.96	28730.08
561.12	28573.26
561.29	28898.59
561.45	28496.02
561.61	28854.12
561.78	28797.95
561.94	28559.22
562.11	28849.44
562.27	28769.86
562.44	28690.29
562.60	28898.59
562.77	28912.64
562.93	28741.78
563.10	29127.97
563.26	28739.44
563.42	28973.49
563.59	28755.82
563.75	29055.41
563.92	28730.08
564.08	28884.55
564.24	28662.20
564.41	29104.56
564.57	28910.30
564.74	28917.32
564.90	28725.39
565.07	29191.16
565.23	29020.30
565.39	29291.80
565.56	29113.92
565.72	28865.83
565.88	29343.30
566.05	28994.56
566.21	29273.08
566.38	29249.67
566.54	29235.63
566.70	29486.07
566.87	29415.85
567.03	29441.60
567.19	29844.17
567.36	29493.09
567.52	29308.19
567.68	29188.82
567.85	29268.40
568.01	29605.44
568.17	29062.43
568.34	29418.19
568.50	29607.78
568.66	29350.32
568.83	29357.34
568.99	29376.06
569.15	29284.78
569.32	29567.99
569.48	29048.39
569.64	29099.88
569.81	29556.28
569.97	29556.28
570.13	29432.24
570.30	29088.18
570.46	29249.67
570.62	28940.72
570.78	29167.76
570.95	29064.77
571.11	28875.19
571.27	29280.10
571.43	29181.80
571.60	29268.40
571.76	29280.10
571.92	29455.64
572.09	29205.20
572.25	29591.39
572.41	29535.22
572.57	29404.15
572.74	29621.82
572.90	29460.32
573.06	28975.83
573.22	29076.48
573.38	29504.79
573.55	29600.76
573.71	29947.15
573.87	29635.86
574.03	29308.19
574.20	29497.77
574.36	29319.89
574.52	29546.92
574.68	29439.26
574.84	29408.83
575.01	29745.87
575.17	29497.77
575.33	29476.71
575.49	29102.22
575.65	29504.79
575.82	29560.97
575.98	29750.55
576.14	29549.26
576.30	29663.95
576.46	29476.71
576.62	29560.97
576.79	29591.39
576.95	30059.50
577.11	29556.28
577.27	29565.65
577.43	30038.44
577.59	29567.99
577.75	29380.74
577.92	29717.78
578.08	29310.53
578.24	29448.62
578.40	29481.39
578.56	29743.53
578.72	29909.71
578.88	29972.90
579.04	29696.72
579.21	30012.69
579.37	29989.28
579.53	29806.72
579.69	29893.32
579.85	29776.30
580.01	29898.00
580.17	29703.74
580.33	30113.33
580.49	29809.06
580.65	29799.70
580.82	30199.93
580.98	29673.31
581.14	29776.30
581.30	29633.52
581.46	29537.56
581.62	29659.27
581.78	29916.73
581.94	29741.19
582.10	29654.59
582.26	29663.95
582.42	30115.67
582.58	29647.57
582.74	29696.72
582.90	30199.93
583.06	29633.52
583.22	29586.71
583.38	29656.93
583.54	29750.55
583.70	29624.16
583.86	29886.30
584.02	29605.44
584.18	30251.42
584.34	30192.91
584.50	30054.82
584.66	29916.73
584.82	29336.27
584.98	29795.02
585.14	30040.78
585.30	29773.95
585.46	29635.86
585.62	29907.37
585.78	29823.11
585.94	29689.70
586.10	29666.29
586.26	30000.99
586.42	29881.62
586.58	29881.62
586.74	29827.79
586.90	29605.44
587.06	29795.02
587.22	29729.48
587.38	29916.73
587.54	29982.26
587.70	29975.24
587.86	29979.92
588.02	30333.34
588.18	30118.01
588.34	30448.03
588.49	29790.34
588.65	29778.64
588.81	29823.11
588.97	29586.71
589.13	29912.05
589.29	30164.82
589.45	30270.15
589.61	30029.07
589.77	30398.88
589.93	30347.39
590.08	30204.61
590.24	29907.37
590.40	30216.32
590.56	30106.31
590.72	30160.14
590.88	29656.93
591.04	29853.53
591.20	29970.56
591.35	30232.70
591.51	30543.99
591.67	30480.80
591.83	30382.49
591.99	30012.69
592.15	30389.52
592.31	29984.60
592.46	29883.96
592.62	30424.62
592.78	30188.23
592.94	29706.08
593.10	30286.53
593.26	30438.67
593.41	30302.92
593.57	30335.68
593.73	30125.04
593.89	30279.51
594.05	30008.01
594.20	30309.94
594.36	30345.05
594.52	29876.94
594.68	30305.26
594.84	30052.48
594.99	30213.98
595.15	30340.36
595.31	30443.35
595.47	30464.41
595.62	30574.42
595.78	30237.38
595.94	30061.84
596.10	30801.45
596.25	30340.36
596.41	30274.83
596.57	29736.51
596.73	30478.46
596.88	30345.05
597.04	30621.23
597.20	30668.04
597.36	30939.54
597.51	30700.81
597.67	30464.41
597.83	30668.04
597.99	30307.60
598.14	30237.38
598.30	30450.37
598.46	30398.88
598.61	30522.93
598.77	30551.01
598.93	30581.44
599.09	30670.38
599.24	30899.75
599.40	30764.00
599.56	30607.19
599.71	30616.55
599.87	30433.99
600.03	30340.36
600.18	30221.00
600.34	30213.98
600.50	30188.23
600.65	30501.86
600.81	30759.32
600.97	30764.00
601.12	30700.81
601.28	30775.70
601.44	30593.14
601.59	30761.66
601.75	30448.03
601.91	30401.22
602.06	30340.36
602.22	30448.03
602.37	30368.45
602.53	30380.15
602.69	30759.32
602.84	30604.84
603.00	30686.76
603.16	30370.79
603.31	30401.22
603.47	30553.35
603.62	30375.47
603.78	30656.34
603.94	30361.43
604.09	30646.97
604.25	30342.70
604.40	30228.02
604.56	30394.20
604.71	30422.28
604.87	30415.26
605.03	30649.32
605.18	30478.46
605.34	30256.11
605.49	30417.60
605.65	30141.42
605.80	29947.15
605.96	30448.03
606.12	30588.46
606.27	30146.10
606.43	30597.82
606.58	30916.14
606.74	30298.23
606.89	30136.74
607.05	30522.93
607.20	30689.10
607.36	30288.87
607.51	30265.47
607.67	30125.04
607.82	30375.47
607.98	29998.65
608.13	30558.03
608.29	30047.80
608.44	30026.73
608.60	30148.44
608.75	30513.56
608.91	29832.47
609.06	30125.04
609.22	30078.22
609.37	29975.24
609.53	30307.60
609.68	30295.89
609.84	30188.23
609.99	30408.24
610.15	29968.22
610.30	30445.69
610.46	29848.85
610.61	30455.05
610.76	30185.89
610.92	30600.16
611.07	30520.59
611.23	29979.92
611.38	30150.78
611.54	29886.30
611.69	30096.95
611.84	29820.77
612.00	30139.08
612.15	30061.84
612.31	30073.54
612.46	30073.54
612.62	29940.13
612.77	29846.51
612.92	30263.13
613.08	30417.60
613.23	30316.96
613.39	29649.91
613.54	29511.81
613.69	29837.15
613.85	29811.40
614.00	30314.62
614.15	29734.17
614.31	29989.28
614.46	29762.25
614.62	30260.79
614.77	29914.39
614.92	29729.48
615.08	29975.24
615.23	29862.90
615.38	29984.60
615.54	29474.37
615.69	29724.80
615.84	29268.40
616.00	29600.76
616.15	29418.19
616.30	29755.23
616.46	29743.53
616.61	29443.94
616.76	30089.93
616.92	29783.32
617.07	29886.30
617.22	29322.23
617.37	29441.60
617.53	29720.12
617.68	29198.18
617.83	29603.10
617.99	29310.53
618.14	29528.20
618.29	29642.88
618.45	29521.18
618.60	29530.54
618.75	29537.56
618.90	29277.76
619.06	29387.77
619.21	29661.61
619.36	29102.22
619.51	29130.31
619.67	29446.28
619.82	29069.45
619.97	29415.85
620.12	29308.19
620.28	29017.96
620.43	29149.03
620.58	29149.03
620.73	29144.35
620.89	29261.38
621.04	29490.75
621.19	29184.14
621.34	29483.73
621.49	29057.75
621.65	29345.64
621.80	29032.00
621.95	29113.92
622.10	28917.32
622.25	28676.24
622.41	28907.96
622.56	29015.62
622.71	29198.18
622.86	29109.24
623.01	29209.89
623.16	29006.26
623.32	28706.67
623.47	29149.03
623.62	28725.39
623.77	29270.74
623.92	28931.36
624.07	28685.61
624.23	28624.75
624.38	29153.71
624.53	28809.65
624.68	28737.10
624.83	28807.31
624.98	29048.39
625.13	29261.38
625.29	28804.97
625.44	28575.60
625.59	28634.11
625.74	28226.86
625.89	28566.24
626.04	28643.48
626.19	28463.25
626.34	28622.41
626.49	28943.06
626.65	28762.84
626.80	28481.98
626.95	28652.84
627.10	28854.12
627.25	28507.72
627.40	28594.32
627.55	28177.71
627.70	28299.42
627.85	28046.64
628.00	28254.95
628.15	28718.37
628.30	28341.55
628.45	28287.71
628.60	28156.64
628.76	28332.18
628.91	28383.68
629.06	27981.10
629.21	28364.95
629.36	28666.88
629.51	28297.08
629.66	28362.61
629.81	28346.23
629.96	28254.95
630.11	28327.50
630.26	27971.74
630.41	27988.13
630.56	27967.06
630.71	27880.46
630.86	28053.66
631.01	28407.08
631.16	28044.30
631.31	27892.16
631.46	28236.22
631.61	28180.05
631.76	28371.97
631.91	27630.02
632.06	28053.66
632.21	27765.78
632.36	28219.84
632.51	27583.21
632.66	27655.77
632.81	27707.26
632.96	27938.97
633.10	27892.16
633.25	28065.36
633.40	27950.68
633.55	27812.59
633.70	27728.33
633.85	27545.76
634.00	27751.73
634.15	27199.37
634.30	27847.69
634.45	27452.14
634.60	27662.79
634.75	27386.61
634.90	27630.02
635.05	27608.96
635.19	27859.40
635.34	27835.99
635.49	27543.42
635.64	27775.14
635.79	27721.30
635.94	27201.71
636.09	27253.20
636.24	27402.99
636.39	27110.43
636.53	27391.29
636.68	27690.88
636.83	27587.89
636.98	27681.52
637.13	27318.73
637.28	27594.92
637.43	27812.59
637.57	27314.05
637.72	27372.57
637.87	27122.13
638.02	27194.68
638.17	27087.02
638.32	27330.44
638.46	27042.55
638.61	27005.10
638.76	26817.86
638.91	26955.95
639.06	27548.11
639.20	27365.54
639.35	27344.48
639.50	27037.87
639.65	27494.27
639.80	27477.89
639.94	26984.04
640.09	27463.85
640.24	27215.75
640.39	27070.64
640.54	26955.95
640.68	26380.18
640.83	27154.90
640.98	26654.02
641.13	26745.30
641.27	26796.79
641.42	26759.34
641.57	26960.63
641.72	27068.30
641.86	27161.92
642.01	26644.66
642.16	26560.40
642.31	26946.59
642.45	26850.63
642.60	26700.83
642.75	26532.31
642.90	26583.80
643.04	26518.27
643.19	26464.44
643.34	26609.55
643.48	26672.74
643.63	26693.81
643.78	26515.93
643.93	26555.72
644.07	26618.91
644.22	26373.16
644.37	26520.61
644.51	26656.36
644.66	26457.42
644.81	26345.07
644.95	26375.50
645.10	26024.42
645.25	26125.06
645.39	25956.54
645.54	26448.05
645.69	26651.68
645.83	26160.17
645.98	26609.55
646.13	26452.73
646.27	26169.53
646.42	26015.05
646.57	26443.37
646.71	26281.88
646.86	26015.05
647.00	26209.32
647.15	26253.79
647.30	26146.12
647.44	25949.52
647.59	26553.38
647.74	26031.44
647.88	25970.58
648.03	26326.35
648.17	26499.55
648.32	26164.85
648.47	26160.17
648.61	26101.65
648.76	25933.14
648.90	26108.68
649.05	26024.42
649.20	26094.63
649.34	26160.17
649.49	25930.80
649.63	25659.29
649.78	25715.47
649.92	26050.16
650.07	26321.66
650.21	25825.47
650.36	26029.10
650.51	25872.28
650.65	25963.56
650.80	25846.54
650.94	25827.81
651.09	25392.47
651.23	25619.50
651.38	25879.30
651.52	25635.89
651.67	25539.93
651.81	25647.59
651.96	25652.27
652.10	25724.83
652.25	25844.20
652.39	26043.14
652.54	25748.23
652.68	25448.64
652.83	25549.29
652.97	25996.33
653.12	25759.94
653.26	25577.37
653.41	25914.41
653.55	25551.63
653.70	25614.82
653.84	25350.34
653.99	25436.94
654.13	25369.07
654.27	25273.10
654.42	25429.92
654.56	25476.73
654.71	25689.72
654.85	25455.67
655.00	25525.88
655.14	25600.78
655.29	25247.36
655.43	25479.07
655.57	25020.33
655.72	24830.74
655.86	25153.74
656.01	25036.71
656.15	25125.65
656.30	25259.06
656.44	25235.66
656.58	25006.28
656.73	25106.93
656.87	25090.54
657.01	25504.82
657.16	25106.93
657.30	25357.36
657.45	25062.46
657.59	25376.09
657.73	24987.56
657.88	24889.26
658.02	25160.76
658.16	24800.32
658.31	24725.42
658.45	25092.88
658.60	24451.58
658.74	24673.93
658.88	24931.39
659.03	24713.72
659.17	24702.01
659.31	24734.78
659.46	24767.55
659.60	24947.77
659.74	24648.18
659.89	24786.27
660.03	24797.98
660.17	24432.85
660.32	24751.17
660.46	24315.83
660.60	24456.26
660.74	24723.08
660.89	24528.81
661.03	24018.58
661.17	24383.70
661.32	24049.00
661.46	24531.15
661.60	24240.93
661.74	24283.06
661.89	24339.23
662.03	24592.01
662.17	24212.84
662.31	24088.79
662.46	24201.14
662.60	24070.07
662.74	23988.15
662.88	23866.44
663.03	23847.72
663.17	24144.97
663.31	23534.09
663.45	23805.59
663.60	23838.36
663.74	23899.21
663.88	23693.24
664.02	24121.56
664.17	23971.77
664.31	23871.12
664.45	23681.54
664.59	23990.49
664.73	23812.61
664.88	23735.37
665.02	23381.95
665.16	23353.87
665.30	23482.59
665.44	23426.42
665.59	23637.07
665.73	23599.62
665.87	23080.02
666.01	23227.48
666.15	23318.76
666.29	23426.42
666.44	23178.33
666.58	23257.90
666.72	23360.89
666.86	23278.97
667.00	23243.86
667.14	23019.17
667.28	23065.98
667.43	23033.21
667.57	22824.90
667.71	22862.35
667.85	23089.38
667.99	22766.39
668.13	22925.55
668.27	22637.66
668.41	23037.89
668.56	22780.43
668.70	22836.61
668.84	22923.21
668.98	22834.27
669.12	22813.20
669.26	22714.90
669.40	22501.91
669.54	22487.87
669.68	22436.38
669.82	22567.45
669.96	22176.58
670.10	22225.73
670.25	22789.80
670.39	22614.26
670.53	21799.75
670.67	22284.24
670.81	22211.68
670.95	21928.48
671.09	22307.65
671.23	22239.77
671.37	22267.86
671.51	22258.49
671.65	21848.90
671.79	22139.13
671.93	22010.40
672.07	21944.86
672.21	21642.93
672.35	21418.24
672.49	21764.64
672.63	21614.85
672.77	21743.58
672.91	21507.18
673.05	21539.95
673.19	21406.54
673.33	21465.05
673.47	21645.27
673.61	21556.33
673.75	21380.79
673.89	21640.59
674.03	21378.45
674.17	21252.06
674.31	21259.09
674.45	21408.88
674.59	21390.16
674.73	21338.66
674.87	20641.18
675.01	20823.75
675.15	20826.09
675.29	20900.98
675.43	21010.99
675.56	20678.63
675.70	20671.61
675.84	20989.92
675.98	20285.42
676.12	20793.32
676.26	20828.43
676.40	20823.75
676.54	20346.28
676.68	20360.32
676.82	20336.91
676.96	20397.77
677.10	20329.89
677.23	19924.98
677.37	20107.54
677.51	20053.71
677.65	20161.37
677.79	20166.06
677.93	19967.11
678.07	20013.92
678.21	19587.94
678.34	19711.99
678.48	19751.78
678.62	19606.67
678.76	19606.67
678.90	19344.53
679.04	19620.71
679.18	19644.12
679.31	19489.64
679.45	19337.51
679.59	19103.45
679.73	18993.45
679.87	19037.92
680.00	18981.74
680.14	18670.45
680.28	19227.50
680.42	18977.06
680.56	19082.39
680.70	19286.01
680.83	18974.72
680.97	18927.91
681.11	18714.92
681.25	18684.50
681.39	18317.03
681.52	18448.10
681.66	18483.21
681.80	18326.39
681.94	18237.45
682.07	18375.55
682.21	18387.25
682.35	18050.21
682.49	18127.45
682.62	18185.96
682.76	18188.30
682.90	18148.51
683.04	18111.07
683.17	17919.14
683.31	18104.04
683.45	18012.76
683.59	17516.57
683.72	17411.25
683.86	17589.13
684.00	17652.32
684.13	17565.72
684.27	17497.84
684.41	17270.81
684.55	17167.83
684.68	17280.18
684.82	17151.45
684.96	17013.35
685.09	17156.13
685.23	17057.82
685.37	17088.25
685.50	17055.48
685.64	16713.77
685.78	17029.74
685.91	16893.99
686.05	17106.98
686.19	16720.79
686.32	16849.52
686.46	16624.83
686.60	16360.34
686.73	16503.12
686.87	16250.34
687.01	16552.27
687.14	16187.14
687.28	16245.66
687.42	16002.24
687.55	16006.92
687.69	16322.90
687.82	16430.56
687.96	16191.83
688.10	15960.11
688.23	16226.93
688.37	15946.07
688.50	15953.09
688.64	15896.92
688.78	15644.14
688.91	15688.61
689.05	15431.15
689.18	15697.97
689.32	15204.12
689.46	15365.62
689.59	15290.72
689.73	15557.54
689.86	15353.91
690.00	15157.31
690.13	15091.77
690.27	15054.33
690.41	15129.22
690.54	15002.83
690.68	14963.04
690.81	15264.97
690.95	15084.75
691.08	15250.93
691.22	14932.62
691.35	14602.60
691.49	14998.15
691.62	14717.29
691.76	14310.04
691.89	14698.56
692.03	14295.99
692.16	14338.12
692.30	14244.50
692.43	14251.52
692.57	14155.56
692.70	14331.10
692.84	14183.65
692.97	14097.05
693.11	13879.38
693.24	13872.36
693.38	13970.66
693.51	13970.66
693.65	14092.37
693.78	13923.85
693.92	13888.74
694.05	13769.37
694.19	13525.96
694.32	13638.30
694.45	13455.74
694.59	13219.35
694.72	13671.07
694.86	13123.38
694.99	13212.32
695.13	13214.66
695.26	12882.31
695.39	12966.57
695.53	13193.60
695.66	13179.56
695.80	13214.66
695.93	12819.11
696.07	13006.36
696.20	13167.85
696.33	12954.87
696.47	12748.90
696.60	12723.15
696.73	12858.90
696.87	12760.60
697.00	12573.36
697.14	12582.72
697.27	12278.45
697.40	12395.48
697.54	12131.00
697.67	12229.30
697.80	12177.81
697.94	12250.36
698.07	12215.26
698.21	12133.34
698.34	12210.57
698.47	12149.72
698.61	12182.49
698.74	11948.43
698.87	12208.23
699.01	11819.71
699.14	11892.26
699.27	11796.30
699.40	11735.45
699.54	11602.04
699.67	11763.53
699.80	11534.16
699.94	11489.69
700.07	11613.74
700.20	11283.72
700.34	11101.16
700.47	11187.76
700.60	11419.47
700.73	11433.52
700.87	11225.21
701.00	11103.50
701.13	11115.20
701.26	10911.58
701.40	11075.42
701.53	10932.64
701.66	10927.96
701.79	10890.51
701.93	10913.92
702.06	10689.23
702.19	10740.72
702.32	10436.45
702.46	10525.39
702.59	10326.44
702.72	10422.41
702.85	10567.52
702.99	10438.79
703.12	10431.77
703.25	10057.28
703.38	10246.87
703.51	10305.38
703.65	10244.52
703.78	9921.53
703.91	10338.15
704.04	10052.60
704.17	10059.62
704.31	10061.96
704.44	9886.42
704.57	9928.55
704.70	9856.00
704.83	9685.14
704.96	9802.16
705.10	9547.05
705.23	9612.58
>>>>>End Processed Spectral Data<<<<<
