SpectraSuite Data File
++++++++++++++++++++++++++++++++++++
Date: Fri Oct 18 13:58:27 GMT-05:00 2013
User: bianchi
Dark Spectrum Present: No
Reference Spectrum Present: No
Number of Sampled Component Spectra: 1
Spectrometers: USB2+H05261
Integration Time (usec): 50000 (USB2+H05261)
Spectra Averaged: 1 (USB2+H05261)
Boxcar Smoothing: 0 (USB2+H05261)
Correct for Electrical Dark: No (USB2+H05261)
Strobe/Lamp Enabled: No (USB2+H05261)
Correct for Detector Non-linearity: No (USB2+H05261)
Correct for Stray Light: No (USB2+H05261)
Number of Pixels in Processed Spectrum: 2048
>>>>>Begin Processed Spectral Data<<<<<
365.73	0.00
365.92	0.00
366.12	0.00
366.32	0.00
366.52	0.00
366.72	0.00
366.91	0.00
367.11	0.00
367.31	0.00
367.51	0.00
367.70	0.00
367.90	0.00
368.10	0.00
368.30	0.00
368.49	0.00
368.69	0.00
368.89	0.00
369.09	0.00
369.28	0.00
369.48	0.00
369.68	0.00
369.87	0.00
370.07	0.00
370.27	0.00
370.47	0.00
370.66	149.79
370.86	67.88
371.06	173.20
371.25	182.56
371.45	201.29
371.65	131.07
371.84	187.24
372.04	140.43
372.24	194.26
372.44	220.01
372.63	217.67
372.83	191.92
373.03	208.31
373.22	245.76
373.42	170.86
373.62	154.48
373.81	322.99
374.01	117.03
374.21	215.33
374.40	243.42
374.60	196.60
374.79	217.67
374.99	250.44
375.19	252.78
375.38	285.55
375.58	175.54
375.78	224.69
375.97	315.97
376.17	271.50
376.37	238.73
376.56	297.25
376.76	355.76
376.95	205.97
377.15	215.33
377.35	287.89
377.54	318.31
377.74	236.39
377.93	264.48
378.13	229.37
378.33	245.76
378.52	175.54
378.72	276.18
378.91	320.65
379.11	217.67
379.31	266.82
379.50	297.25
379.70	308.95
379.89	248.10
380.09	271.50
380.28	236.39
380.48	276.18
380.68	330.02
380.87	269.16
381.07	292.57
381.26	311.29
381.46	351.08
381.65	341.72
381.85	271.50
382.04	318.31
382.24	367.46
382.43	362.78
382.63	313.63
382.83	271.50
383.02	304.27
383.22	397.89
383.41	383.85
383.61	280.86
383.80	372.15
384.00	421.30
384.19	313.63
384.39	351.08
384.58	339.38
384.78	351.08
384.97	435.34
385.17	327.68
385.36	355.76
385.56	402.57
385.75	287.89
385.95	386.19
386.14	409.59
386.34	367.46
386.53	367.46
386.72	332.36
386.92	362.78
387.11	451.72
387.31	447.04
387.50	475.13
387.70	388.53
387.89	330.02
388.09	386.19
388.28	390.87
388.48	444.70
388.67	430.66
388.86	440.02
389.06	374.49
389.25	374.49
389.45	517.26
389.64	395.55
389.84	475.13
390.03	435.34
390.22	461.09
390.42	491.51
390.61	484.49
390.81	472.79
391.00	465.77
391.19	437.68
391.39	468.11
391.58	517.26
391.78	465.77
391.97	517.26
392.16	454.06
392.36	554.71
392.55	472.79
392.75	496.19
392.94	559.39
393.13	491.51
393.33	507.90
393.52	540.66
393.71	594.50
393.91	578.11
394.10	559.39
394.29	519.60
394.49	500.87
394.68	592.16
394.88	496.19
395.07	641.31
395.26	648.33
395.46	622.58
395.65	645.99
395.84	662.37
396.04	645.99
396.23	608.54
396.42	592.16
396.62	592.16
396.81	589.82
397.00	575.77
397.19	610.88
397.39	568.75
397.58	678.76
397.77	510.24
397.97	617.90
398.16	690.46
398.35	648.33
398.55	657.69
398.74	699.82
398.93	688.12
399.12	760.67
399.32	641.31
399.51	702.16
399.70	774.72
399.90	770.04
400.09	725.57
400.28	784.08
400.47	802.80
400.67	842.59
400.86	720.88
401.05	828.55
401.24	786.42
401.44	882.38
401.63	830.89
401.82	774.72
402.01	828.55
402.21	858.98
402.40	786.42
402.59	847.27
402.78	821.53
402.97	816.85
403.17	823.87
403.36	823.87
403.55	823.87
403.74	830.89
403.93	858.98
404.13	933.87
404.32	837.91
404.51	910.47
404.70	889.40
404.89	917.49
405.09	901.11
405.28	891.74
405.47	910.47
405.66	926.85
405.85	901.11
406.05	971.32
406.24	968.98
406.43	1036.86
406.62	1046.22
406.81	1018.13
407.00	1008.77
407.20	966.64
407.39	912.81
407.58	1018.13
407.77	1041.54
407.96	1027.50
408.15	1100.05
408.34	1048.56
408.54	990.05
408.73	1053.24
408.92	1118.78
409.11	1123.46
409.30	1109.41
409.49	1090.69
409.68	1200.69
409.87	1118.78
410.07	1188.99
410.26	1160.91
410.45	1146.86
410.64	1144.52
410.83	1219.42
411.02	1240.48
411.21	1214.74
411.40	1174.95
411.59	1245.16
411.78	1231.12
411.98	1191.33
412.17	1355.17
412.36	1188.99
412.55	1296.66
412.74	1432.41
412.93	1362.19
413.12	1310.70
413.31	1329.42
413.50	1331.76
413.69	1455.81
413.88	1490.92
414.07	1432.41
414.26	1401.98
414.45	1371.55
414.64	1369.21
414.83	1434.75
415.02	1493.26
415.22	1572.84
415.41	1565.82
415.60	1638.38
415.79	1551.78
415.98	1467.52
416.17	1570.50
416.36	1645.40
416.55	1636.03
416.74	1673.48
416.93	1593.90
417.12	1741.36
417.31	1640.72
417.50	1544.75
417.69	1729.66
417.88	1626.67
418.07	1689.87
418.26	1710.93
418.45	1764.76
418.64	1839.66
418.83	1701.57
419.02	1746.04
419.21	1813.92
419.39	1872.43
419.58	1746.04
419.77	1872.43
419.96	1746.04
420.15	1799.87
420.34	1865.41
420.53	1893.49
420.72	1858.39
420.91	1870.09
421.10	1863.07
421.29	1909.88
421.48	1851.36
421.67	1912.22
421.86	1888.81
422.05	2031.58
422.24	2008.18
422.43	1952.01
422.61	1907.54
422.80	2036.27
422.99	2022.22
423.18	1996.48
423.37	1991.80
423.56	2073.71
423.75	1956.69
423.94	1832.64
424.13	1804.55
424.32	1902.86
424.50	2019.88
424.69	2054.99
424.88	2008.18
425.07	2026.90
425.26	1912.22
425.45	1980.09
425.64	2017.54
425.83	1940.30
426.01	2001.16
426.20	2064.35
426.39	1982.43
426.58	1944.99
426.77	2024.56
426.96	1991.80
427.15	1987.11
427.33	2097.12
427.52	2071.37
427.71	2071.37
427.90	2141.59
428.09	2111.16
428.28	2069.03
428.46	2253.94
428.65	2134.57
428.84	2181.38
429.03	2207.13
429.22	1973.07
429.40	2176.70
429.59	2176.70
429.78	2099.46
429.97	2169.68
430.16	2279.68
430.34	2263.30
430.53	2466.92
430.72	2347.56
430.91	2267.98
431.10	2239.89
431.28	2319.47
431.47	2424.80
431.66	2345.22
431.85	2317.13
432.03	2363.94
432.22	2368.62
432.41	2462.24
432.60	2452.88
432.79	2455.22
432.97	2462.24
433.16	2518.42
433.35	2317.13
433.54	2551.18
433.72	2562.89
433.91	2459.90
434.10	2495.01
434.28	2385.01
434.47	2523.10
434.66	2427.14
434.85	2422.45
435.03	2574.59
435.22	2621.40
435.41	2626.08
435.59	2612.04
435.78	2642.46
435.97	2567.57
436.16	2686.94
436.34	2572.25
436.53	2590.97
436.72	2710.34
436.90	2693.96
437.09	2590.97
437.28	2640.12
437.46	2593.31
437.65	2686.94
437.84	2700.98
438.02	2822.69
438.21	2715.02
438.40	2649.49
438.58	2820.35
438.77	2906.95
438.96	2843.75
439.14	2860.13
439.33	2904.60
439.52	2878.86
439.70	3038.02
439.89	2963.12
440.08	3021.63
440.26	3042.70
440.45	3094.19
440.63	2979.50
440.82	3028.65
441.01	3009.93
441.19	3075.46
441.38	3204.19
441.57	3176.11
441.75	3185.47
441.94	3171.43
442.12	3197.17
442.31	3400.80
442.50	3145.68
442.68	3218.24
442.87	3274.41
443.05	3314.20
443.24	3342.28
443.43	3424.20
443.61	3236.96
443.80	3456.97
443.98	3248.66
444.17	3159.72
444.35	3396.12
444.54	3435.91
444.73	3361.01
444.91	3276.75
445.10	3419.52
445.28	3368.03
445.47	3379.73
445.65	3384.41
445.84	3520.17
446.02	3456.97
446.21	3311.86
446.39	3386.76
446.58	3471.01
446.77	3372.71
446.95	3368.03
447.14	3447.61
447.32	3569.32
447.51	3382.07
447.69	3461.65
447.88	3534.21
448.06	3431.23
448.25	3449.95
448.43	3559.95
448.62	3358.67
448.80	3510.80
448.99	3634.85
449.17	3559.95
449.36	3569.32
449.54	3503.78
449.73	3765.92
449.91	3698.05
450.10	3735.50
450.28	3721.45
450.46	3719.11
450.65	3669.96
450.83	3716.77
451.02	3723.79
451.20	3770.60
451.39	3801.03
451.57	3740.18
451.76	3606.77
451.94	3695.71
452.13	3847.84
452.31	3735.50
452.49	3751.88
452.68	3836.14
452.86	3782.31
453.05	3894.65
453.23	3882.95
453.42	3859.54
453.60	3765.92
453.78	3791.67
453.97	3875.93
454.15	3927.42
454.34	3763.58
454.52	3976.57
454.70	3964.87
454.89	3889.97
455.07	3819.75
455.26	3911.04
455.44	4102.96
455.62	3964.87
455.81	3941.46
455.99	3960.19
456.17	3978.91
456.36	4152.11
456.54	4194.24
456.73	4189.56
456.91	4222.33
457.09	4264.46
457.28	4285.52
457.46	4337.01
457.64	4292.54
457.83	4287.86
458.01	4255.09
458.19	4257.43
458.38	4175.52
458.56	4374.46
458.74	4257.43
458.93	4294.88
459.11	4397.87
459.29	4290.20
459.48	4477.44
459.66	4292.54
459.84	4458.72
460.03	4592.13
460.21	4514.89
460.39	4559.36
460.57	4496.17
460.76	4493.83
460.94	4800.44
461.12	4533.62
461.31	4423.61
461.49	4641.28
461.67	4500.85
461.85	4599.15
462.04	4638.94
462.22	4826.18
462.40	4645.96
462.59	4592.13
462.77	4702.14
462.95	4709.16
463.13	4744.27
463.32	4594.47
463.50	4624.90
463.68	4681.07
463.86	4699.80
464.05	4627.24
464.23	4690.43
464.41	4753.63
464.59	4683.41
464.78	4908.10
464.96	4971.30
465.14	4922.15
465.32	4924.49
465.50	5090.67
465.69	4882.36
465.87	4908.10
466.05	5004.07
466.23	4828.53
466.41	4938.53
466.60	5153.86
466.78	5081.30
466.96	4873.00
467.14	4987.68
467.32	4966.62
467.51	5004.07
467.69	4943.21
467.87	5085.98
468.05	4985.34
468.23	5001.72
468.41	5001.72
468.60	5224.08
468.78	5107.05
468.96	5004.07
469.14	5245.14
469.32	5249.82
469.50	5116.41
469.69	5287.27
469.87	5277.91
470.05	5437.06
470.23	5399.62
470.41	5247.48
470.59	5476.85
470.77	5359.83
470.95	5282.59
471.14	5638.35
471.32	5474.51
471.50	5556.43
471.68	5575.16
471.86	5734.31
472.04	5610.26
472.22	5741.33
472.40	5469.83
472.58	5680.48
472.77	5593.88
472.95	5598.56
473.13	5877.09
473.31	5771.76
473.49	5710.91
473.67	5570.48
473.85	5802.19
474.03	5982.41
474.21	5870.06
474.39	5991.77
474.57	5966.03
474.75	5926.24
474.93	6090.07
475.12	6015.18
475.30	6012.84
475.48	6033.90
475.66	6143.91
475.84	6115.82
476.02	6274.98
476.20	6359.24
476.38	6258.59
476.56	6387.32
476.74	6616.69
476.92	6347.53
477.10	6427.11
477.28	6534.78
477.46	6574.56
477.64	6604.99
477.82	6691.59
478.00	6754.79
478.18	6829.68
478.36	6839.05
478.54	6869.47
478.72	6848.41
478.90	7087.14
479.08	7148.00
479.26	7124.59
479.44	7157.36
479.62	7316.51
479.80	7316.51
479.98	7171.40
480.16	7426.52
480.34	7393.75
480.52	7452.27
480.70	7627.81
480.88	7461.63
481.06	7651.21
481.24	7616.10
481.41	7588.02
481.59	7695.68
481.77	7742.49
481.95	7939.10
482.13	7985.91
482.31	8035.06
482.49	8376.78
482.67	8128.68
482.85	8383.80
483.03	8187.19
483.21	8430.61
483.39	8454.02
483.57	8362.73
483.74	8545.30
483.92	8437.63
484.10	8606.15
484.28	8798.07
484.46	8830.84
484.64	9060.21
484.82	8631.90
485.00	8809.78
485.18	9186.60
485.35	9212.35
485.53	9188.94
485.71	9259.16
485.89	9605.56
486.07	9397.25
486.25	9432.36
486.43	9647.69
486.61	9542.36
486.78	9575.13
486.96	9633.64
487.14	9748.33
487.32	9795.14
487.50	9888.76
487.68	9902.81
487.85	10146.22
488.03	10148.56
488.21	10286.65
488.39	10399.00
488.57	10417.72
488.75	10576.88
488.92	10562.84
489.10	10651.78
489.28	10726.68
489.46	10932.64
489.64	10841.36
489.81	11293.08
489.99	10895.19
490.17	11145.63
490.35	11414.79
490.53	11316.49
490.70	11269.68
490.88	11417.13
491.06	11452.24
491.24	11520.12
491.41	11492.03
491.59	11616.08
491.77	11550.54
491.95	12091.21
492.13	11967.16
492.30	12116.95
492.48	12177.81
492.66	12035.03
492.84	12257.39
493.01	12187.17
493.19	12238.66
493.37	12423.56
493.54	12730.17
493.72	12720.81
493.90	12851.88
494.08	12877.63
494.25	12844.86
494.43	12910.40
494.61	13156.15
494.79	13055.51
494.96	13172.54
495.14	13319.99
495.32	13252.11
495.49	13378.50
495.67	13289.56
495.85	13420.63
496.02	13544.68
496.20	13638.30
496.38	13544.68
496.55	13914.48
496.73	14223.44
496.91	13923.85
497.09	14129.81
497.26	14075.98
497.44	14071.30
497.62	14232.80
497.79	14459.83
497.97	14539.41
498.14	14462.17
498.32	14665.80
498.50	14523.02
498.67	14581.54
498.85	14609.62
499.03	14911.55
499.20	14689.20
499.38	14794.53
499.56	14810.91
499.73	14799.21
499.91	15082.41
500.08	15133.90
500.26	15040.28
500.44	15360.94
500.61	14927.94
500.79	15232.21
500.97	15503.71
501.14	15653.50
501.32	15587.97
501.49	15489.67
501.67	15634.78
501.84	15662.86
502.02	15822.02
502.20	16023.31
502.37	15878.19
502.55	15957.77
502.72	16105.23
502.90	15983.52
503.07	15824.36
503.25	15892.24
503.43	16091.18
503.60	16070.12
503.78	16035.01
503.95	16336.94
504.13	16276.09
504.30	16580.36
504.48	16561.63
504.65	16360.34
504.83	16582.70
505.01	16702.06
505.18	16816.75
505.36	16575.67
505.53	16671.64
505.71	16992.29
505.88	16847.18
506.06	16695.04
506.23	16849.52
506.41	16978.25
506.58	17008.67
506.76	17331.67
506.93	17139.74
507.11	17048.46
507.28	17245.07
507.46	17022.72
507.63	17268.47
507.81	17448.69
507.98	17277.83
508.16	17446.35
508.33	17334.01
508.50	17584.44
508.68	17525.93
508.85	17781.05
509.03	17619.55
509.20	17877.01
509.38	18099.36
509.55	17940.21
509.73	18272.56
509.90	17912.12
510.08	17937.87
510.25	18256.18
510.42	18326.39
510.60	18302.99
510.77	18333.42
510.95	18693.86
511.12	18471.51
511.30	18281.92
511.47	18501.93
511.64	18735.99
511.82	18604.92
511.99	18567.47
512.17	18970.04
512.34	18759.39
512.51	18850.67
512.69	18930.25
512.86	18878.76
513.04	19176.01
513.21	18913.87
513.38	18855.36
513.56	19164.31
513.73	19075.37
513.90	19028.56
514.08	19047.28
514.25	19412.40
514.43	19405.38
514.60	19438.15
514.77	19510.71
514.95	19396.02
515.12	19316.44
515.29	19550.49
515.47	19370.27
515.64	19789.23
515.81	19985.83
515.99	19903.92
516.16	19896.89
516.33	19957.75
516.51	19985.83
516.68	19751.78
516.85	20006.90
517.03	20182.44
517.20	20032.65
517.37	20154.35
517.54	20114.56
517.72	20343.94
517.89	20065.41
518.06	19971.79
518.24	20428.20
518.41	20304.15
518.58	20498.41
518.75	20662.25
518.93	20596.71
519.10	20718.42
519.27	20769.91
519.45	20720.76
519.62	20669.27
519.79	20575.65
519.96	20741.83
520.14	21053.12
520.31	21062.48
520.48	20905.66
520.65	20802.68
520.83	21371.43
521.00	20589.69
521.17	21081.21
521.34	20961.84
521.52	21228.66
521.69	21170.15
521.86	21493.14
522.03	21163.12
522.20	21458.03
522.38	21612.51
522.55	21474.42
522.72	21558.67
522.89	21488.46
523.07	21792.73
523.24	21757.62
523.41	21947.20
523.58	21682.72
523.75	22057.21
523.92	21774.00
524.10	21867.63
524.27	21961.25
524.44	22211.68
524.61	22167.21
524.78	21881.67
524.96	22111.04
525.13	22436.38
525.30	22015.08
525.47	21902.73
525.64	22146.15
525.81	22492.55
525.98	22256.15
526.16	22356.80
526.33	22338.07
526.50	22609.58
526.67	22260.84
526.84	22565.10
527.01	22436.38
527.18	22752.35
527.36	23019.17
527.53	22338.07
527.70	23000.44
527.87	22785.12
528.04	22700.86
528.21	23019.17
528.38	22733.62
528.55	23164.28
528.72	22817.88
528.89	22993.42
529.07	23323.44
529.24	22703.20
529.41	22869.37
529.58	22916.19
529.75	22920.87
529.92	22944.27
530.09	23133.86
530.26	23112.79
530.43	23400.68
530.60	23257.90
530.77	23449.83
530.94	23445.15
531.11	23218.11
531.28	23285.99
531.46	23337.48
531.63	23606.64
531.80	23777.50
531.97	23735.37
532.14	23681.54
532.31	23630.05
532.48	23534.09
532.65	23583.24
532.82	23833.68
532.99	23360.89
533.16	23707.29
533.33	23690.90
533.50	24065.39
533.67	23838.36
533.84	23866.44
534.01	23943.68
534.18	23789.20
534.35	24208.16
534.52	23992.83
534.69	23864.10
534.86	24592.01
535.03	23922.62
535.20	24290.08
535.37	24350.93
535.54	24142.63
535.71	23941.34
535.88	24163.69
536.05	24240.93
536.22	24615.41
536.38	24589.67
536.55	24451.58
536.72	24549.88
536.89	24828.40
537.06	24416.47
537.23	24704.35
537.40	24535.84
537.57	24540.52
537.74	24430.51
537.91	24945.43
538.08	24924.36
538.25	24776.91
538.42	24596.69
538.59	24805.00
538.75	24875.21
538.92	24912.66
539.09	25006.28
539.26	25235.66
539.43	24964.15
539.60	25247.36
539.77	25043.73
539.94	25193.53
540.11	25156.08
540.28	25067.14
540.44	25064.80
540.61	24877.55
540.78	25125.65
540.95	25289.49
541.12	25181.82
541.29	25144.38
541.46	25116.29
541.62	25235.66
541.79	24900.96
541.96	25191.19
542.13	25383.11
542.30	25633.55
542.47	25656.95
542.63	25338.64
542.80	25666.31
542.97	25766.96
543.14	25834.83
543.31	25589.08
543.48	25813.77
543.64	26061.87
543.81	25965.90
543.98	25970.58
544.15	25865.26
544.32	26005.69
544.48	26445.71
544.65	26078.25
544.82	25902.71
544.99	25933.14
545.16	25806.75
545.32	25837.17
545.49	26522.95
545.66	26113.36
545.83	26635.30
546.00	26867.01
546.16	25949.52
546.33	26185.91
546.50	25993.99
546.67	26588.49
546.83	26134.42
547.00	26565.08
547.17	26593.17
547.34	26565.08
547.50	26700.83
547.67	26661.04
547.84	26686.79
548.00	26719.56
548.17	26649.34
548.34	26155.49
548.51	26703.17
548.67	26958.29
548.84	26745.30
549.01	26639.98
549.18	26483.16
549.34	26621.25
549.51	26548.70
549.68	26712.53
549.84	26831.90
550.01	26340.39
550.18	26672.74
550.34	26953.61
550.51	27077.66
550.68	27161.92
550.84	27182.98
551.01	26911.48
551.18	27363.20
551.34	27211.07
551.51	26693.81
551.68	27234.47
551.84	27164.26
552.01	27426.40
552.18	27386.61
552.34	27000.42
552.51	26981.70
552.68	27035.53
552.84	27510.66
553.01	27608.96
553.18	27199.37
553.34	27405.33
553.51	27388.95
553.67	27452.14
553.84	27388.95
554.01	27484.91
554.17	27676.83
554.34	27318.73
554.51	27393.63
554.67	27524.70
554.84	27412.35
555.00	27637.05
555.17	27672.15
555.33	27075.32
555.50	27604.28
555.67	27435.76
555.83	27763.43
556.00	27452.14
556.16	27878.12
556.33	27693.22
556.50	27587.89
556.66	27901.53
556.83	27819.61
556.99	27838.33
557.16	28137.92
557.32	28140.26
557.49	27737.69
557.65	27711.94
557.82	28184.73
557.98	27615.98
558.15	27782.16
558.32	27716.62
558.48	28173.03
558.65	28247.93
558.81	28491.34
558.98	28027.92
559.14	27751.73
559.31	27814.93
559.47	27878.12
559.64	28177.71
559.80	27831.31
559.97	28294.74
560.13	28268.99
560.30	28121.54
560.46	28400.06
560.63	28402.40
560.79	27969.40
560.96	28203.46
561.12	28304.10
561.29	28095.79
561.45	28149.62
561.61	28170.69
561.78	28116.86
561.94	28376.66
562.11	28701.99
562.27	28210.48
562.44	28540.49
562.60	28390.70
562.77	28144.94
562.93	28428.15
563.10	28308.78
563.26	28474.96
563.42	28575.60
563.59	28479.64
563.75	28158.99
563.92	28599.01
564.08	28491.34
564.24	28381.34
564.41	28147.28
564.57	28849.44
564.74	28446.87
564.90	28699.65
565.07	28685.61
565.23	28484.32
565.39	28879.87
565.56	28680.92
565.72	28451.55
565.88	28540.49
566.05	28538.15
566.21	28128.56
566.38	28943.06
566.54	28528.79
566.70	28917.32
566.87	28926.68
567.03	29027.32
567.19	28992.22
567.36	28893.91
567.52	28730.08
567.68	28769.86
567.85	28898.59
568.01	28657.52
568.17	29137.33
568.34	29020.30
568.50	28847.10
568.66	28833.06
568.83	28783.91
568.99	28863.49
569.15	29041.37
569.32	28833.06
569.48	28891.57
569.64	29024.98
569.81	29027.32
569.97	28479.64
570.13	28645.82
570.30	28716.03
570.46	28755.82
570.62	28975.83
570.78	28783.91
570.95	28657.52
571.11	28446.87
571.27	28638.80
571.43	28666.88
571.60	28781.57
571.76	28868.17
571.92	29020.30
572.09	29034.35
572.25	29116.26
572.41	29284.78
572.57	29069.45
572.74	29125.63
572.90	28896.25
573.06	28863.49
573.22	29125.63
573.38	28828.38
573.55	28865.83
573.71	28973.49
573.87	29352.66
574.03	28720.71
574.20	28933.70
574.36	28914.98
574.52	29340.96
574.68	28884.55
574.84	28842.42
575.01	28973.49
575.17	29535.22
575.33	29043.71
575.49	28774.55
575.65	28996.90
575.82	28938.38
575.98	29233.29
576.14	29092.86
576.30	29057.75
576.46	28877.53
576.62	29076.48
576.79	29125.63
576.95	28992.22
577.11	29186.48
577.27	29261.38
577.43	29186.48
577.59	29301.17
577.75	29003.92
577.92	28781.57
578.08	29277.76
578.24	29186.48
578.40	29102.22
578.56	29317.55
578.72	29039.03
578.88	29156.05
579.04	29523.52
579.21	29340.96
579.37	29137.33
579.53	29153.71
579.69	29209.89
579.85	28643.48
580.01	28924.34
580.17	28580.28
580.33	28999.24
580.49	29649.91
580.65	29254.36
580.82	29357.34
580.98	29280.10
581.14	29064.77
581.30	29163.08
581.46	29090.52
581.62	29106.90
581.78	28807.31
581.94	29263.72
582.10	29493.09
582.26	29165.42
582.42	29067.11
582.58	29486.07
582.74	29502.45
582.90	29558.63
583.06	28954.77
583.22	29060.09
583.38	29200.52
583.54	29275.42
583.70	29294.14
583.86	29069.45
584.02	29198.18
584.18	29472.03
584.34	29230.95
584.50	29457.98
584.66	29277.76
584.82	29130.31
584.98	29366.70
585.14	29359.68
585.30	29507.13
585.46	29404.15
585.62	29212.23
585.78	29696.72
585.94	29067.11
586.10	29090.52
586.26	29261.38
586.42	29919.07
586.58	29455.64
586.74	29567.99
586.90	29003.92
587.06	29233.29
587.22	29209.89
587.38	29329.25
587.54	29661.61
587.70	29483.73
587.86	29956.52
588.02	29731.83
588.18	29495.43
588.34	29603.10
588.49	29516.50
588.65	29345.64
588.81	29376.06
588.97	29333.93
589.13	29261.38
589.29	29242.65
589.45	29326.91
589.61	30043.12
589.77	29792.68
589.93	29603.10
590.08	29888.64
590.24	29481.39
590.40	29898.00
590.56	29879.28
590.72	29694.38
590.88	29111.58
591.04	29275.42
591.20	30085.25
591.35	29710.76
591.51	30085.25
591.67	29488.41
591.83	29706.08
591.99	29539.90
592.15	30092.27
592.31	30045.46
592.46	29319.89
592.62	29614.80
592.78	29654.59
592.94	29642.88
593.10	29450.96
593.26	29825.45
593.41	29780.98
593.57	29479.05
593.73	30043.12
593.89	29865.24
594.05	29912.05
594.20	29551.60
594.36	29598.41
594.52	29780.98
594.68	29778.64
594.84	29511.81
594.99	30031.41
595.15	29717.78
595.31	30054.82
595.47	30141.42
595.62	29631.18
595.78	29675.65
595.94	29792.68
596.10	29914.39
596.25	29654.59
596.41	29710.76
596.57	29298.83
596.73	30038.44
596.88	29656.93
597.04	30295.89
597.20	30089.93
597.36	30031.41
597.51	30321.64
597.67	30113.33
597.83	29619.48
597.99	29586.71
598.14	29734.17
598.30	29537.56
598.46	29553.94
598.61	29986.94
598.77	29876.94
598.93	30073.54
599.09	30078.22
599.24	30483.14
599.40	29752.89
599.56	29619.48
599.71	30031.41
599.87	30015.03
600.03	29968.22
600.18	30022.05
600.34	29460.32
600.50	29902.68
600.65	30057.16
600.81	29914.39
600.97	30143.76
601.12	30092.27
601.28	30232.70
601.44	30286.53
601.59	30096.95
601.75	29771.61
601.91	30190.57
602.06	30141.42
602.22	29675.65
602.37	29553.94
602.53	30213.98
602.69	29944.81
602.84	30132.06
603.00	29621.82
603.16	29867.58
603.31	29968.22
603.47	30309.94
603.62	29947.15
603.78	30103.97
603.94	29720.12
604.09	30164.82
604.25	29986.94
604.40	29956.52
604.56	29792.68
604.71	30064.18
604.87	29965.88
605.03	29738.85
605.18	30115.67
605.34	29809.06
605.49	29708.42
605.65	29799.70
605.80	29422.87
605.96	29834.81
606.12	29823.11
606.27	29958.86
606.43	29853.53
606.58	29881.62
606.74	29912.05
606.89	29788.00
607.05	30118.01
607.20	30024.39
607.36	30066.52
607.51	29912.05
607.67	29759.91
607.82	29703.74
607.98	29682.67
608.13	29689.70
608.29	29572.67
608.44	29486.07
608.60	29453.30
608.75	29778.64
608.91	29862.90
609.06	29589.05
609.22	29898.00
609.37	29312.87
609.53	29448.62
609.68	29577.35
609.84	29610.12
609.99	29694.38
610.15	29500.11
610.30	29582.03
610.46	29668.63
610.61	29242.65
610.76	29858.21
610.92	29593.73
611.07	29584.37
611.23	29252.02
611.38	29507.13
611.54	29661.61
611.69	28992.22
611.84	29331.59
612.00	29582.03
612.15	29214.57
612.31	29970.56
612.46	29500.11
612.62	29303.51
612.77	29528.20
612.92	29577.35
613.08	29029.66
613.23	29628.84
613.39	29493.09
613.54	29184.14
613.69	29383.09
613.85	29174.78
614.00	29230.95
614.15	29270.74
614.31	29387.77
614.46	29497.77
614.62	29397.13
614.77	29785.66
614.92	29502.45
615.08	29443.94
615.23	28926.68
615.38	29083.50
615.54	29191.16
615.69	29195.84
615.84	28898.59
616.00	29078.82
616.15	29020.30
616.30	29095.20
616.46	29163.08
616.61	29212.23
616.76	29060.09
616.92	28816.68
617.07	29322.23
617.22	29071.79
617.37	28718.37
617.53	29125.63
617.68	29139.67
617.83	28800.29
617.99	28814.34
618.14	29284.78
618.29	28854.12
618.45	29053.07
618.60	28917.32
618.75	29163.08
618.90	28762.84
619.06	28828.38
619.21	28697.31
619.36	29188.82
619.51	28610.71
619.67	28573.26
619.82	28762.84
619.97	28973.49
620.12	28545.17
620.28	28606.03
620.43	28964.13
620.58	28971.15
620.73	28814.34
620.89	28863.49
621.04	28753.48
621.19	28643.48
621.34	28641.14
621.49	28526.45
621.65	28638.80
621.80	28432.83
621.95	28608.37
622.10	28538.15
622.25	28355.59
622.41	28783.91
622.56	28613.05
622.71	28484.32
622.86	28767.52
623.01	28584.96
623.16	28570.92
623.32	28472.62
623.47	28496.02
623.62	28018.55
623.77	28126.22
623.92	28166.01
624.07	28254.95
624.23	28336.87
624.38	28264.31
624.53	28395.38
624.68	28739.44
624.83	28547.51
624.98	28318.14
625.13	28449.21
625.29	28608.37
625.44	28107.49
625.59	28034.94
625.74	28011.53
625.89	27917.91
626.04	28039.62
626.19	28222.18
626.34	28336.87
626.49	27826.63
626.65	28067.70
626.80	28292.40
626.95	28032.60
627.10	28065.36
627.25	28070.04
627.40	27793.86
627.55	27913.23
627.70	27721.30
627.85	27548.11
628.00	27927.27
628.15	27707.26
628.30	27693.22
628.45	27803.22
628.60	27807.90
628.76	27992.81
628.91	27770.46
629.06	28060.68
629.21	27555.13
629.36	27627.68
629.51	27786.84
629.66	27623.00
629.81	27445.12
629.96	27543.42
630.11	27597.26
630.26	27700.24
630.41	27686.20
630.56	27562.15
630.71	27700.24
630.86	27527.04
631.01	27728.33
631.16	27707.26
631.31	27314.05
631.46	27365.54
631.61	27733.01
631.76	27227.45
631.91	27290.65
632.06	27543.42
632.21	27325.75
632.36	27115.11
632.51	27014.46
632.66	27363.20
632.81	27501.29
632.96	27428.74
633.10	27742.37
633.25	27644.07
633.40	27337.46
633.55	27285.97
633.70	27295.33
633.85	26806.16
634.00	26888.07
634.15	26993.40
634.30	27150.21
634.45	27084.68
634.60	26934.88
634.75	27105.74
634.90	27393.63
635.05	27608.96
635.19	27122.13
635.34	27044.89
635.49	26972.33
635.64	27058.93
635.79	27101.06
635.94	27054.25
636.09	27000.42
636.24	26890.41
636.39	26583.80
636.53	26986.38
636.68	26597.85
636.83	26845.94
636.98	27012.12
637.13	26974.67
637.28	26782.75
637.43	26979.36
637.57	26986.38
637.72	26888.07
637.87	26902.12
638.02	26937.23
638.17	26487.84
638.32	26412.95
638.46	26749.98
638.61	26656.36
638.76	26345.07
638.91	26625.93
639.06	26661.04
639.20	26607.21
639.35	26717.22
639.50	26642.32
639.65	26937.23
639.80	26553.38
639.94	26672.74
640.09	26651.68
640.24	26326.35
640.39	26328.69
640.54	26529.97
640.68	26150.81
640.83	26335.71
640.98	26466.78
641.13	25989.31
641.27	26686.79
641.42	26206.98
641.57	26132.08
641.72	26452.73
641.86	25982.29
642.01	26141.44
642.16	26195.28
642.31	26293.58
642.45	26078.25
642.60	25792.70
642.75	25827.81
642.90	26380.18
643.04	26216.34
643.19	26068.89
643.34	25855.90
643.48	25785.68
643.63	25977.61
643.78	26101.65
643.93	26185.91
644.07	26082.93
644.22	26211.66
644.37	26129.74
644.51	26082.93
644.66	25811.43
644.81	25469.71
644.95	25933.14
645.10	25984.63
645.25	25692.06
645.39	25830.15
645.54	26192.94
645.69	26181.23
645.83	25930.80
645.98	26066.55
646.13	25682.70
646.27	26066.55
646.42	25708.44
646.57	25673.34
646.71	25486.09
646.86	25921.43
647.00	25568.01
647.15	25525.88
647.30	25270.76
647.44	25600.78
647.59	25474.39
647.74	25771.64
647.88	25586.74
648.03	25673.34
648.17	25809.09
648.32	25965.90
648.47	25813.77
648.61	25741.21
648.76	25811.43
648.90	25556.31
649.05	25553.97
649.20	25703.76
649.34	25720.15
649.49	25245.02
649.63	25450.99
649.78	25429.92
649.92	25139.69
650.07	25612.48
650.21	25280.13
650.36	25130.33
650.51	25228.63
650.65	25692.06
650.80	25446.30
650.94	25319.92
651.09	25268.42
651.23	25008.62
651.38	25331.62
651.52	24982.88
651.67	25502.48
651.81	25359.70
651.96	25186.50
652.10	25186.50
652.25	25284.81
652.39	25245.02
652.54	25261.40
652.68	25242.68
652.83	25230.98
652.97	25373.75
653.12	24917.34
653.26	24964.15
653.41	25254.38
653.55	24900.96
653.70	25245.02
653.84	24978.20
653.99	24556.90
654.13	24940.75
654.27	24456.26
654.42	25048.41
654.56	24882.24
654.71	24903.30
654.85	24802.66
655.00	25041.39
655.14	25132.67
655.29	24713.72
655.43	24797.98
655.57	24746.48
655.72	25165.44
655.86	24692.65
656.01	24458.60
656.15	24589.67
656.30	24451.58
656.44	24788.61
656.58	24357.96
656.73	24699.67
656.87	24336.89
657.01	24790.95
657.16	24786.27
657.30	24694.99
657.45	24444.56
657.59	24477.32
657.73	24776.91
657.88	24636.48
658.02	24489.03
658.16	24599.03
658.31	24496.05
658.45	24287.74
658.60	24159.01
658.74	24442.21
658.88	24233.91
659.03	24121.56
659.17	24458.60
659.31	24060.71
659.46	24458.60
659.60	24215.18
659.74	24175.39
659.89	24217.52
660.03	24336.89
660.17	24194.12
660.32	23796.23
660.46	23967.09
660.60	23646.43
660.74	23578.56
660.89	23847.72
661.03	23840.70
661.17	23524.72
661.32	23625.37
661.46	23517.70
661.60	23798.57
661.74	23950.70
661.89	23887.51
662.03	23971.77
662.17	23557.49
662.31	23747.08
662.46	23824.31
662.60	23571.54
662.74	23433.44
662.88	23452.17
663.03	23316.42
663.17	23587.92
663.31	23365.57
663.45	23201.73
663.60	23147.90
663.74	23154.92
663.88	23147.90
664.02	23164.28
664.17	23131.51
664.31	23398.34
664.45	23262.58
664.59	23281.31
664.73	23131.51
664.88	23133.86
665.02	23047.26
665.16	22742.99
665.30	23035.55
665.44	22984.06
665.59	22651.70
665.73	22766.39
665.87	22670.43
666.01	23061.30
666.15	22909.16
666.29	22986.40
666.44	22738.30
666.58	22560.42
666.72	22405.95
666.86	22663.41
667.00	22740.64
667.14	22698.52
667.28	22602.55
667.43	22635.32
667.57	22328.71
667.71	22373.18
667.85	22375.52
667.99	22438.72
668.13	22347.44
668.27	22244.45
668.41	22417.65
668.56	22249.13
668.70	22424.67
668.84	22558.08
668.98	22059.55
669.12	22199.98
669.26	22382.54
669.40	22019.76
669.54	22382.54
669.68	22036.14
669.82	21914.44
669.96	21544.63
670.10	21631.23
670.25	21972.95
670.39	21525.91
670.53	21736.56
670.67	21659.32
670.81	21876.99
670.95	21575.06
671.09	21596.12
671.23	21539.95
671.37	21893.37
671.51	21720.17
671.65	21642.93
671.79	21579.74
671.93	21729.53
672.07	21558.67
672.21	21364.41
672.35	21399.52
672.49	21153.76
672.63	21144.40
672.77	21097.59
672.91	21188.87
673.05	20893.96
673.19	21120.99
673.33	20727.78
673.47	21074.18
673.61	21118.65
673.75	20912.69
673.89	20989.92
674.03	20765.23
674.17	20957.16
674.31	20994.61
674.45	20505.43
674.59	20830.77
674.73	20695.02
674.87	20503.09
675.01	20561.61
675.15	20425.86
675.29	20444.58
675.43	20341.60
675.56	20512.46
675.70	20238.61
675.84	20273.72
675.98	19814.98
676.12	20475.01
676.26	20416.49
676.40	20311.17
676.54	20081.80
676.68	20116.90
676.82	19463.90
676.96	19946.05
677.10	19550.49
677.23	19613.69
677.37	19501.34
677.51	19342.19
677.65	20034.99
677.79	19384.32
677.93	19283.67
678.07	19421.77
678.21	19393.68
678.34	19428.79
678.48	19239.20
678.62	18923.23
678.76	19190.05
678.90	18836.63
679.04	18803.86
679.18	19026.21
679.31	18838.97
679.45	18602.58
679.59	18611.94
679.73	18810.89
679.87	18698.54
680.00	18420.02
680.14	18581.51
680.28	18654.07
680.42	18387.25
680.56	18820.25
680.70	18593.22
680.83	18593.22
680.97	18485.55
681.11	18218.73
681.25	18169.58
681.39	18312.35
681.52	17965.95
681.66	18108.72
681.80	17942.55
681.94	18017.44
682.07	17809.14
682.21	17706.15
682.35	17923.82
682.49	17238.05
682.62	17521.25
682.76	17633.60
682.90	17771.69
683.04	17575.08
683.17	17509.55
683.31	17965.95
683.45	17614.87
683.59	17277.83
683.72	17355.07
683.86	17355.07
684.00	17343.37
684.13	17287.20
684.27	17144.42
684.41	17043.78
684.55	16585.04
684.68	16779.30
684.82	16795.68
684.96	16709.08
685.09	16629.51
685.23	16730.15
685.37	16669.30
685.50	16634.19
685.64	16685.68
685.78	16666.95
685.91	16769.94
686.05	16744.19
686.19	16517.16
686.32	16395.45
686.46	16306.51
686.60	16173.10
686.73	16070.12
686.87	15866.49
687.01	16006.92
687.14	16077.14
687.28	15829.04
687.42	15845.43
687.55	15784.57
687.69	15800.96
687.82	15688.61
687.96	15555.20
688.10	15510.73
688.23	15861.81
688.37	15618.39
688.50	15468.60
688.64	15407.75
688.78	15346.89
688.91	15269.66
689.05	15377.32
689.18	15026.24
689.32	14906.87
689.46	15105.82
689.59	15054.33
689.73	15019.22
689.86	14560.47
690.00	14956.02
690.13	14951.34
690.27	14754.74
690.41	14782.82
690.54	14810.91
690.68	14724.31
690.81	14668.14
690.95	15037.94
691.08	14443.45
691.22	14576.86
691.35	14459.83
691.49	14618.99
691.62	14483.24
691.76	14253.86
691.89	14284.29
692.03	14066.62
692.16	14129.81
692.30	14263.22
692.43	13762.35
692.57	13823.20
692.70	13919.17
692.84	13987.04
692.97	13839.59
693.11	13654.69
693.24	13752.99
693.38	13699.16
693.51	13827.88
693.65	13380.84
693.78	13432.33
693.92	13507.23
694.05	13537.66
694.19	13390.20
694.32	13240.41
694.45	13062.53
694.59	13088.28
694.72	13071.89
694.86	12919.76
694.99	12617.83
695.13	12858.90
695.26	12772.30
695.39	12695.07
695.53	12936.14
695.66	12830.82
695.80	12870.61
695.93	12615.49
696.07	12793.37
696.20	12547.61
696.33	12634.21
696.47	12725.49
696.60	12428.24
696.73	12243.34
696.87	12479.74
697.00	12283.13
697.14	12283.13
697.27	12053.76
697.40	12138.02
697.54	12051.42
697.67	12123.98
697.80	11908.65
697.94	11712.04
698.07	11735.45
698.21	12161.42
698.34	11934.39
698.47	11922.69
698.61	11627.78
698.74	11889.92
698.87	11723.74
699.01	11719.06
699.14	11377.34
699.27	11576.29
699.40	11585.65
699.54	11309.47
699.67	11346.92
699.80	11222.87
699.94	11115.20
700.07	10981.79
700.20	11014.56
700.34	11140.95
700.47	11019.24
700.60	11082.44
700.73	10934.98
700.87	10801.57
701.00	11077.76
701.13	10768.80
701.26	10869.45
701.40	10951.37
701.53	10775.83
701.66	10813.28
701.79	10614.33
701.93	10520.71
702.06	10382.62
702.19	10284.31
702.32	10384.96
702.46	10314.74
702.59	10099.41
702.72	9898.13
702.85	10368.57
702.99	9975.36
703.12	10057.28
703.25	10162.61
703.38	10232.82
703.51	10078.35
703.65	9853.66
703.78	9916.85
703.91	9958.98
704.04	9926.21
704.17	9921.53
704.31	9788.12
704.44	9874.72
704.57	9727.27
704.70	9537.68
704.83	9533.00
704.96	9383.21
705.10	9467.47
705.23	9537.68
>>>>>End Processed Spectral Data<<<<<
