SpectraSuite Data File
++++++++++++++++++++++++++++++++++++
Date: Fri Oct 18 13:57:55 GMT-05:00 2013
User: bianchi
Dark Spectrum Present: No
Reference Spectrum Present: No
Number of Sampled Component Spectra: 1
Spectrometers: USB2+H05261
Integration Time (usec): 50000 (USB2+H05261)
Spectra Averaged: 1 (USB2+H05261)
Boxcar Smoothing: 0 (USB2+H05261)
Correct for Electrical Dark: No (USB2+H05261)
Strobe/Lamp Enabled: No (USB2+H05261)
Correct for Detector Non-linearity: No (USB2+H05261)
Correct for Stray Light: No (USB2+H05261)
Number of Pixels in Processed Spectrum: 2048
>>>>>Begin Processed Spectral Data<<<<<
365.73	0.00
365.92	0.00
366.12	0.00
366.32	0.00
366.52	0.00
366.72	0.00
366.91	0.00
367.11	0.00
367.31	0.00
367.51	0.00
367.70	0.00
367.90	0.00
368.10	0.00
368.30	0.00
368.49	0.00
368.69	0.00
368.89	0.00
369.09	0.00
369.28	0.00
369.48	0.00
369.68	0.00
369.87	0.00
370.07	0.00
370.27	0.00
370.47	0.00
370.66	70.22
370.86	46.81
371.06	142.77
371.25	168.52
371.45	173.20
371.65	156.82
371.84	224.69
372.04	119.37
372.24	154.48
372.44	163.84
372.63	203.63
372.83	187.24
373.03	238.73
373.22	229.37
373.42	168.52
373.62	236.39
373.81	180.22
374.01	259.80
374.21	271.50
374.40	227.03
374.60	285.55
374.79	224.69
374.99	201.29
375.19	166.18
375.38	234.05
375.58	191.92
375.78	294.91
375.97	304.27
376.17	273.84
376.37	306.61
376.56	276.18
376.76	294.91
376.95	346.40
377.15	311.29
377.35	339.38
377.54	301.93
377.74	287.89
377.93	262.14
378.13	238.73
378.33	229.37
378.52	339.38
378.72	294.91
378.91	334.70
379.11	334.70
379.31	262.14
379.50	264.48
379.70	341.72
379.89	334.70
380.09	266.82
380.28	259.80
380.48	320.65
380.68	285.55
380.87	360.44
381.07	332.36
381.26	301.93
381.46	271.50
381.65	264.48
381.85	346.40
382.04	351.08
382.24	437.68
382.43	362.78
382.63	393.21
382.83	353.42
383.02	322.99
383.22	353.42
383.41	306.61
383.61	313.63
383.80	414.27
384.00	311.29
384.19	421.30
384.39	411.93
384.58	425.98
384.78	407.25
384.97	355.76
385.17	381.51
385.36	428.32
385.56	411.93
385.75	433.00
385.95	414.27
386.14	442.36
386.34	430.66
386.53	400.23
386.72	475.13
386.92	425.98
387.11	482.15
387.31	404.91
387.50	444.70
387.70	479.81
387.89	411.93
388.09	435.34
388.28	381.51
388.48	472.79
388.67	411.93
388.86	470.45
389.06	440.02
389.25	411.93
389.45	479.81
389.64	528.96
389.84	496.19
390.03	535.98
390.22	456.40
390.42	503.22
390.61	477.47
390.81	421.30
391.00	489.17
391.19	575.77
391.39	535.98
391.58	519.60
391.78	472.79
391.97	594.50
392.16	554.71
392.36	575.77
392.55	543.00
392.75	557.05
392.94	603.86
393.13	557.05
393.33	629.60
393.52	510.24
393.71	535.98
393.91	566.41
394.10	550.03
394.29	594.50
394.49	631.94
394.68	645.99
394.88	517.26
395.07	622.58
395.26	571.09
395.46	571.09
395.65	650.67
395.84	610.88
396.04	711.52
396.23	671.73
396.42	725.57
396.62	610.88
396.81	648.33
397.00	737.27
397.19	709.18
397.39	725.57
397.58	730.25
397.77	645.99
397.97	667.05
398.16	690.46
398.35	718.54
398.55	629.60
398.74	713.86
398.93	793.44
399.12	770.04
399.32	704.50
399.51	765.36
399.70	784.08
399.90	650.67
400.09	788.76
400.28	739.61
400.47	791.10
400.67	866.00
400.86	882.38
401.05	800.46
401.24	812.17
401.44	812.17
401.63	901.11
401.82	809.83
402.01	842.59
402.21	922.17
402.40	880.04
402.59	854.30
402.78	866.00
402.97	947.92
403.17	877.70
403.36	940.90
403.55	912.81
403.74	997.07
403.93	1057.92
404.13	891.74
404.32	866.00
404.51	915.15
404.70	999.41
404.89	966.64
405.09	1025.15
405.28	997.07
405.47	950.26
405.66	896.43
405.85	1032.18
406.05	987.71
406.24	973.66
406.43	1048.56
406.62	1018.13
406.81	1090.69
407.00	1001.75
407.20	1034.52
407.39	1043.88
407.58	1083.67
407.77	1109.41
407.96	1050.90
408.15	1144.52
408.34	1097.71
408.54	1114.10
408.73	1135.16
408.92	1203.04
409.11	1282.61
409.30	1163.25
409.49	1109.41
409.68	1214.74
409.87	1107.07
410.07	1249.85
410.26	1200.69
410.45	1170.27
410.64	1179.63
410.83	1287.29
411.02	1275.59
411.21	1327.08
411.40	1373.89
411.59	1310.70
411.78	1317.72
411.98	1259.21
412.17	1303.68
412.36	1268.57
412.55	1352.83
412.74	1252.19
412.93	1343.47
413.12	1327.08
413.31	1469.86
413.50	1392.62
413.69	1455.81
413.88	1418.36
414.07	1401.98
414.26	1467.52
414.45	1526.03
414.64	1516.67
414.83	1598.59
415.02	1533.05
415.22	1483.90
415.41	1621.99
415.60	1535.39
415.79	1544.75
415.98	1596.25
416.17	1636.03
416.36	1575.18
416.55	1657.10
416.74	1685.19
416.93	1811.57
417.12	1701.57
417.31	1605.61
417.50	1659.44
417.69	1689.87
417.88	1788.17
418.07	1626.67
418.26	1701.57
418.45	1820.94
418.64	1879.45
418.83	1853.70
419.02	1933.28
419.21	1853.70
419.39	1858.39
419.58	1895.83
419.77	1898.17
419.96	1865.41
420.15	1907.54
420.34	1844.34
420.53	1909.88
420.72	1994.14
420.91	2003.50
421.10	1888.81
421.29	2012.86
421.48	1947.33
421.67	1928.60
421.86	2097.12
422.05	1982.43
422.24	1998.82
422.43	2029.24
422.61	1966.05
422.80	2012.86
422.99	2083.08
423.18	2097.12
423.37	2118.18
423.56	2129.89
423.75	2167.34
423.94	2008.18
424.13	1933.28
424.32	1998.82
424.50	2108.82
424.69	2054.99
424.88	2165.00
425.07	2054.99
425.26	2183.72
425.45	2078.40
425.64	2141.59
425.83	2080.74
426.01	2092.44
426.20	2050.31
426.39	2076.06
426.58	2155.63
426.77	2237.55
426.96	2183.72
427.15	2062.01
427.33	2179.04
427.52	2160.31
427.71	2256.28
427.90	2242.23
428.09	2242.23
428.28	2300.75
428.46	2237.55
428.65	2277.34
428.84	2195.42
429.03	2424.80
429.22	2202.44
429.40	2399.05
429.59	2342.88
429.78	2326.49
429.97	2172.02
430.16	2263.30
430.34	2424.80
430.53	2427.14
430.72	2363.94
430.91	2260.96
431.10	2340.54
431.28	2518.42
431.47	2434.16
431.66	2408.41
431.85	2415.43
432.03	2441.18
432.22	2497.35
432.41	2509.05
432.60	2569.91
432.79	2518.42
432.97	2579.27
433.16	2576.93
433.35	2413.09
433.54	2527.78
433.72	2534.80
433.91	2520.76
434.10	2590.97
434.28	2670.55
434.47	2511.39
434.66	2562.89
434.85	2708.00
435.03	2808.64
435.22	2644.81
435.41	2696.30
435.59	2665.87
435.78	2614.38
435.97	2731.41
436.16	2719.70
436.34	2792.26
436.53	2738.43
436.72	2803.96
436.90	2649.49
437.09	2878.86
437.28	2876.52
437.46	2796.94
437.65	2677.57
437.84	2822.69
438.02	2768.85
438.21	2885.88
438.40	2778.22
438.58	2946.73
438.77	2885.88
438.96	2946.73
439.14	2897.58
439.33	2988.86
439.52	3110.57
439.70	3094.19
439.89	3082.49
440.08	3178.45
440.26	3012.27
440.45	3255.69
440.63	3162.06
440.82	3201.85
441.01	3148.02
441.19	3129.30
441.38	3288.45
441.57	3239.30
441.75	3211.22
441.94	3407.82
442.12	3337.60
442.31	3424.20
442.50	3403.14
442.68	3274.41
442.87	3396.12
443.05	3377.39
443.24	3496.76
443.43	3440.59
443.61	3576.34
443.80	3559.95
443.98	3389.10
444.17	3229.94
444.35	3316.54
444.54	3574.00
444.73	3569.32
444.91	3442.93
445.10	3421.86
445.28	3548.25
445.47	3599.74
445.65	3475.70
445.84	3581.02
446.02	3646.55
446.21	3494.42
446.39	3611.45
446.58	3709.75
446.77	3604.42
446.95	3538.89
447.14	3557.61
447.32	3559.95
447.51	3552.93
447.69	3559.95
447.88	3695.71
448.06	3754.22
448.25	3578.68
448.43	3548.25
448.62	3611.45
448.80	3508.46
448.99	3627.83
449.17	3845.50
449.36	3782.31
449.54	3765.92
449.73	3829.12
449.91	3691.02
450.10	3772.94
450.28	3908.69
450.46	3808.05
450.65	3801.03
450.83	3908.69
451.02	3721.45
451.20	3845.50
451.39	3845.50
451.57	3943.80
451.76	3915.72
451.94	3964.87
452.13	4063.17
452.31	3997.64
452.49	3831.46
452.68	4133.39
452.86	4187.22
453.05	4219.99
453.23	4194.24
453.42	4016.36
453.60	3957.85
453.78	4067.85
453.97	4133.39
454.15	4007.00
454.34	3941.46
454.52	3967.21
454.70	4114.66
454.89	4210.62
455.07	4114.66
455.26	4337.01
455.44	4320.63
455.62	4198.92
455.81	4198.92
455.99	4308.93
456.17	4315.95
456.36	4173.18
456.54	4414.25
456.73	4320.63
456.91	4498.51
457.09	4393.19
457.28	4444.68
457.46	4306.59
457.64	4451.70
457.83	4353.40
458.01	4393.19
458.19	4322.97
458.38	4491.49
458.56	4692.77
458.74	4634.26
458.93	4416.59
459.11	4636.60
459.29	4613.20
459.48	4634.26
459.66	4634.26
459.84	4636.60
460.03	4550.00
460.21	4589.79
460.39	4706.82
460.57	4648.30
460.76	4699.80
460.94	4812.14
461.12	4713.84
461.31	4805.12
461.49	4650.64
461.67	4566.39
461.85	4901.08
462.04	4793.42
462.22	4945.55
462.40	4917.47
462.59	4830.87
462.77	4884.70
462.95	4952.57
463.13	4931.51
463.32	4926.83
463.50	5001.72
463.68	4910.44
463.86	5041.51
464.05	5121.09
464.23	4795.76
464.41	5057.90
464.59	4865.97
464.78	5043.85
464.96	5032.15
465.14	5252.16
465.32	5055.56
465.50	5231.10
465.69	5104.71
465.87	5170.24
466.05	5151.52
466.23	5158.54
466.41	5177.26
466.60	5371.53
466.78	5041.51
466.96	5139.82
467.14	5142.16
467.32	5186.63
467.51	5352.81
467.69	5200.67
467.87	5291.95
468.05	5277.91
468.23	5165.56
468.41	5247.48
468.60	5369.19
468.78	5303.65
468.96	5432.38
469.14	5500.26
469.32	5317.70
469.50	5465.15
469.69	5446.43
469.87	5633.67
470.05	5575.16
470.23	5668.78
470.41	5806.87
470.59	5504.94
470.77	5540.05
470.95	5582.18
471.14	5827.93
471.32	5825.59
471.50	5891.13
471.68	5696.86
471.86	5666.44
472.04	5818.57
472.22	5900.49
472.40	5778.78
472.58	5989.43
472.77	5891.13
472.95	5877.09
473.13	6183.70
473.31	6054.97
473.49	5956.66
473.67	6066.67
473.85	6024.54
474.03	6258.59
474.21	6195.40
474.39	6291.36
474.57	6389.66
474.75	6246.89
474.93	6511.37
475.12	6331.15
475.30	6387.32
475.48	6286.68
475.66	6331.15
475.84	6289.02
476.02	6654.14
476.20	6586.27
476.38	6588.61
476.56	6647.12
476.74	6829.68
476.92	6832.02
477.10	6698.61
477.28	6780.53
477.46	6808.62
477.64	7033.31
477.82	6895.22
478.00	7145.66
478.18	7035.65
478.36	7101.19
478.54	7229.91
478.72	7468.65
478.90	7300.13
479.08	7417.16
479.26	7480.35
479.44	7470.99
479.62	7564.61
479.80	7660.57
479.98	7721.43
480.16	7508.44
480.34	7875.90
480.52	7995.27
480.70	7679.30
480.88	7908.67
481.06	8051.44
481.24	7901.65
481.41	8051.44
481.59	8266.77
481.77	8205.92
481.95	8376.78
482.13	8390.82
482.31	8500.83
482.49	8472.74
482.67	8425.93
482.85	8531.25
483.03	8765.31
483.21	8961.91
483.39	9074.26
483.57	8875.31
483.74	8821.48
483.92	9217.03
484.10	8952.55
484.28	9095.32
484.46	9149.15
484.64	9479.17
484.82	9221.71
485.00	9268.52
485.18	9575.13
485.35	9736.63
485.53	9694.50
485.71	9666.41
485.89	9961.32
486.07	9811.53
486.25	9966.00
486.43	9895.78
486.61	9994.09
486.78	10253.89
486.96	10083.03
487.14	10462.19
487.32	10303.04
487.50	10445.81
487.68	10541.77
487.85	10597.95
488.03	10757.10
488.21	10796.89
488.39	10864.77
488.57	11030.94
488.75	11108.18
488.92	11225.21
489.10	11337.56
489.28	11485.01
489.46	11611.40
489.64	11297.77
489.81	11489.69
489.99	11695.66
490.17	11690.98
490.35	11712.04
490.53	11819.71
490.70	12053.76
490.88	11857.15
491.06	12051.42
491.24	12039.72
491.41	12243.34
491.59	12383.77
491.77	12475.06
491.95	12453.99
492.13	12465.69
492.30	12629.53
492.48	12805.07
492.66	12886.99
492.84	12636.55
493.01	12933.80
493.19	12830.82
493.37	13280.20
493.54	13392.55
493.72	13256.79
493.90	13366.80
494.08	13352.76
494.25	13628.94
494.43	13462.76
494.61	13444.04
494.79	13823.20
494.96	13846.61
495.14	13830.23
495.32	14045.55
495.49	14310.04
495.67	13984.70
495.85	14207.05
496.02	14073.64
496.20	14284.29
496.38	14436.42
496.55	14473.87
496.73	14836.66
496.91	14696.22
497.09	14668.14
497.26	14731.33
497.44	14726.65
497.62	14560.47
497.79	14972.41
497.97	15115.18
498.14	15351.57
498.32	15447.54
498.50	15183.06
498.67	15604.35
498.85	15508.39
499.03	15456.90
499.20	15449.88
499.38	15555.20
499.56	15756.49
499.73	15463.92
499.91	15854.79
500.08	16098.20
500.26	15569.24
500.44	15864.15
500.61	15880.53
500.79	16126.29
500.97	16154.38
501.14	16402.47
501.32	16252.68
501.49	16100.55
501.67	16070.12
501.84	16325.24
502.02	16332.26
502.20	16233.96
502.37	16751.21
502.55	16627.17
502.72	16393.11
502.90	16531.20
503.07	16358.00
503.25	17128.04
503.43	16835.47
503.60	17228.68
503.78	17350.39
503.95	17275.49
504.13	17394.86
504.30	17179.53
504.48	17277.83
504.65	17488.48
504.83	17640.62
505.01	17621.89
505.18	17572.74
505.36	17713.17
505.53	17584.44
505.71	17685.09
505.88	17476.78
506.06	17579.76
506.23	18139.15
506.41	18001.06
506.58	17874.67
506.76	17909.78
506.93	17937.87
507.11	18005.74
507.28	18082.98
507.46	18003.40
507.63	18284.26
507.81	18637.69
507.98	18078.30
508.16	18602.58
508.33	18445.76
508.50	18602.58
508.68	18415.34
508.85	18897.49
509.03	18665.77
509.20	18806.20
509.38	19227.50
509.55	18724.29
509.73	18902.17
509.90	19302.40
510.08	19140.90
510.25	18829.61
510.42	19108.13
510.60	19260.27
510.77	19491.98
510.95	19463.90
511.12	19328.14
511.30	19250.91
511.47	19431.13
511.64	19594.96
511.82	19747.10
511.99	19651.14
512.17	19899.23
512.34	19814.98
512.51	19796.25
512.69	19826.68
512.86	20004.56
513.04	20411.81
513.21	20210.53
513.38	19992.86
513.56	20203.50
513.73	20128.61
513.90	20226.91
514.08	20093.50
514.25	20453.94
514.43	20727.78
514.60	20149.67
514.77	20334.57
514.95	20821.41
515.12	20500.75
515.29	20496.07
515.47	20603.74
515.64	20809.70
515.81	21069.50
515.99	21050.78
516.16	21013.33
516.33	20755.87
516.51	21418.24
516.68	21055.46
516.85	20971.20
517.03	21341.00
517.20	21207.59
517.37	21565.70
517.54	21273.13
517.72	21238.02
517.89	21137.38
518.06	21385.47
518.24	21436.97
518.41	21291.85
518.58	21563.36
518.75	21638.25
518.93	21462.71
519.10	21867.63
519.27	21624.21
519.45	21612.51
519.62	21703.79
519.79	21804.43
519.96	21853.58
520.14	21919.12
520.31	22113.38
520.48	21914.44
520.65	21951.88
520.83	22270.20
521.00	22164.87
521.17	22274.88
521.34	22408.29
521.52	22312.33
521.69	22317.01
521.86	22679.79
522.03	22405.95
522.20	22712.56
522.38	22405.95
522.55	22171.89
522.72	22520.63
522.89	22691.49
523.07	23002.78
523.24	22609.58
523.41	22852.99
523.58	22806.18
523.75	22995.76
523.92	22948.95
524.10	22946.61
524.27	23005.13
524.44	22803.84
524.61	23407.70
524.78	23503.66
524.96	23077.68
525.13	23138.54
525.30	23508.34
525.47	23440.47
525.64	23405.36
525.81	23543.45
525.98	23606.64
526.16	23798.57
526.33	23517.70
526.50	23679.20
526.67	23538.77
526.84	23630.05
527.01	23840.70
527.18	24156.67
527.36	23793.89
527.53	24112.20
527.70	24233.91
527.87	24184.76
528.04	23873.46
528.21	24393.06
528.38	23962.40
528.55	24166.03
528.72	24177.73
528.89	24201.14
529.07	23960.06
529.24	24156.67
529.41	24140.29
529.58	24304.12
529.75	24456.26
529.92	24559.24
530.09	24261.99
530.26	24386.04
530.43	24718.40
530.60	24479.66
530.77	24573.28
530.94	24926.71
531.11	24446.90
531.28	24346.25
531.46	24692.65
531.63	24676.27
531.80	24723.08
531.97	25013.31
532.14	25109.27
532.31	24783.93
532.48	25036.71
532.65	25039.05
532.82	24645.84
532.99	25076.50
533.16	25156.08
533.33	25088.20
533.50	25469.71
533.67	25287.15
533.84	25095.22
534.01	25184.16
534.18	25214.59
534.35	25411.20
534.52	25074.16
534.69	25642.91
534.86	25575.03
535.03	25312.89
535.20	25317.57
535.37	25642.91
535.54	25802.07
535.71	25312.89
535.88	25605.46
536.05	25521.20
536.22	25736.53
536.38	25642.91
536.55	26012.71
536.72	25734.19
536.89	25687.38
537.06	26036.12
537.23	26195.28
537.40	25539.93
537.57	25848.88
537.74	26309.96
537.91	26525.29
538.08	26223.36
538.25	26050.16
538.42	26553.38
538.59	25893.35
538.75	26120.38
538.92	26019.74
539.09	26024.42
539.26	26445.71
539.43	26363.79
539.60	26469.12
539.77	26609.55
539.94	26370.82
540.11	26801.47
540.28	26590.83
540.44	26410.60
540.61	26263.15
540.78	26408.26
540.95	26132.08
541.12	26445.71
541.29	27019.14
541.46	26569.76
541.62	26668.06
541.79	27061.27
541.96	26539.33
542.13	27098.72
542.30	26876.37
542.47	27115.11
542.63	27068.30
542.80	27159.58
542.97	27536.40
543.14	27112.77
543.31	27094.04
543.48	27164.26
543.64	27222.77
543.81	27536.40
543.98	27477.89
544.15	27290.65
544.32	27562.15
544.48	27658.11
544.65	27552.79
544.82	27620.66
544.99	27358.52
545.16	27709.60
545.32	27454.48
545.49	28189.41
545.66	28109.83
545.83	27955.36
546.00	28329.84
546.16	27594.92
546.33	27693.22
546.50	27180.64
546.67	27845.35
546.83	27358.52
547.00	27676.83
547.17	27791.52
547.34	28222.18
547.50	28105.15
547.67	28056.00
547.84	27962.38
548.00	28095.79
548.17	28027.92
548.34	27917.91
548.51	28149.62
548.67	28608.37
548.84	28421.13
549.01	28030.26
549.18	28058.34
549.34	28091.11
549.51	28357.93
549.68	27924.93
549.84	28189.41
550.01	28388.36
550.18	28453.89
550.34	28423.47
550.51	28797.95
550.68	28678.58
550.84	28201.11
551.01	28657.52
551.18	28095.79
551.34	28381.34
551.51	28690.29
551.68	28950.09
551.84	28687.95
552.01	28678.58
552.18	29027.32
552.34	28610.71
552.51	28877.53
552.68	28662.20
552.84	29092.86
553.01	29085.84
553.18	28753.48
553.34	28936.04
553.51	28713.69
553.67	29006.26
553.84	29497.77
554.01	28861.15
554.17	29340.96
554.34	29242.65
554.51	28769.86
554.67	29385.43
554.84	29443.94
555.00	28996.90
555.17	29095.20
555.33	29322.23
555.50	28826.04
555.67	29127.97
555.83	29326.91
556.00	29399.47
556.16	30052.48
556.33	29373.72
556.50	29200.52
556.66	29364.36
556.83	29343.30
556.99	29500.11
557.16	29572.67
557.32	29638.20
557.49	29804.38
557.65	29333.93
557.82	29551.60
557.98	29682.67
558.15	29298.83
558.32	29951.84
558.48	29984.60
558.65	29677.99
558.81	29860.55
558.98	29598.41
559.14	29369.04
559.31	29666.29
559.47	29593.73
559.64	29577.35
559.80	29776.30
559.97	30064.18
560.13	29783.32
560.30	29788.00
560.46	29846.51
560.63	29886.30
560.79	29937.79
560.96	29607.78
561.12	30101.63
561.29	29724.80
561.45	29961.20
561.61	30370.79
561.78	29853.53
561.94	29813.74
562.11	30132.06
562.27	29923.75
562.44	30087.59
562.60	29668.63
562.77	29902.68
562.93	30218.66
563.10	30089.93
563.26	29785.66
563.42	30298.23
563.59	30136.74
563.75	30307.60
563.92	30419.94
564.08	30101.63
564.24	30157.80
564.41	30246.74
564.57	29813.74
564.74	30553.35
564.90	30581.44
565.07	30448.03
565.23	30508.88
565.39	30340.36
565.56	30731.23
565.72	30314.62
565.88	30235.04
566.05	30178.87
566.21	30408.24
566.38	30511.22
566.54	30614.21
566.70	30424.62
566.87	30796.77
567.03	30293.55
567.19	30792.09
567.36	30789.75
567.52	30288.87
567.68	30511.22
567.85	30611.87
568.01	30574.42
568.17	30543.99
568.34	30321.64
568.50	30230.36
568.66	30567.40
568.83	31054.23
568.99	30525.27
569.15	30581.44
569.32	30536.97
569.48	30356.75
569.64	30656.34
569.81	30511.22
569.97	30850.60
570.13	30684.42
570.30	30555.69
570.46	30740.60
570.62	30787.41
570.78	30443.35
570.95	30305.26
571.11	30511.22
571.27	30178.87
571.43	30494.84
571.60	30930.18
571.76	30373.13
571.92	30609.53
572.09	30539.31
572.25	30906.77
572.41	31096.36
572.57	30749.96
572.74	30941.88
572.90	30705.49
573.06	30356.75
573.22	30792.09
573.38	30946.56
573.55	30691.44
573.71	30897.41
573.87	31040.18
574.03	30958.27
574.20	30904.43
574.36	30831.88
574.52	30944.22
574.68	30761.66
574.84	31133.81
575.01	30668.04
575.17	31044.87
575.33	30595.48
575.49	31211.04
575.65	30801.45
575.82	30831.88
575.98	30878.69
576.14	30766.34
576.30	31131.47
576.46	30871.67
576.62	30686.76
576.79	30953.58
576.95	30869.33
577.11	30766.34
577.27	31030.82
577.43	30890.39
577.59	31016.78
577.75	31133.81
577.92	30913.80
578.08	30775.70
578.24	30773.36
578.40	30866.98
578.56	30815.49
578.72	31178.28
578.88	31278.92
579.04	31482.55
579.21	31000.40
579.37	31171.25
579.53	31475.52
579.69	30382.49
579.85	31131.47
580.01	30918.48
580.17	30780.39
580.33	31197.00
580.49	31131.47
580.65	30756.98
580.82	31248.49
580.98	31314.03
581.14	31103.38
581.30	31365.52
581.46	30953.58
581.62	30433.99
581.78	31037.84
581.94	30960.61
582.10	30771.02
582.26	31129.12
582.42	31033.16
582.58	31180.62
582.74	31164.23
582.90	31082.31
583.06	31204.02
583.22	30986.35
583.38	31040.18
583.54	31194.66
583.70	30794.43
583.86	31030.82
584.02	30927.84
584.18	31360.84
584.34	31421.69
584.50	31475.52
584.66	31377.22
584.82	30616.55
584.98	31051.89
585.14	30878.69
585.30	30576.76
585.46	31211.04
585.62	30801.45
585.78	31519.99
585.94	31299.98
586.10	31035.50
586.26	31367.86
586.42	31274.24
586.58	31510.63
586.74	31012.10
586.90	31082.31
587.06	31524.68
587.22	31166.57
587.38	31241.47
587.54	31524.68
587.70	31737.66
587.86	31700.22
588.02	31625.32
588.18	31587.87
588.34	31440.42
588.49	31412.33
588.65	31168.91
588.81	31075.29
588.97	31487.23
589.13	31274.24
589.29	31295.30
589.45	31370.20
589.61	31555.10
589.77	31917.89
589.93	31611.28
590.08	31622.98
590.24	31374.88
590.40	31826.60
590.56	31498.93
590.72	31496.59
590.88	31424.03
591.04	31644.04
591.20	31386.58
591.35	31587.87
591.51	32023.21
591.67	31674.47
591.83	31672.13
591.99	31887.46
592.15	31597.23
592.31	31524.68
592.46	31299.98
592.62	31487.23
592.78	31243.81
592.94	31735.32
593.10	31981.08
593.26	31524.68
593.41	32039.59
593.57	31452.12
593.73	31379.56
593.89	31824.26
594.05	31644.04
594.20	31641.70
594.36	31805.54
594.52	31536.38
594.68	31742.35
594.84	31826.60
594.99	31784.48
595.15	31955.33
595.31	31784.48
595.47	31791.50
595.62	31992.78
595.78	31892.14
595.94	31566.81
596.10	31655.75
596.25	31510.63
596.41	31679.15
596.57	31435.74
596.73	31929.59
596.88	31318.71
597.04	32053.64
597.20	31770.43
597.36	32238.54
597.51	31871.07
597.67	31861.71
597.83	31669.79
597.99	31662.77
598.14	31749.37
598.30	31838.31
598.46	31697.88
598.61	32177.68
598.77	31557.44
598.93	31798.52
599.09	32020.87
599.24	32268.97
599.40	32203.43
599.56	32278.33
599.71	31665.11
599.87	31985.76
600.03	31576.17
600.18	31559.78
600.34	31660.43
600.50	31660.43
600.65	31761.07
600.81	32070.02
600.97	31922.57
601.12	32217.47
601.28	32287.69
601.44	31974.06
601.59	32011.51
601.75	31812.56
601.91	32149.60
602.06	31889.80
602.22	31508.29
602.37	31988.10
602.53	31826.60
602.69	31688.51
602.84	31819.58
603.00	32055.98
603.16	31892.14
603.31	31892.14
603.47	32055.98
603.62	31674.47
603.78	31543.40
603.94	31622.98
604.09	31920.23
604.25	31765.75
604.40	32165.98
604.56	31653.40
604.71	32081.72
604.87	31665.11
605.03	32158.96
605.18	31718.94
605.34	32407.06
605.49	32051.30
605.65	31707.24
605.80	31449.78
605.96	31943.63
606.12	31473.18
606.27	31917.89
606.43	31721.28
606.58	31854.69
606.74	31896.82
606.89	32011.51
607.05	32055.98
607.20	31917.89
607.36	31768.09
607.51	31945.97
607.67	31473.18
607.82	31850.01
607.98	31756.39
608.13	31688.51
608.29	31445.10
608.44	31632.34
608.60	31388.92
608.75	32116.83
608.91	31955.33
609.06	32011.51
609.22	31637.02
609.37	31585.53
609.53	31817.24
609.68	31606.59
609.84	31578.51
609.99	31732.98
610.15	32020.87
610.30	31515.31
610.46	31517.65
610.61	31754.05
610.76	31447.44
610.92	31885.12
611.07	31133.81
611.23	31541.06
611.38	31508.29
611.54	31768.09
611.69	30855.28
611.84	31557.44
612.00	31337.43
612.15	31253.17
612.31	31704.90
612.46	31363.18
612.62	31388.92
612.77	31674.47
612.92	31576.17
613.08	31311.69
613.23	31793.84
613.39	31335.09
613.54	31192.32
613.69	31381.90
613.85	31344.45
614.00	31091.68
614.15	31524.68
614.31	31391.26
614.46	31658.09
614.62	31299.98
614.77	31173.60
614.92	31274.24
615.08	31335.09
615.23	31756.39
615.38	31023.80
615.54	31082.31
615.69	31000.40
615.84	31232.11
616.00	30946.56
616.15	31274.24
616.30	31421.69
616.46	30742.94
616.61	31023.80
616.76	31297.64
616.92	31058.91
617.07	31101.04
617.22	31140.83
617.37	30684.42
617.53	30780.39
617.68	30897.41
617.83	31168.91
617.99	30925.50
618.14	31087.00
618.29	30602.50
618.45	31103.38
618.60	31187.64
618.75	30969.97
618.90	31012.10
619.06	30827.20
619.21	30843.58
619.36	30930.18
619.51	30803.79
619.67	30518.25
619.82	30335.68
619.97	30726.55
620.12	30623.57
620.28	30412.92
620.43	30792.09
620.58	30967.63
620.73	30485.48
620.89	31051.89
621.04	30991.03
621.19	30546.33
621.34	30560.37
621.49	30359.09
621.65	30651.66
621.80	30614.21
621.95	30450.37
622.10	30555.69
622.25	30443.35
622.41	30635.27
622.56	30452.71
622.71	30822.51
622.86	30700.81
623.01	30335.68
623.16	30548.67
623.32	29958.86
623.47	30382.49
623.62	30225.68
623.77	30199.93
623.92	30359.09
624.07	29823.11
624.23	30148.44
624.38	30417.60
624.53	30183.55
624.68	30703.15
624.83	30572.08
624.98	30326.32
625.13	30576.76
625.29	30483.14
625.44	29706.08
625.59	29975.24
625.74	30012.69
625.89	30075.88
626.04	29752.89
626.19	29965.88
626.34	29181.80
626.49	29710.76
626.65	29848.85
626.80	29677.99
626.95	29820.77
627.10	30026.73
627.25	30064.18
627.40	29619.48
627.55	29790.34
627.70	29972.90
627.85	29577.35
628.00	29614.80
628.15	29832.47
628.30	29729.48
628.45	29699.06
628.60	29677.99
628.76	30052.48
628.91	30047.80
629.06	29965.88
629.21	29900.34
629.36	29680.33
629.51	29542.24
629.66	29652.25
629.81	29308.19
629.96	29523.52
630.11	29188.82
630.26	29453.30
630.41	29385.43
630.56	29188.82
630.71	29537.56
630.86	29706.08
631.01	29642.88
631.16	29530.54
631.31	29497.77
631.46	29139.67
631.61	29521.18
631.76	29240.31
631.91	29064.77
632.06	29418.19
632.21	29544.58
632.36	28973.49
632.51	29305.85
632.66	29661.61
632.81	29149.03
632.96	29186.48
633.10	29181.80
633.25	29170.10
633.40	29521.18
633.55	29371.38
633.70	28683.27
633.85	29174.78
634.00	29397.13
634.15	28978.17
634.30	28945.41
634.45	29205.20
634.60	29088.18
634.75	29158.39
634.90	28914.98
635.05	29305.85
635.19	28875.19
635.34	29188.82
635.49	28961.79
635.64	29027.32
635.79	28952.43
635.94	28727.74
636.09	28804.97
636.24	28966.47
636.39	28786.25
636.53	29237.97
636.68	28673.90
636.83	28893.91
636.98	29024.98
637.13	28748.80
637.28	28966.47
637.43	28889.23
637.57	28608.37
637.72	28706.67
637.87	28744.12
638.02	28622.41
638.17	28802.63
638.32	28587.30
638.46	28573.26
638.61	28187.07
638.76	28173.03
638.91	28121.54
639.06	28643.48
639.20	28816.68
639.35	28711.35
639.50	28655.18
639.65	28826.04
639.80	28922.00
639.94	28493.68
640.09	28758.16
640.24	28610.71
640.39	28311.12
640.54	28257.29
640.68	27931.95
640.83	28098.13
640.98	27990.47
641.13	28123.88
641.27	28041.96
641.42	28400.06
641.57	28273.67
641.72	28210.48
641.86	28292.40
642.01	28332.18
642.16	28418.78
642.31	27845.35
642.45	27957.70
642.60	28233.88
642.75	27782.16
642.90	28013.87
643.04	27686.20
643.19	27969.40
643.34	28182.39
643.48	28332.18
643.63	28219.84
643.78	27747.05
643.93	28135.58
644.07	28006.85
644.22	27784.50
644.37	27803.22
644.51	27868.76
644.66	27566.83
644.81	28018.55
644.95	27718.96
645.10	27709.60
645.25	27447.46
645.39	27784.50
645.54	27964.72
645.69	27910.89
645.83	27756.41
645.98	27693.22
646.13	27754.07
646.27	27789.18
646.42	27866.42
646.57	27686.20
646.71	27772.80
646.86	27880.46
647.00	27630.02
647.15	27615.98
647.30	27541.08
647.44	27522.36
647.59	27798.54
647.74	26977.01
647.88	27548.11
648.03	27566.83
648.17	27548.11
648.32	27620.66
648.47	27765.78
648.61	27824.29
648.76	27505.98
648.90	27475.55
649.05	27527.04
649.20	26958.29
649.34	27520.02
649.49	27175.96
649.63	27281.28
649.78	26958.29
649.92	27194.68
650.07	27208.73
650.21	27054.25
650.36	27407.67
650.51	27192.34
650.65	27246.18
650.80	27480.23
650.94	27147.87
651.09	27157.24
651.23	26707.85
651.38	27349.16
651.52	26995.74
651.67	27005.10
651.81	27566.83
651.96	26918.50
652.10	26803.82
652.25	26628.27
652.39	27257.88
652.54	27108.08
652.68	26993.40
652.83	27138.51
652.97	27159.58
653.12	27061.27
653.26	27175.96
653.41	27201.71
653.55	26890.41
653.70	26841.26
653.84	26749.98
653.99	26403.58
654.13	26782.75
654.27	26995.74
654.42	26661.04
654.56	26642.32
654.71	26775.73
654.85	26888.07
655.00	26726.58
655.14	26876.37
655.29	26677.43
655.43	26745.30
655.57	26403.58
655.72	26499.55
655.86	26679.77
656.01	26436.35
656.15	26370.82
656.30	26438.69
656.44	26263.15
656.58	26494.86
656.73	26111.02
656.87	26459.76
657.01	26370.82
657.16	26553.38
657.30	26824.88
657.45	26373.16
657.59	26277.19
657.73	26401.24
657.88	26185.91
658.02	26417.63
658.16	26209.32
658.31	25940.16
658.45	26103.99
658.60	25790.36
658.74	25830.15
658.88	25743.55
659.03	26246.77
659.17	25839.51
659.31	25841.85
659.46	26096.97
659.60	25659.29
659.74	25762.28
659.89	25968.24
660.03	26094.63
660.17	25792.70
660.32	25446.30
660.46	25769.30
660.60	25336.30
660.74	25818.45
660.89	25844.20
661.03	25509.50
661.17	25624.18
661.32	25214.59
661.46	25900.37
661.60	25731.85
661.74	25493.12
661.89	25668.66
662.03	25764.62
662.17	25722.49
662.31	25273.10
662.46	25523.54
662.60	25357.36
662.74	25205.23
662.88	25331.62
663.03	25090.54
663.17	24961.81
663.31	24725.42
663.45	24868.19
663.60	24915.00
663.74	24884.58
663.88	25120.97
664.02	24758.19
664.17	25048.41
664.31	25268.42
664.45	25097.56
664.59	25191.19
664.73	25015.65
664.88	24741.80
665.02	24725.42
665.16	24765.21
665.30	24683.29
665.44	24648.18
665.59	24407.11
665.73	24428.17
665.87	24547.54
666.01	24580.31
666.15	24795.64
666.29	24477.32
666.44	24664.57
666.58	24463.28
666.72	24257.31
666.86	24568.60
667.00	24924.36
667.14	24212.84
667.28	24130.92
667.43	24400.08
667.57	24224.54
667.71	23810.27
667.85	24002.19
667.99	24077.09
668.13	23861.76
668.27	24123.90
668.41	24126.24
668.56	23978.79
668.70	23805.59
668.84	24208.16
668.98	24039.64
669.12	24053.69
669.26	23606.64
669.40	23580.90
669.54	23873.46
669.68	23910.91
669.82	23459.19
669.96	23489.62
670.10	23180.67
670.25	23522.38
670.39	23318.76
670.53	23754.10
670.67	23388.97
670.81	23365.57
670.95	23274.29
671.09	23723.67
671.23	23491.96
671.37	23543.45
671.51	23440.47
671.65	23363.23
671.79	23438.12
671.93	22843.63
672.07	23211.09
672.21	22710.22
672.35	23037.89
672.49	22789.80
672.63	22829.59
672.77	22742.99
672.91	22827.24
673.05	22532.34
673.19	22754.69
673.33	22654.05
673.47	22642.34
673.61	22958.31
673.75	22820.22
673.89	22618.94
674.03	22232.75
674.17	22588.51
674.31	22167.21
674.45	22349.78
674.59	22279.56
674.73	22459.78
674.87	22218.71
675.01	22405.95
675.15	21841.88
675.29	21853.58
675.43	21652.30
675.56	22001.04
675.70	21638.25
675.84	21844.22
675.98	21219.30
676.12	22305.31
676.26	22082.95
676.40	21692.08
676.54	21797.41
676.68	21532.93
676.82	21186.53
676.96	21458.03
677.10	21432.29
677.23	21085.89
677.37	21216.96
677.51	20989.92
677.65	21476.76
677.79	21036.74
677.93	20919.71
678.07	21010.99
678.21	20521.82
678.34	21057.80
678.48	20772.25
678.62	20650.55
678.76	20613.10
678.90	20634.16
679.04	20769.91
679.18	20610.76
679.31	20341.60
679.45	20290.10
679.59	20180.10
679.73	19894.55
679.87	20086.48
680.00	19859.45
680.14	20107.54
680.28	19833.70
680.42	20168.40
680.56	20091.16
680.70	19843.06
680.83	19744.76
680.97	20079.46
681.11	19700.29
681.25	19536.45
681.39	19747.10
681.52	19440.49
681.66	19398.36
681.80	19398.36
681.94	19487.30
682.07	19248.57
682.21	19400.70
682.35	19150.26
682.49	19105.79
682.62	19054.30
682.76	19108.13
682.90	19239.20
683.04	19094.09
683.17	18951.32
683.31	19091.75
683.45	18750.03
683.59	18927.91
683.72	18703.22
683.86	18576.83
684.00	18567.47
684.13	18588.53
684.27	18457.46
684.41	18129.79
684.55	18218.73
684.68	18200.01
684.82	18101.70
684.96	18097.02
685.09	17860.63
685.23	17795.09
685.37	18078.30
685.50	18026.81
685.64	17802.11
685.78	17930.84
685.91	18054.89
686.05	17942.55
686.19	17933.18
686.32	17680.41
686.46	17252.09
686.60	17390.18
686.73	17427.63
686.87	17420.61
687.01	17380.82
687.14	17198.26
687.28	16996.97
687.42	17315.28
687.55	17132.72
687.69	17067.19
687.82	16882.28
687.96	17109.32
688.10	16847.18
688.23	16723.13
688.37	16685.68
688.50	16840.15
688.64	16570.99
688.78	16676.32
688.91	16552.27
689.05	16526.52
689.18	16212.89
689.32	16224.59
689.46	16294.81
689.59	16313.53
689.73	16182.46
689.86	16180.12
690.00	16154.38
690.13	16030.33
690.27	15709.68
690.41	16276.09
690.54	15967.13
690.68	16013.95
690.81	15742.44
690.95	15695.63
691.08	15829.04
691.22	15941.39
691.35	15606.69
691.49	15644.14
691.62	15250.93
691.76	15442.85
691.89	15283.70
692.03	15239.23
692.16	15105.82
692.30	15117.52
692.43	14937.30
692.57	14853.04
692.70	14686.86
692.84	14771.12
692.97	15005.17
693.11	15056.67
693.24	14630.69
693.38	14642.39
693.51	14761.76
693.65	14602.60
693.78	14579.20
693.92	14689.20
694.05	14586.22
694.19	14251.52
694.32	14368.55
694.45	13998.74
694.59	14267.91
694.72	14246.84
694.86	13975.34
694.99	13792.78
695.13	13944.91
695.26	13968.32
695.39	13912.14
695.53	13902.78
695.66	13947.25
695.80	13734.26
695.93	13837.25
696.07	13907.46
696.20	13706.18
696.33	13462.76
696.47	13593.83
696.60	13453.40
696.73	13490.85
696.87	13130.41
697.00	13153.81
697.14	13160.83
697.27	13240.41
697.40	13057.85
697.54	12929.12
697.67	13097.64
697.80	12844.86
697.94	12762.94
698.07	12587.40
698.21	12762.94
698.34	12910.40
698.47	12521.87
698.61	12524.21
698.74	12631.87
698.87	12863.58
699.01	12416.54
699.14	12423.56
699.27	12196.53
699.40	12056.10
699.54	12287.81
699.67	11983.54
699.80	12121.63
699.94	12070.14
700.07	11939.07
700.20	12011.63
700.34	11735.45
700.47	11934.39
700.60	11751.83
700.73	11948.43
700.87	11838.43
701.00	11824.39
701.13	11585.65
701.26	11761.19
701.40	11583.31
701.53	11800.98
701.66	11829.07
701.79	11639.48
701.93	11445.22
702.06	11353.94
702.19	11393.73
702.32	11267.34
702.46	11201.80
702.59	11286.06
702.72	11023.92
702.85	11037.97
702.99	11000.52
703.12	11009.88
703.25	10803.91
703.38	11026.26
703.51	10733.70
703.65	10794.55
703.78	10743.06
703.91	10834.34
704.04	10808.59
704.17	10827.32
704.31	10778.17
704.44	10480.92
704.57	10558.16
704.70	10382.62
704.83	10059.62
704.96	10235.16
705.10	10181.33
705.23	10073.67
>>>>>End Processed Spectral Data<<<<<
