SpectraSuite Data File
++++++++++++++++++++++++++++++++++++
Date: Fri Oct 18 13:58:02 GMT-05:00 2013
User: bianchi
Dark Spectrum Present: No
Reference Spectrum Present: No
Number of Sampled Component Spectra: 1
Spectrometers: USB2+H05261
Integration Time (usec): 50000 (USB2+H05261)
Spectra Averaged: 1 (USB2+H05261)
Boxcar Smoothing: 0 (USB2+H05261)
Correct for Electrical Dark: No (USB2+H05261)
Strobe/Lamp Enabled: No (USB2+H05261)
Correct for Detector Non-linearity: No (USB2+H05261)
Correct for Stray Light: No (USB2+H05261)
Number of Pixels in Processed Spectrum: 2048
>>>>>Begin Processed Spectral Data<<<<<
365.73	0.00
365.92	0.00
366.12	0.00
366.32	0.00
366.52	0.00
366.72	0.00
366.91	0.00
367.11	0.00
367.31	0.00
367.51	0.00
367.70	0.00
367.90	0.00
368.10	0.00
368.30	0.00
368.49	0.00
368.69	0.00
368.89	0.00
369.09	0.00
369.28	0.00
369.48	0.00
369.68	0.00
369.87	0.00
370.07	0.00
370.27	0.00
370.47	0.00
370.66	37.45
370.86	128.73
371.06	170.86
371.25	107.66
371.45	126.39
371.65	98.30
371.84	156.82
372.04	140.43
372.24	180.22
372.44	60.85
372.63	201.29
372.83	208.31
373.03	161.50
373.22	182.56
373.42	241.08
373.62	234.05
373.81	266.82
374.01	182.56
374.21	241.08
374.40	231.71
374.60	262.14
374.79	201.29
374.99	210.65
375.19	271.50
375.38	264.48
375.58	271.50
375.78	262.14
375.97	308.95
376.17	313.63
376.37	280.86
376.56	217.67
376.76	262.14
376.95	238.73
377.15	276.18
377.35	306.61
377.54	320.65
377.74	252.78
377.93	311.29
378.13	280.86
378.33	322.99
378.52	276.18
378.72	234.05
378.91	266.82
379.11	287.89
379.31	346.40
379.50	255.12
379.70	365.12
379.89	287.89
380.09	304.27
380.28	287.89
380.48	269.16
380.68	210.65
380.87	334.70
381.07	334.70
381.26	334.70
381.46	299.59
381.65	292.57
381.85	360.44
382.04	372.15
382.24	374.49
382.43	353.42
382.63	358.10
382.83	315.97
383.02	421.30
383.22	395.55
383.41	346.40
383.61	351.08
383.80	339.38
384.00	372.15
384.19	315.97
384.39	330.02
384.58	381.51
384.78	414.27
384.97	395.55
385.17	395.55
385.36	423.64
385.56	407.25
385.75	341.72
385.95	367.46
386.14	463.43
386.34	330.02
386.53	360.44
386.72	456.40
386.92	472.79
387.11	505.56
387.31	400.23
387.50	428.32
387.70	372.15
387.89	407.25
388.09	444.70
388.28	444.70
388.48	379.17
388.67	517.26
388.86	477.47
389.06	486.83
389.25	491.51
389.45	461.09
389.64	463.43
389.84	468.11
390.03	545.34
390.22	454.06
390.42	468.11
390.61	428.32
390.81	493.85
391.00	531.30
391.19	573.43
391.39	575.77
391.58	552.37
391.78	519.60
391.97	573.43
392.16	568.75
392.36	540.66
392.55	594.50
392.75	524.28
392.94	535.98
393.13	533.64
393.33	643.65
393.52	479.81
393.71	601.52
393.91	538.32
394.10	575.77
394.29	615.56
394.49	589.82
394.68	650.67
394.88	571.09
395.07	587.47
395.26	575.77
395.46	634.29
395.65	573.43
395.84	596.84
396.04	638.97
396.23	615.56
396.42	589.82
396.62	587.47
396.81	688.12
397.00	641.31
397.19	676.41
397.39	706.84
397.58	781.74
397.77	669.39
397.97	671.73
398.16	688.12
398.35	681.10
398.55	685.78
398.74	634.29
398.93	718.54
399.12	809.83
399.32	716.20
399.51	798.12
399.70	784.08
399.90	741.95
400.09	816.85
400.28	727.91
400.47	819.19
400.67	837.91
400.86	816.85
401.05	873.02
401.24	821.53
401.44	800.46
401.63	826.21
401.82	741.95
402.01	833.23
402.21	854.30
402.40	767.70
402.59	784.08
402.78	868.34
402.97	809.83
403.17	802.80
403.36	870.68
403.55	861.32
403.74	884.72
403.93	1001.75
404.13	971.32
404.32	835.57
404.51	844.93
404.70	917.49
404.89	896.43
405.09	912.81
405.28	985.37
405.47	863.66
405.66	1015.79
405.85	973.66
406.05	903.45
406.24	933.87
406.43	999.41
406.62	971.32
406.81	1018.13
407.00	1036.86
407.20	950.26
407.39	1029.84
407.58	1095.37
407.77	1083.67
407.96	1111.75
408.15	1104.73
408.34	1032.18
408.54	1062.60
408.73	1156.22
408.92	1018.13
409.11	1069.62
409.30	1104.73
409.49	1132.82
409.68	1165.59
409.87	1142.18
410.07	1172.61
410.26	1275.59
410.45	1287.29
410.64	1254.53
410.83	1224.10
411.02	1249.85
411.21	1193.67
411.40	1343.47
411.59	1210.06
411.78	1282.61
411.98	1263.89
412.17	1448.79
412.36	1240.48
412.55	1282.61
412.74	1343.47
412.93	1366.87
413.12	1350.49
413.31	1401.98
413.50	1364.53
413.69	1413.68
413.88	1460.49
414.07	1341.13
414.26	1556.46
414.45	1469.86
414.64	1434.75
414.83	1514.33
415.02	1544.75
415.22	1596.25
415.41	1519.01
415.60	1528.37
415.79	1678.16
415.98	1624.33
416.17	1558.80
416.36	1633.69
416.55	1624.33
416.74	1746.04
416.93	1739.02
417.12	1727.32
417.31	1633.69
417.50	1619.65
417.69	1760.08
417.88	1720.29
418.07	1739.02
418.26	1748.38
418.45	1668.80
418.64	1748.38
418.83	1799.87
419.02	1785.83
419.21	1863.07
419.39	1853.70
419.58	1902.86
419.77	1760.08
419.96	1940.30
420.15	1879.45
420.34	1900.52
420.53	1813.92
420.72	1975.41
420.91	1898.17
421.10	1853.70
421.29	1966.05
421.48	1867.75
421.67	1982.43
421.86	1921.58
422.05	1973.07
422.24	1844.34
422.43	1984.77
422.61	1846.68
422.80	1856.04
422.99	2029.24
423.18	2097.12
423.37	2062.01
423.56	2064.35
423.75	2015.20
423.94	1956.69
424.13	1853.70
424.32	1874.77
424.50	2146.27
424.69	2090.10
424.88	2127.55
425.07	2031.58
425.26	2012.86
425.45	1954.35
425.64	2132.23
425.83	2024.56
426.01	2033.93
426.20	2005.84
426.39	1989.46
426.58	2022.22
426.77	2052.65
426.96	2094.78
427.15	2155.63
427.33	2122.87
427.52	2069.03
427.71	2125.21
427.90	2172.02
428.09	2195.42
428.28	2127.55
428.46	2157.97
428.65	2193.08
428.84	2183.72
429.03	2289.04
429.22	2169.68
429.40	2272.66
429.59	2200.10
429.78	2232.87
429.97	2197.76
430.16	2319.47
430.34	2354.58
430.53	2403.73
430.72	2368.62
430.91	2277.34
431.10	2260.96
431.28	2349.90
431.47	2462.24
431.66	2452.88
431.85	2296.07
432.03	2293.72
432.22	2565.23
432.41	2356.92
432.60	2628.42
432.79	2396.71
432.97	2438.84
433.16	2373.30
433.35	2289.04
433.54	2504.37
433.72	2558.21
433.91	2478.63
434.10	2644.81
434.28	2569.91
434.47	2539.48
434.66	2635.44
434.85	2602.68
435.03	2506.71
435.22	2633.10
435.41	2757.15
435.59	2651.83
435.78	2724.38
435.97	2541.82
436.16	2635.44
436.34	2675.23
436.53	2656.51
436.72	2808.64
436.90	2675.23
437.09	2752.47
437.28	2722.04
437.46	2616.72
437.65	2834.39
437.84	2682.25
438.02	2693.96
438.21	2789.92
438.40	2794.60
438.58	2752.47
438.77	2984.18
438.96	2944.39
439.14	2883.54
439.33	2899.92
439.52	3133.98
439.70	2960.78
439.89	3040.36
440.08	3096.53
440.26	3054.40
440.45	3026.31
440.63	3070.78
440.82	3026.31
441.01	3091.85
441.19	3192.49
441.38	3117.59
441.57	3176.11
441.75	3234.62
441.94	3260.37
442.12	3272.07
442.31	3328.24
442.50	3255.69
442.68	3215.90
442.87	3260.37
443.05	3232.28
443.24	3377.39
443.43	3342.28
443.61	3351.65
443.80	3571.66
443.98	3361.01
444.17	3335.26
444.35	3375.05
444.54	3487.40
444.73	3515.48
444.91	3478.04
445.10	3445.27
445.28	3461.65
445.47	3375.05
445.65	3515.48
445.84	3550.59
446.02	3456.97
446.21	3499.10
446.39	3520.17
446.58	3541.23
446.77	3513.14
446.95	3548.25
447.14	3667.62
447.32	3487.40
447.51	3583.36
447.69	3672.30
447.88	3527.19
448.06	3492.08
448.25	3485.06
448.43	3435.91
448.62	3414.84
448.80	3459.31
448.99	3744.86
449.17	3669.96
449.36	3599.74
449.54	3751.88
449.73	3826.78
449.91	3796.35
450.10	3815.07
450.28	3831.46
450.46	3721.45
450.65	3707.41
450.83	3625.49
451.02	3735.50
451.20	3763.58
451.39	3801.03
451.57	3777.62
451.76	3735.50
451.94	3805.71
452.13	3892.31
452.31	3875.93
452.49	3822.09
452.68	3803.37
452.86	3850.18
453.05	4018.70
453.23	3845.50
453.42	3964.87
453.60	3999.98
453.78	3920.40
453.97	3906.35
454.15	3918.06
454.34	3833.80
454.52	3939.12
454.70	4067.85
454.89	4161.47
455.07	4100.62
455.26	4042.11
455.44	4072.53
455.62	4205.94
455.81	4058.49
455.99	4266.80
456.17	4102.96
456.36	3997.64
456.54	4189.56
456.73	4194.24
456.91	4264.46
457.09	4327.65
457.28	4358.08
457.46	4290.20
457.64	4540.64
457.83	4418.93
458.01	4231.69
458.19	4409.57
458.38	4325.31
458.56	4442.34
458.74	4472.76
458.93	4571.07
459.11	4358.08
459.29	4418.93
459.48	4475.10
459.66	4437.66
459.84	4554.68
460.03	4596.81
460.21	4596.81
460.39	4662.35
460.57	4667.03
460.76	4610.86
460.94	4690.43
461.12	4610.86
461.31	4660.01
461.49	4594.47
461.67	4447.02
461.85	4760.65
462.04	4657.67
462.22	4863.63
462.40	4753.63
462.59	4660.01
462.77	4823.84
462.95	4760.65
463.13	4919.81
463.32	4683.41
463.50	4816.82
463.68	4884.70
463.86	4837.89
464.05	4863.63
464.23	4762.99
464.41	4894.06
464.59	4870.65
464.78	5008.75
464.96	4882.36
465.14	4777.03
465.32	4985.34
465.50	4926.83
465.69	5088.32
465.87	4933.85
466.05	4793.42
466.23	4971.30
466.41	4975.98
466.60	5153.86
466.78	4990.02
466.96	5149.18
467.14	4968.96
467.32	5289.61
467.51	5266.21
467.69	5116.41
467.87	5163.22
468.05	5013.43
468.23	5186.63
468.41	5114.07
468.60	5179.61
468.78	5231.10
468.96	5432.38
469.14	5411.32
469.32	5273.23
469.50	5345.78
469.69	5497.92
469.87	5322.38
470.05	5502.60
470.23	5462.81
470.41	5420.68
470.59	5416.00
470.77	5329.40
470.95	5540.05
471.14	5600.90
471.32	5448.77
471.50	5568.13
471.68	5591.54
471.86	5537.71
472.04	5657.07
472.22	5818.57
472.40	5640.69
472.58	5900.49
472.77	5757.72
472.95	5703.89
473.13	6050.28
473.31	5823.25
473.49	5879.43
473.67	5916.87
473.85	5792.83
474.03	5970.71
474.21	6040.92
474.39	5898.15
474.57	6164.97
474.75	6211.78
474.93	6127.52
475.12	6090.07
475.30	6214.12
475.48	6181.35
475.66	6230.51
475.84	6200.08
476.02	6504.35
476.20	6251.57
476.38	6537.12
476.56	6773.51
476.74	6621.38
476.92	6656.48
477.10	6537.12
477.28	6750.10
477.46	6579.25
477.64	6860.11
477.82	6911.60
478.00	7042.67
478.18	7068.42
478.36	6988.84
478.54	7108.21
478.72	6911.60
478.90	7138.63
479.08	7084.80
479.26	7173.74
479.44	7372.69
479.62	7382.05
479.80	7463.97
479.98	7499.08
480.16	7522.48
480.34	7489.71
480.52	7639.51
480.70	7723.77
480.88	7576.31
481.06	7808.03
481.24	7754.19
481.41	7808.03
481.59	7847.82
481.77	8107.62
481.95	8119.32
482.13	8093.57
482.31	8093.57
482.49	8030.38
482.67	8231.66
482.85	8428.27
483.03	8477.42
483.21	8351.03
483.39	8613.17
483.57	8587.43
483.74	8631.90
483.92	8924.46
484.10	8758.28
484.28	9050.85
484.46	8973.61
484.64	9109.36
484.82	8835.52
485.00	9015.74
485.18	9322.35
485.35	9434.70
485.53	9413.63
485.71	9633.64
485.89	9710.88
486.07	9621.94
486.25	9668.75
486.43	9589.17
486.61	9799.82
486.78	9895.78
486.96	10047.92
487.14	10097.07
487.32	10167.29
487.50	10200.05
487.68	10319.42
487.85	10312.40
488.03	10443.47
488.21	10773.49
488.39	10525.39
488.57	10623.69
488.75	10729.02
488.92	10810.93
489.10	10951.37
489.28	10808.59
489.46	11133.93
489.64	11197.12
489.81	11332.87
489.99	11183.08
490.17	11243.93
490.35	11454.58
490.53	11569.27
490.70	11908.65
490.88	11789.28
491.06	11871.20
491.24	11822.05
491.41	11864.18
491.59	11690.98
491.77	11812.68
491.95	12241.00
492.13	12210.57
492.30	12432.93
492.48	12332.28
492.66	12308.88
492.84	12535.91
493.01	12461.01
493.19	12500.80
493.37	12489.10
493.54	12786.35
493.72	13001.68
493.90	12622.51
494.08	12910.40
494.25	13329.35
494.43	13327.01
494.61	13303.60
494.79	13078.91
494.96	13055.51
495.14	13411.27
495.32	13556.38
495.49	13771.71
495.67	13774.05
495.85	13907.46
496.02	14010.45
496.20	14267.91
496.38	13877.04
496.55	14132.15
496.73	14141.52
496.91	14061.94
497.09	14422.38
497.26	14408.34
497.44	14384.93
497.62	14424.72
497.79	14466.85
497.97	14508.98
498.14	14516.00
498.32	15019.22
498.50	14951.34
498.67	15054.33
498.85	15152.63
499.03	15229.87
499.20	15077.73
499.38	15342.21
499.56	15051.99
499.73	15456.90
499.91	15686.27
500.08	15372.64
500.26	15384.34
500.44	15370.30
500.61	15594.99
500.79	15583.29
500.97	15791.59
501.14	15653.50
501.32	16198.85
501.49	15927.35
501.67	15826.70
501.84	16042.03
502.02	16240.98
502.20	16035.01
502.37	16166.08
502.55	16236.30
502.72	15981.18
502.90	16269.06
503.07	16222.25
503.25	16460.99
503.43	16135.65
503.60	16297.15
503.78	16702.06
503.95	16517.16
504.13	16776.96
504.30	16826.11
504.48	16662.27
504.65	17097.61
504.83	17081.23
505.01	17184.21
505.18	16823.77
505.36	17064.85
505.53	17111.66
505.71	17429.97
505.88	17467.42
506.06	17067.19
506.23	17514.23
506.41	17528.27
506.58	17584.44
506.76	17596.15
506.93	17444.01
507.11	17572.74
507.28	17586.79
507.46	17834.88
507.63	17792.75
507.81	18113.41
507.98	17825.52
508.16	17685.09
508.33	17891.06
508.50	17951.91
508.68	18001.06
508.85	17942.55
509.03	18118.09
509.20	18420.02
509.38	18295.97
509.55	18581.51
509.73	18277.24
509.90	18735.99
510.08	18576.83
510.25	18391.93
510.42	18611.94
510.60	18675.13
510.77	18920.89
510.95	18974.72
511.12	18761.73
511.30	18787.48
511.47	18904.51
511.64	18909.19
511.82	19356.23
511.99	19145.58
512.17	19145.58
512.34	19136.22
512.51	19269.63
512.69	19173.67
512.86	19335.17
513.04	19063.66
513.21	19496.66
513.38	19311.76
513.56	19618.37
513.73	19679.22
513.90	19592.62
514.08	19559.86
514.25	19676.88
514.43	20093.50
514.60	20077.12
514.77	19917.96
514.95	20002.22
515.12	19791.57
515.29	19807.95
515.47	20126.27
515.64	20196.48
515.81	19800.93
515.99	20475.01
516.16	20570.97
516.33	20388.41
516.51	20549.90
516.68	20423.51
516.85	20320.53
517.03	20664.59
517.20	20697.36
517.37	20688.00
517.54	20863.54
517.72	20318.19
517.89	20711.40
518.06	20723.10
518.24	20482.03
518.41	20809.70
518.58	20884.60
518.75	20519.48
518.93	21317.60
519.10	21132.70
519.27	21013.33
519.45	21081.21
519.62	21003.97
519.79	21083.55
519.96	21481.44
520.14	21497.82
520.31	20938.43
520.48	21553.99
520.65	21345.69
520.83	21474.42
521.00	21394.84
521.17	21575.06
521.34	21720.17
521.52	21486.12
521.69	21944.86
521.86	21514.20
522.03	21790.39
522.20	21933.16
522.38	22029.12
522.55	22092.32
522.72	21830.18
522.89	21851.24
523.07	21984.65
523.24	22171.89
523.41	22054.87
523.58	22511.27
523.75	22029.12
523.92	22228.07
524.10	22415.31
524.27	22464.46
524.44	22600.21
524.61	22441.06
524.78	22487.87
524.96	23246.20
525.13	22546.38
525.30	22721.92
525.47	22466.80
525.64	22801.50
525.81	22810.86
525.98	22934.91
526.16	22810.86
526.33	22974.70
526.50	22988.74
526.67	22803.84
526.84	22672.77
527.01	22857.67
527.18	23197.05
527.36	23115.13
527.53	22895.12
527.70	23417.06
527.87	23606.64
528.04	23190.03
528.21	23253.22
528.38	23164.28
528.55	23576.22
528.72	23257.90
528.89	23197.05
529.07	23482.59
529.24	23459.19
529.41	23857.08
529.58	23470.89
529.75	23676.86
529.92	23508.34
530.09	23573.88
530.26	23630.05
530.43	23714.31
530.60	24051.34
530.77	23943.68
530.94	24098.16
531.11	23831.33
531.28	23800.91
531.46	23674.52
531.63	24081.77
531.80	24315.83
531.97	24297.10
532.14	23836.02
532.31	23777.50
532.48	24032.62
532.65	24540.52
532.82	24205.82
532.99	24032.62
533.16	23950.70
533.33	24252.63
533.50	25214.59
533.67	24489.03
533.84	24325.19
534.01	24346.25
534.18	24280.72
534.35	24617.75
534.52	24297.10
534.69	24744.14
534.86	24662.22
535.03	24496.05
535.20	24641.16
535.37	24849.47
535.54	24870.53
535.71	24699.67
535.88	25029.69
536.05	24584.99
536.22	25333.96
536.38	25219.27
536.55	25212.25
536.72	25364.39
536.89	24931.39
537.06	25032.03
537.23	25362.04
537.40	24933.73
537.57	25310.55
537.74	25006.28
537.91	25532.90
538.08	25462.69
538.25	25294.17
538.42	25230.98
538.59	25160.76
538.75	25015.65
538.92	25170.12
539.09	25481.41
539.26	25647.59
539.43	25605.46
539.60	25385.45
539.77	25621.84
539.94	25839.51
540.11	25748.23
540.28	25586.74
540.44	25785.68
540.61	25846.54
540.78	25422.90
540.95	25921.43
541.12	25626.53
541.29	25914.41
541.46	25860.58
541.62	25766.96
541.79	25781.00
541.96	26040.80
542.13	26113.36
542.30	26174.21
542.47	26214.00
542.63	25834.83
542.80	26312.30
542.97	26733.60
543.14	26415.29
543.31	26331.03
543.48	26321.66
543.64	26581.46
543.81	26911.48
543.98	26396.56
544.15	26499.55
544.32	26721.90
544.48	26927.86
544.65	26749.98
544.82	26869.35
544.99	26316.98
545.16	26881.05
545.32	26590.83
545.49	26981.70
545.66	27042.55
545.83	26958.29
546.00	27262.56
546.16	26909.14
546.33	26991.06
546.50	26981.70
546.67	27087.02
546.83	26714.87
547.00	26859.99
547.17	26871.69
547.34	27042.55
547.50	27082.34
547.67	27840.67
547.84	27051.91
548.00	27339.80
548.17	27220.43
548.34	27229.79
548.51	27473.21
548.67	27290.65
548.84	27749.39
549.01	27711.94
549.18	27379.59
549.34	27351.50
549.51	27545.76
549.68	27576.19
549.84	27164.26
550.01	27747.05
550.18	27489.59
550.34	27515.34
550.51	27953.02
550.68	27756.41
550.84	27370.22
551.01	27761.09
551.18	27620.66
551.34	27370.22
551.51	27662.79
551.68	27597.26
551.84	27583.21
552.01	28081.75
552.18	28023.23
552.34	27796.20
552.51	27915.57
552.68	28156.64
552.84	27901.53
553.01	28077.07
553.18	27934.29
553.34	28084.09
553.51	27817.27
553.67	28151.96
553.84	28439.85
554.01	27924.93
554.17	27910.89
554.34	28276.01
554.51	27943.66
554.67	28098.13
554.84	28311.12
555.00	28376.66
555.17	28299.42
555.33	28205.80
555.50	28318.14
555.67	28187.07
555.83	28114.52
556.00	28341.55
556.16	28273.67
556.33	28233.88
556.50	28027.92
556.66	28648.16
556.83	28379.00
556.99	28512.41
557.16	28851.78
557.32	28718.37
557.49	28521.77
557.65	28231.54
557.82	28559.22
557.98	28591.98
558.15	28252.61
558.32	29078.82
558.48	28987.53
558.65	28776.89
558.81	28893.91
558.98	28783.91
559.14	28531.13
559.31	28456.23
559.47	28709.01
559.64	28500.70
559.80	28835.40
559.97	28826.04
560.13	29237.97
560.30	28610.71
560.46	28992.22
560.63	29013.28
560.79	28858.81
560.96	29476.71
561.12	28966.47
561.29	28751.14
561.45	29195.84
561.61	29202.86
561.78	29373.72
561.94	29357.34
562.11	29134.99
562.27	29088.18
562.44	29057.75
562.60	29118.60
562.77	29064.77
562.93	29371.38
563.10	28905.62
563.26	29429.90
563.42	29586.71
563.59	29315.21
563.75	29418.19
563.92	29146.69
564.08	28917.32
564.24	29352.66
564.41	29090.52
564.57	29139.67
564.74	29350.32
564.90	29174.78
565.07	29406.49
565.23	29336.27
565.39	29481.39
565.56	29457.98
565.72	29261.38
565.88	29483.73
566.05	29336.27
566.21	29357.34
566.38	29425.22
566.54	29008.60
566.70	29708.42
566.87	29907.37
567.03	29479.05
567.19	29472.03
567.36	30008.01
567.52	29291.80
567.68	29635.86
567.85	29242.65
568.01	29947.15
568.17	29373.72
568.34	29460.32
568.50	29806.72
568.66	29184.14
568.83	29722.46
568.99	29425.22
569.15	28992.22
569.32	29593.73
569.48	29411.17
569.64	29715.44
569.81	29806.72
569.97	29378.40
570.13	29699.06
570.30	29722.46
570.46	29680.33
570.62	29720.12
570.78	29640.54
570.95	29645.23
571.11	29537.56
571.27	29523.52
571.43	29443.94
571.60	29551.60
571.76	29640.54
571.92	29673.31
572.09	29928.43
572.25	29830.13
572.41	29867.58
572.57	29867.58
572.74	29839.49
572.90	29191.16
573.06	29780.98
573.22	29633.52
573.38	29970.56
573.55	29961.20
573.71	29926.09
573.87	30080.56
574.03	29984.60
574.20	29479.05
574.36	29839.49
574.52	29713.10
574.68	29706.08
574.84	29855.87
575.01	29893.32
575.17	30005.67
575.33	29443.94
575.49	30012.69
575.65	29743.53
575.82	30293.55
575.98	29816.08
576.14	30073.54
576.30	29621.82
576.46	29949.50
576.62	29795.02
576.79	30136.74
576.95	29867.58
577.11	29972.90
577.27	30426.96
577.43	30183.55
577.59	30150.78
577.75	29813.74
577.92	29366.70
578.08	30139.08
578.24	29769.27
578.40	29860.55
578.56	29759.91
578.72	30050.14
578.88	29986.94
579.04	30115.67
579.21	30483.14
579.37	29991.62
579.53	30321.64
579.69	30040.78
579.85	29844.17
580.01	29998.65
580.17	29816.08
580.33	30082.91
580.49	29867.58
580.65	30047.80
580.82	30307.60
580.98	29998.65
581.14	30136.74
581.30	30338.02
581.46	30342.70
581.62	29935.45
581.78	29645.23
581.94	30244.40
582.10	29846.51
582.26	29802.04
582.42	29996.31
582.58	30312.28
582.74	30132.06
582.90	30382.49
583.06	30073.54
583.22	29881.62
583.38	29951.84
583.54	29888.64
583.70	30080.56
583.86	30157.80
584.02	30026.73
584.18	30338.02
584.34	30298.23
584.50	30281.85
584.66	30288.87
584.82	30024.39
584.98	29841.83
585.14	30157.80
585.30	29745.87
585.46	30473.78
585.62	30258.45
585.78	30225.68
585.94	29914.39
586.10	30256.11
586.26	30096.95
586.42	30590.80
586.58	30361.43
586.74	30272.49
586.90	30038.44
587.06	29741.19
587.22	30384.83
587.38	30321.64
587.54	29912.05
587.70	30649.32
587.86	30335.68
588.02	30125.04
588.18	30630.59
588.34	30106.31
588.49	30380.15
588.65	30176.53
588.81	30265.47
588.97	30174.19
589.13	30433.99
589.29	30253.76
589.45	30277.17
589.61	30441.01
589.77	30356.75
589.93	30904.43
590.08	30684.42
590.24	30146.10
590.40	30562.72
590.56	30635.27
590.72	30511.22
590.88	30494.84
591.04	30527.61
591.20	30396.54
591.35	30609.53
591.51	31328.07
591.67	30665.70
591.83	31087.00
591.99	30859.96
592.15	30618.89
592.31	30265.47
592.46	30480.80
592.62	30235.04
592.78	30457.39
592.94	30471.43
593.10	30106.31
593.26	30895.07
593.41	30548.67
593.57	30316.96
593.73	30588.46
593.89	30492.50
594.05	30499.52
594.20	30494.84
594.36	30572.08
594.52	30244.40
594.68	29991.62
594.84	30253.76
594.99	30396.54
595.15	30974.65
595.31	30742.94
595.47	30888.05
595.62	30707.83
595.78	30621.23
595.94	31000.40
596.10	30384.83
596.25	30576.76
596.41	30569.74
596.57	30429.30
596.73	30494.84
596.88	30859.96
597.04	30759.32
597.20	30787.41
597.36	30778.04
597.51	31019.12
597.67	30654.00
597.83	30562.72
597.99	30679.74
598.14	30417.60
598.30	30724.21
598.46	30675.06
598.61	30581.44
598.77	30572.08
598.93	30874.01
599.09	30583.78
599.24	30721.87
599.40	30939.54
599.56	31063.59
599.71	30525.27
599.87	30663.36
600.03	30761.66
600.18	31126.78
600.34	30899.75
600.50	30370.79
600.65	31047.21
600.81	31056.57
600.97	31019.12
601.12	30668.04
601.28	30902.09
601.44	30815.49
601.59	30782.73
601.75	30890.39
601.91	30665.70
602.06	30593.14
602.22	30724.21
602.37	30682.08
602.53	30822.51
602.69	31105.72
602.84	30756.98
603.00	31117.42
603.16	30909.11
603.31	31117.42
603.47	30838.90
603.62	30754.64
603.78	31051.89
603.94	30689.10
604.09	30780.39
604.25	30363.77
604.40	30923.16
604.56	30735.92
604.71	30801.45
604.87	31182.96
605.03	31089.34
605.18	30579.10
605.34	30965.29
605.49	30469.09
605.65	30764.00
605.80	30459.73
605.96	30764.00
606.12	30724.21
606.27	30799.11
606.43	30768.68
606.58	30855.28
606.74	30923.16
606.89	30710.17
607.05	30700.81
607.20	30684.42
607.36	30703.15
607.51	31225.09
607.67	30597.82
607.82	30560.37
607.98	30761.66
608.13	30604.84
608.29	30579.10
608.44	31002.74
608.60	30689.10
608.75	30649.32
608.91	30323.98
609.06	30850.60
609.22	30525.27
609.37	30288.87
609.53	30270.15
609.68	30387.18
609.84	30272.49
609.99	30682.08
610.15	30164.82
610.30	30160.14
610.46	30682.08
610.61	30529.95
610.76	30356.75
610.92	30771.02
611.07	30000.99
611.23	30256.11
611.38	30373.13
611.54	29968.22
611.69	30148.44
611.84	30424.62
612.00	30242.06
612.15	29832.47
612.31	30251.42
612.46	30373.13
612.62	30387.18
612.77	30298.23
612.92	30464.41
613.08	30258.45
613.23	30136.74
613.39	30110.99
613.54	30103.97
613.69	29907.37
613.85	30066.52
614.00	30150.78
614.15	30487.82
614.31	30000.99
614.46	30206.95
614.62	30230.36
614.77	30321.64
614.92	30438.67
615.08	30342.70
615.23	30389.52
615.38	30462.07
615.54	30174.19
615.69	29745.87
615.84	29575.01
616.00	29841.83
616.15	29645.23
616.30	29783.32
616.46	30029.07
616.61	30160.14
616.76	30300.58
616.92	30029.07
617.07	30150.78
617.22	30012.69
617.37	29902.68
617.53	30050.14
617.68	29663.95
617.83	29542.24
617.99	29474.37
618.14	29703.74
618.29	29553.94
618.45	29743.53
618.60	29860.55
618.75	29963.54
618.90	29825.45
619.06	29621.82
619.21	29923.75
619.36	29738.85
619.51	29626.50
619.67	29184.14
619.82	29130.31
619.97	29780.98
620.12	29493.09
620.28	29752.89
620.43	29670.97
620.58	29537.56
620.73	29834.81
620.89	29560.97
621.04	29600.76
621.19	29720.12
621.34	29591.39
621.49	29900.34
621.65	29413.51
621.80	29715.44
621.95	29696.72
622.10	29570.33
622.25	29338.62
622.41	28994.56
622.56	29322.23
622.71	29603.10
622.86	29474.37
623.01	29427.56
623.16	29420.53
623.32	28858.81
623.47	29373.72
623.62	29469.69
623.77	29202.86
623.92	29296.49
624.07	29287.12
624.23	28992.22
624.38	29427.56
624.53	28973.49
624.68	29322.23
624.83	29460.32
624.98	29116.26
625.13	29350.32
625.29	29312.87
625.44	29240.31
625.59	29205.20
625.74	28903.28
625.89	28765.18
626.04	28400.06
626.19	28662.20
626.34	28856.46
626.49	29003.92
626.65	29062.43
626.80	29177.12
626.95	28922.00
627.10	28823.70
627.25	29027.32
627.40	28673.90
627.55	28800.29
627.70	28477.30
627.85	28931.36
628.00	28847.10
628.15	28907.96
628.30	28428.15
628.45	28882.21
628.60	28489.00
628.76	28741.78
628.91	28486.66
629.06	28816.68
629.21	28701.99
629.36	28610.71
629.51	28793.27
629.66	28231.54
629.81	28449.21
629.96	28753.48
630.11	28168.35
630.26	28451.55
630.41	28311.12
630.56	28245.58
630.71	28687.95
630.86	28250.27
631.01	28418.78
631.16	28496.02
631.31	28280.69
631.46	28144.94
631.61	28381.34
631.76	28364.95
631.91	28114.52
632.06	28056.00
632.21	28313.46
632.36	28409.42
632.51	28278.35
632.66	28701.99
632.81	27978.76
632.96	28238.56
633.10	28694.97
633.25	28322.82
633.40	28147.28
633.55	28177.71
633.70	28238.56
633.85	28158.99
634.00	27866.42
634.15	27854.72
634.30	27747.05
634.45	28397.72
634.60	27964.72
634.75	27695.56
634.90	27931.95
635.05	28243.24
635.19	28072.39
635.34	28203.46
635.49	28154.30
635.64	28156.64
635.79	28072.39
635.94	27859.40
636.09	27960.04
636.24	27733.01
636.39	27679.18
636.53	27606.62
636.68	27620.66
636.83	27702.58
636.98	27819.61
637.13	27777.48
637.28	28170.69
637.43	27955.36
637.57	27388.95
637.72	27496.61
637.87	27513.00
638.02	27374.91
638.17	27571.51
638.32	27330.44
638.46	27393.63
638.61	27594.92
638.76	27080.00
638.91	27456.82
639.06	27920.25
639.20	27414.69
639.35	27440.44
639.50	27367.88
639.65	27758.75
639.80	27122.13
639.94	27239.15
640.09	27653.43
640.24	27470.87
640.39	27601.94
640.54	26932.54
640.68	27133.83
640.83	27311.71
640.98	27103.40
641.13	27044.89
641.27	27276.60
641.42	27164.26
641.57	27250.86
641.72	27206.39
641.86	27108.08
642.01	27239.15
642.16	26925.52
642.31	26916.16
642.45	26920.84
642.60	26483.16
642.75	26719.56
642.90	26609.55
643.04	27044.89
643.19	26616.57
643.34	26525.29
643.48	26672.74
643.63	26871.69
643.78	27080.00
643.93	26995.74
644.07	26923.18
644.22	27175.96
644.37	26934.88
644.51	27065.96
644.66	26852.97
644.81	26569.76
644.95	26742.96
645.10	26471.46
645.25	26726.58
645.39	26696.15
645.54	26803.82
645.69	26548.70
645.83	26895.10
645.98	26705.51
646.13	26436.35
646.27	26724.24
646.42	26565.08
646.57	26539.33
646.71	26485.50
646.86	26787.43
647.00	26527.63
647.15	26347.41
647.30	26232.72
647.44	26225.70
647.59	26696.15
647.74	26593.17
647.88	26897.44
648.03	26682.11
648.17	26684.45
648.32	26616.57
648.47	26586.15
648.61	26216.34
648.76	26590.83
648.90	26696.15
649.05	26710.19
649.20	25940.16
649.34	26443.37
649.49	25928.45
649.63	26094.63
649.78	26120.38
649.92	26148.46
650.07	26455.08
650.21	26223.36
650.36	26216.34
650.51	26181.23
650.65	26185.91
650.80	26003.35
650.94	26148.46
651.09	26094.63
651.23	25860.58
651.38	25919.09
651.52	25696.74
651.67	25834.83
651.81	26167.19
651.96	26033.78
652.10	26139.10
652.25	26274.85
652.39	26164.85
652.54	26136.76
652.68	26221.02
652.83	26015.05
652.97	26286.56
653.12	26019.74
653.26	25867.60
653.41	26150.81
653.55	25708.44
653.70	26314.64
653.84	26019.74
653.99	25738.87
654.13	25989.31
654.27	25930.80
654.42	25741.21
654.56	25907.39
654.71	25596.10
654.85	26008.03
655.00	25834.83
655.14	25642.91
655.29	25881.64
655.43	25584.40
655.57	25532.90
655.72	25809.09
655.86	25701.42
656.01	25565.67
656.15	25614.82
656.30	25755.26
656.44	25228.63
656.58	25296.51
656.73	25319.92
656.87	25376.09
657.01	25549.29
657.16	25282.47
657.30	25624.18
657.45	25450.99
657.59	25415.88
657.73	25130.33
657.88	25425.24
658.02	24980.54
658.16	25376.09
658.31	24809.68
658.45	25142.03
658.60	25195.87
658.74	25202.89
658.88	24922.02
659.03	25319.92
659.17	25095.22
659.31	25322.26
659.46	24379.02
659.60	25008.62
659.74	25158.42
659.89	24812.02
660.03	25238.00
660.17	24975.86
660.32	24919.68
660.46	24652.86
660.60	24430.51
660.74	24587.33
660.89	24500.73
661.03	24535.84
661.17	24627.12
661.32	24355.61
661.46	24919.68
661.60	24397.74
661.74	24652.86
661.89	24753.51
662.03	24631.80
662.17	24343.91
662.31	24580.31
662.46	24512.43
662.60	24493.71
662.74	24397.74
662.88	24184.76
663.03	23990.49
663.17	24016.24
663.31	23803.25
663.45	24095.82
663.60	24121.56
663.74	24037.30
663.88	24119.22
664.02	24006.87
664.17	24002.19
664.31	23990.49
664.45	23763.46
664.59	23967.09
664.73	24287.74
664.88	24170.71
665.02	23517.70
665.16	23669.84
665.30	23850.06
665.44	23665.16
665.59	23850.06
665.73	23716.65
665.87	23625.37
666.01	23632.39
666.15	23445.15
666.29	23920.28
666.44	23828.99
666.58	23559.83
666.72	23363.23
666.86	23831.33
667.00	23679.20
667.14	23482.59
667.28	23257.90
667.43	23311.74
667.57	23386.63
667.71	23381.95
667.85	23159.60
667.99	23056.62
668.13	23084.70
668.27	22979.38
668.41	23206.41
668.56	22902.14
668.70	22909.16
668.84	22890.44
668.98	22944.27
669.12	23494.30
669.26	22469.14
669.40	22883.42
669.54	22895.12
669.68	22902.14
669.82	22466.80
669.96	22773.41
670.10	22600.21
670.25	22483.19
670.39	22642.34
670.53	22513.61
670.67	22258.49
670.81	22555.74
670.95	22356.80
671.09	22888.10
671.23	22654.05
671.37	22504.25
671.51	22359.14
671.65	22658.73
671.79	22434.03
671.93	22408.29
672.07	22548.72
672.21	22054.87
672.35	22176.58
672.49	22277.22
672.63	22015.08
672.77	21963.59
672.91	21869.97
673.05	21853.58
673.19	21853.58
673.33	21745.92
673.47	21975.29
673.61	22143.81
673.75	21759.96
673.89	21762.30
674.03	21895.71
674.17	21724.85
674.31	21645.27
674.45	21432.29
674.59	21544.63
674.73	21231.00
674.87	21231.00
675.01	21268.45
675.15	21303.56
675.29	21184.19
675.43	21411.22
675.56	21088.23
675.70	21406.54
675.84	21025.03
675.98	20624.80
676.12	21212.28
676.26	21249.72
676.40	21006.31
676.54	21003.97
676.68	20732.47
676.82	20191.80
676.96	20769.91
677.10	20538.20
677.23	20807.36
677.37	20269.04
677.51	20442.24
677.65	20318.19
677.79	19976.47
677.93	20086.48
678.07	20002.22
678.21	19810.29
678.34	20400.11
678.48	19936.68
678.62	20081.80
678.76	19854.76
678.90	20046.69
679.04	19943.70
679.18	19719.01
679.31	19693.27
679.45	19634.75
679.59	19358.57
679.73	19391.34
679.87	19323.46
680.00	19260.27
680.14	19119.84
680.28	19431.13
680.42	19159.63
680.56	19293.04
680.70	19002.81
680.83	19232.18
680.97	19063.66
681.11	18995.79
681.25	19171.33
681.39	18581.51
681.52	18890.46
681.66	18888.12
681.80	18698.54
681.94	18691.52
682.07	18569.81
682.21	18169.58
682.35	18422.36
682.49	18092.34
682.62	18279.58
682.76	18237.45
682.90	18600.24
683.04	18223.41
683.17	18120.43
683.31	18005.74
683.45	18286.61
683.59	18242.14
683.72	17813.82
683.86	17848.93
684.00	17926.16
684.13	17933.18
684.27	17759.98
684.41	17685.09
684.55	17282.52
684.68	17235.70
684.82	17315.28
684.96	17387.84
685.09	17324.65
685.23	17200.60
685.37	17348.05
685.50	17561.04
685.64	17488.48
685.78	17090.59
685.91	17111.66
686.05	17266.13
686.19	17109.32
686.32	17008.67
686.46	16931.44
686.60	16755.90
686.73	16788.66
686.87	16608.44
687.01	16748.87
687.14	16580.36
687.28	16599.08
687.42	16517.16
687.55	16489.07
687.69	16278.43
687.82	16379.07
687.96	16329.92
688.10	16147.36
688.23	16137.99
688.37	16077.14
688.50	15625.42
688.64	16156.72
688.78	15962.45
688.91	15875.85
689.05	16086.50
689.18	15690.95
689.32	15611.37
689.46	15396.04
689.59	15407.75
689.73	15529.45
689.86	15571.58
690.00	15550.52
690.13	15424.13
690.27	15419.45
690.41	15389.02
690.54	15318.81
690.68	15339.87
690.81	15279.02
690.95	15211.14
691.08	15122.20
691.22	15297.74
691.35	14984.11
691.49	15030.92
691.62	14934.96
691.76	14801.55
691.89	14771.12
692.03	14562.81
692.16	14516.00
692.30	14384.93
692.43	14539.41
692.57	14403.66
692.70	14398.98
692.84	14321.74
692.97	14429.40
693.11	14174.28
693.24	14073.64
693.38	14319.40
693.51	14312.38
693.65	14132.15
693.78	14083.00
693.92	13760.01
694.05	13848.95
694.19	13909.80
694.32	13664.05
694.45	13767.03
694.59	13528.30
694.72	13446.38
694.86	13610.22
694.99	13282.54
695.13	13500.21
695.26	13209.98
695.39	13429.99
695.53	13376.16
695.66	13165.51
695.80	13345.73
695.93	13064.87
696.07	13174.88
696.20	13071.89
696.33	13083.59
696.47	12814.43
696.60	12896.35
696.73	13092.96
696.87	12940.82
697.00	12641.23
697.14	12901.03
697.27	12674.00
697.40	12369.73
697.54	12676.34
697.67	12343.99
697.80	12351.01
697.94	12217.60
698.07	12238.66
698.21	12123.98
698.34	12381.43
698.47	12299.52
698.61	12308.88
698.74	12161.42
698.87	12070.14
699.01	12032.69
699.14	11969.50
699.27	12016.31
699.40	11819.71
699.54	11812.68
699.67	11871.20
699.80	11641.82
699.94	11789.28
700.07	11536.50
700.20	11473.31
700.34	11246.27
700.47	11208.83
700.60	11475.65
700.73	11634.80
700.87	11337.56
701.00	11328.19
701.13	11061.37
701.26	11580.97
701.40	11103.50
701.53	11253.30
701.66	11276.70
701.79	11066.05
701.93	11091.80
702.06	10981.79
702.19	10651.78
702.32	10860.09
702.46	10768.80
702.59	10611.99
702.72	10569.86
702.85	10260.91
702.99	10511.35
703.12	10548.79
703.25	10516.03
703.38	10370.91
703.51	10349.85
703.65	10223.46
703.78	10382.62
703.91	10319.42
704.04	10391.98
704.17	10324.10
704.31	10270.27
704.44	10160.27
704.57	10153.24
704.70	9926.21
704.83	9816.21
704.96	10043.24
705.10	9823.23
705.23	9762.37
>>>>>End Processed Spectral Data<<<<<
