SpectraSuite Data File
++++++++++++++++++++++++++++++++++++
Date: Fri Oct 18 13:58:20 GMT-05:00 2013
User: bianchi
Dark Spectrum Present: No
Reference Spectrum Present: No
Number of Sampled Component Spectra: 1
Spectrometers: USB2+H05261
Integration Time (usec): 50000 (USB2+H05261)
Spectra Averaged: 1 (USB2+H05261)
Boxcar Smoothing: 0 (USB2+H05261)
Correct for Electrical Dark: No (USB2+H05261)
Strobe/Lamp Enabled: No (USB2+H05261)
Correct for Detector Non-linearity: No (USB2+H05261)
Correct for Stray Light: No (USB2+H05261)
Number of Pixels in Processed Spectrum: 2048
>>>>>Begin Processed Spectral Data<<<<<
365.73	21.06
365.92	21.06
366.12	21.06
366.32	0.00
366.52	0.00
366.72	0.00
366.91	0.00
367.11	0.00
367.31	0.00
367.51	0.00
367.70	0.00
367.90	0.00
368.10	0.00
368.30	0.00
368.49	0.00
368.69	0.00
368.89	0.00
369.09	0.00
369.28	0.00
369.48	0.00
369.68	0.00
369.87	0.00
370.07	0.00
370.27	0.00
370.47	0.00
370.66	119.37
370.86	124.05
371.06	98.30
371.25	210.65
371.45	173.20
371.65	114.69
371.84	198.95
372.04	168.52
372.24	210.65
372.44	203.63
372.63	145.11
372.83	205.97
373.03	196.60
373.22	241.08
373.42	156.82
373.62	248.10
373.81	215.33
374.01	248.10
374.21	238.73
374.40	220.01
374.60	294.91
374.79	273.84
374.99	196.60
375.19	245.76
375.38	250.44
375.58	255.12
375.78	259.80
375.97	264.48
376.17	227.03
376.37	283.20
376.56	208.31
376.76	306.61
376.95	283.20
377.15	264.48
377.35	243.42
377.54	173.20
377.74	276.18
377.93	234.05
378.13	262.14
378.33	313.63
378.52	304.27
378.72	259.80
378.91	294.91
379.11	264.48
379.31	273.84
379.50	297.25
379.70	301.93
379.89	285.55
380.09	304.27
380.28	266.82
380.48	351.08
380.68	330.02
380.87	266.82
381.07	339.38
381.26	332.36
381.46	311.29
381.65	257.46
381.85	283.20
382.04	276.18
382.24	379.17
382.43	362.78
382.63	325.33
382.83	367.46
383.02	322.99
383.22	409.59
383.41	330.02
383.61	330.02
383.80	339.38
384.00	400.23
384.19	283.20
384.39	407.25
384.58	451.72
384.78	369.80
384.97	409.59
385.17	402.57
385.36	433.00
385.56	360.44
385.75	383.85
385.95	386.19
386.14	344.06
386.34	472.79
386.53	414.27
386.72	440.02
386.92	414.27
387.11	355.76
387.31	358.10
387.50	430.66
387.70	421.30
387.89	444.70
388.09	388.53
388.28	430.66
388.48	416.62
388.67	458.74
388.86	447.04
389.06	454.06
389.25	491.51
389.45	454.06
389.64	470.45
389.84	557.05
390.03	543.00
390.22	442.36
390.42	521.94
390.61	461.09
390.81	507.90
391.00	491.51
391.19	482.15
391.39	550.03
391.58	545.34
391.78	521.94
391.97	519.60
392.16	470.45
392.36	545.34
392.55	596.84
392.75	491.51
392.94	613.22
393.13	568.75
393.33	533.64
393.52	592.16
393.71	538.32
393.91	498.53
394.10	521.94
394.29	589.82
394.49	648.33
394.68	552.37
394.88	608.54
395.07	667.05
395.26	631.94
395.46	711.52
395.65	697.48
395.84	580.45
396.04	723.23
396.23	657.69
396.42	662.37
396.62	627.26
396.81	690.46
397.00	723.23
397.19	695.14
397.39	758.33
397.58	603.86
397.77	683.44
397.97	676.41
398.16	643.65
398.35	774.72
398.55	655.35
398.74	692.80
398.93	716.20
399.12	784.08
399.32	664.71
399.51	786.42
399.70	837.91
399.90	763.01
400.09	863.66
400.28	699.82
400.47	695.14
400.67	777.06
400.86	812.17
401.05	760.67
401.24	819.19
401.44	772.38
401.63	805.14
401.82	791.10
402.01	812.17
402.21	828.55
402.40	816.85
402.59	821.53
402.78	819.19
402.97	837.91
403.17	882.38
403.36	812.17
403.55	856.64
403.74	816.85
403.93	896.43
404.13	910.47
404.32	929.19
404.51	947.92
404.70	903.45
404.89	807.48
405.09	983.02
405.28	985.37
405.47	1004.09
405.66	971.32
405.85	1001.75
406.05	938.55
406.24	905.79
406.43	985.37
406.62	983.02
406.81	1071.97
407.00	1020.47
407.20	1027.50
407.39	1034.52
407.58	1034.52
407.77	964.30
407.96	1076.65
408.15	1114.10
408.34	1011.11
408.54	1057.92
408.73	1086.01
408.92	1130.48
409.11	1088.35
409.30	1067.28
409.49	1055.58
409.68	1200.69
409.87	1116.44
410.07	1259.21
410.26	1224.10
410.45	1151.54
410.64	1193.67
410.83	1217.08
411.02	1212.40
411.21	1200.69
411.40	1275.59
411.59	1210.06
411.78	1277.93
411.98	1287.29
412.17	1299.00
412.36	1301.34
412.55	1263.89
412.74	1291.98
412.93	1427.73
413.12	1291.98
413.31	1324.74
413.50	1373.89
413.69	1397.30
413.88	1444.11
414.07	1392.62
414.26	1465.18
414.45	1413.68
414.64	1521.35
414.83	1481.56
415.02	1486.24
415.22	1565.82
415.41	1561.14
415.60	1533.05
415.79	1640.72
415.98	1537.73
416.17	1472.20
416.36	1476.88
416.55	1624.33
416.74	1760.08
416.93	1626.67
417.12	1802.21
417.31	1710.93
417.50	1727.32
417.69	1734.34
417.88	1778.81
418.07	1713.27
418.26	1713.27
418.45	1771.79
418.64	1764.76
418.83	1860.73
419.02	1802.21
419.21	1736.68
419.39	1790.51
419.58	1844.34
419.77	1778.81
419.96	1844.34
420.15	1764.76
420.34	1874.77
420.53	1881.79
420.72	1919.24
420.91	1891.15
421.10	1982.43
421.29	1994.14
421.48	1949.67
421.67	1970.73
421.86	1935.62
422.05	1790.51
422.24	1891.15
422.43	1963.71
422.61	2038.61
422.80	2050.31
422.99	1998.82
423.18	2069.03
423.37	1907.54
423.56	2019.88
423.75	1935.62
423.94	1849.02
424.13	1933.28
424.32	1991.80
424.50	2017.54
424.69	2087.76
424.88	2008.18
425.07	2040.95
425.26	1935.62
425.45	1996.48
425.64	2113.50
425.83	1944.99
426.01	2080.74
426.20	1996.48
426.39	2050.31
426.58	2190.74
426.77	1968.39
426.96	2090.10
427.15	2120.53
427.33	2122.87
427.52	2097.12
427.71	2143.93
427.90	2122.87
428.09	2108.82
428.28	2134.57
428.46	2307.77
428.65	2242.23
428.84	2272.66
429.03	2270.32
429.22	2176.70
429.40	2328.83
429.59	2193.08
429.78	2122.87
429.97	2150.95
430.16	2265.64
430.34	2202.44
430.53	2303.09
430.72	2317.13
430.91	2237.55
431.10	2232.87
431.28	2204.78
431.47	2373.30
431.66	2462.24
431.85	2267.98
432.03	2427.14
432.22	2380.32
432.41	2396.71
432.60	2530.12
432.79	2331.17
432.97	2469.27
433.16	2530.12
433.35	2509.05
433.54	2525.44
433.72	2455.22
433.91	2553.52
434.10	2541.82
434.28	2560.55
434.47	2572.25
434.66	2588.63
434.85	2597.99
435.03	2670.55
435.22	2623.74
435.41	2644.81
435.59	2569.91
435.78	2612.04
435.97	2715.02
436.16	2637.78
436.34	2600.34
436.53	2602.68
436.72	2796.94
436.90	2712.68
437.09	2712.68
437.28	2757.15
437.46	2717.36
437.65	2761.83
437.84	2738.43
438.02	2733.75
438.21	2883.54
438.40	2663.53
438.58	2871.84
438.77	2834.39
438.96	2970.14
439.14	2911.63
439.33	2920.99
439.52	2902.26
439.70	2946.73
439.89	3059.08
440.08	3045.04
440.26	2970.14
440.45	3016.95
440.63	3012.27
440.82	3016.95
441.01	3094.19
441.19	3241.64
441.38	3101.21
441.57	3218.24
441.75	3218.24
441.94	3213.56
442.12	3293.13
442.31	3307.18
442.50	3342.28
442.68	3370.37
442.87	3400.80
443.05	3351.65
443.24	3279.09
443.43	3253.34
443.61	3447.61
443.80	3485.06
443.98	3297.81
444.17	3246.32
444.35	3449.95
444.54	3433.57
444.73	3578.68
444.91	3442.93
445.10	3445.27
445.28	3480.38
445.47	3557.61
445.65	3447.61
445.84	3475.70
446.02	3501.44
446.21	3482.72
446.39	3454.63
446.58	3534.21
446.77	3520.17
446.95	3461.65
447.14	3410.16
447.32	3393.78
447.51	3529.53
447.69	3428.88
447.88	3559.95
448.06	3592.72
448.25	3438.25
448.43	3552.93
448.62	3590.38
448.80	3531.87
448.99	3646.55
449.17	3712.09
449.36	3669.96
449.54	3620.81
449.73	3658.26
449.91	3700.39
450.10	3756.56
450.28	3733.15
450.46	3754.22
450.65	3707.41
450.83	3730.81
451.02	3786.99
451.20	3957.85
451.39	3775.28
451.57	3702.73
451.76	3604.42
451.94	3810.39
452.13	3892.31
452.31	3983.59
452.49	3707.41
452.68	3875.93
452.86	3798.69
453.05	4025.72
453.23	3997.64
453.42	3772.94
453.60	3838.48
453.78	3733.15
453.97	3885.29
454.15	3901.67
454.34	4032.74
454.52	3896.99
454.70	3943.80
454.89	4147.43
455.07	4049.13
455.26	3948.48
455.44	4142.75
455.62	4138.07
455.81	4030.40
455.99	4100.62
456.17	4161.47
456.36	4145.09
456.54	4166.15
456.73	4191.90
456.91	4341.69
457.09	4332.33
457.28	4507.87
457.46	4311.27
457.64	4388.50
457.83	4376.80
458.01	4327.65
458.19	4287.86
458.38	4308.93
458.56	4430.63
458.74	4416.59
458.93	4372.12
459.11	4620.22
459.29	4482.13
459.48	4496.17
459.66	4449.36
459.84	4533.62
460.03	4674.05
460.21	4381.48
460.39	4531.28
460.57	4465.74
460.76	4596.81
460.94	4601.49
461.12	4559.36
461.31	4578.09
461.49	4470.42
461.67	4622.56
461.85	4791.08
462.04	4709.16
462.22	5083.64
462.40	4861.29
462.59	4744.27
462.77	4725.54
462.95	4805.12
463.13	4868.31
463.32	4903.42
463.50	4894.06
463.68	4891.72
463.86	4896.40
464.05	4767.67
464.23	4880.02
464.41	4765.33
464.59	4741.93
464.78	4994.70
464.96	4844.91
465.14	4847.25
465.32	5123.43
465.50	5062.58
465.69	5032.15
465.87	4980.66
466.05	4940.87
466.23	4994.70
466.41	5130.45
466.60	5153.86
466.78	5041.51
466.96	5046.20
467.14	5069.60
467.32	5158.54
467.51	5261.52
467.69	4990.02
467.87	5179.61
468.05	5228.76
468.23	5118.75
468.41	5074.28
468.60	5256.84
468.78	5362.17
468.96	5083.64
469.14	5177.26
469.32	5434.72
469.50	5177.26
469.69	5296.63
469.87	5465.15
470.05	5479.19
470.23	5533.03
470.41	5401.96
470.59	5444.09
470.77	5404.30
470.95	5507.28
471.14	5736.65
471.32	5416.00
471.50	5584.52
471.68	5579.84
471.86	5645.37
472.04	5572.82
472.22	5783.46
472.40	5638.35
472.58	5657.07
472.77	5825.59
472.95	5877.09
473.13	6012.84
473.31	5652.39
473.49	5795.17
473.67	5799.85
473.85	5907.51
474.03	6026.88
474.21	6150.93
474.39	5865.38
474.57	6057.31
474.75	6223.48
474.93	6115.82
475.12	6057.31
475.30	5994.11
475.48	6073.69
475.66	6223.48
475.84	6181.35
476.02	6462.22
476.20	6338.17
476.38	6602.65
476.56	6572.22
476.74	6630.74
476.92	6572.22
477.10	6600.31
477.28	6810.96
477.46	6572.22
477.64	6541.80
477.82	6949.05
478.00	6710.32
478.18	7000.54
478.36	6857.77
478.54	6986.50
478.72	7211.19
478.90	7159.70
479.08	7115.23
479.26	7365.67
479.44	7396.09
479.62	7295.45
479.80	7487.37
479.98	7452.27
480.16	7616.10
480.34	7543.55
480.52	7559.93
480.70	7721.43
480.88	7536.52
481.06	7705.04
481.24	7681.64
481.41	7927.39
481.59	8002.29
481.77	8231.66
481.95	8116.98
482.13	7939.10
482.31	8088.89
482.49	8126.34
482.67	8388.48
482.85	8432.95
483.03	8519.55
483.21	8521.89
483.39	8641.26
483.57	8678.71
483.74	8702.11
483.92	8652.96
484.10	8875.31
484.28	8865.95
484.46	9085.96
484.64	9132.77
484.82	9181.92
485.00	9116.39
485.18	9408.95
485.35	9308.31
485.53	9284.91
485.71	9476.83
485.89	9715.56
486.07	9624.28
486.25	9474.49
486.43	9757.69
486.61	9619.60
486.78	9998.77
486.96	10047.92
487.14	10284.31
487.32	10317.08
487.50	10471.56
487.68	10230.48
487.85	10457.51
488.03	10499.64
488.21	10714.97
488.39	10621.35
488.57	10525.39
488.75	10925.62
488.92	10878.81
489.10	10991.16
489.28	11089.46
489.46	11119.89
489.64	11286.06
489.81	11297.77
489.99	11185.42
490.17	11314.15
490.35	11452.24
490.53	11576.29
490.70	11669.91
490.88	11829.07
491.06	11709.70
491.24	11690.98
491.41	11967.16
491.59	11866.52
491.77	12079.50
491.95	12313.56
492.13	12301.86
492.30	12229.30
492.48	12236.32
492.66	12418.88
492.84	12439.95
493.01	12720.81
493.19	12681.02
493.37	12905.71
493.54	12985.29
493.72	12851.88
493.90	12809.75
494.08	12975.93
494.25	13102.32
494.43	13224.03
494.61	13263.82
494.79	13420.63
494.96	13493.19
495.14	13523.62
495.32	13444.04
495.49	13776.39
495.67	13577.45
495.85	13867.67
496.02	13853.63
496.20	13954.27
496.38	13778.73
496.55	13898.10
496.73	14464.51
496.91	14258.54
497.09	14253.86
497.26	14471.53
497.44	14235.14
497.62	14396.64
497.79	14581.54
497.97	14696.22
498.14	14883.47
498.32	14918.57
498.50	14799.21
498.67	15101.14
498.85	15105.82
499.03	14953.68
499.20	14930.28
499.38	15129.22
499.56	15379.66
499.73	15442.85
499.91	15424.13
500.08	15644.14
500.26	15627.76
500.44	15529.45
500.61	15351.57
500.79	15604.35
500.97	16112.25
501.14	15754.15
501.32	16060.76
501.49	15964.79
501.67	16027.99
501.84	16020.97
502.02	16009.26
502.20	16175.44
502.37	16276.09
502.55	16098.20
502.72	16240.98
502.90	16205.87
503.07	16411.84
503.25	16240.98
503.43	16355.66
503.60	16627.17
503.78	16678.66
503.95	16723.13
504.13	16704.40
504.30	16886.97
504.48	16697.38
504.65	16751.21
504.83	16889.31
505.01	16980.59
505.18	17074.21
505.36	17270.81
505.53	17125.70
505.71	16987.61
505.88	17474.44
506.06	16994.63
506.23	17516.57
506.41	17575.08
506.58	17516.57
506.76	17511.89
506.93	17668.70
507.11	17289.54
507.28	17408.90
507.46	17862.97
507.63	17741.26
507.81	17671.04
507.98	17586.79
508.16	17968.29
508.33	17926.16
508.50	18176.60
508.68	17975.31
508.85	18197.67
509.03	18052.55
509.20	18232.77
509.38	18106.38
509.55	18403.63
509.73	18436.40
509.90	18602.58
510.08	18485.55
510.25	18345.12
510.42	18604.92
510.60	18602.58
510.77	18750.03
510.95	18925.57
511.12	18726.63
511.30	18602.58
511.47	18941.96
511.64	19103.45
511.82	19131.54
511.99	18843.65
512.17	19117.50
512.34	19058.98
512.51	19192.39
512.69	19264.95
512.86	19396.02
513.04	19531.77
513.21	19637.09
513.38	19513.05
513.56	19644.12
513.73	19339.85
513.90	19520.07
514.08	19833.70
514.25	20009.24
514.43	19566.88
514.60	19719.01
514.77	19702.63
514.95	19964.77
515.12	19793.91
515.29	19754.12
515.47	20308.83
515.64	19915.62
515.81	19974.13
515.99	20460.96
516.16	20166.06
516.33	20453.94
516.51	20587.35
516.68	20292.44
516.85	20439.90
517.03	20765.23
517.20	20517.14
517.37	20456.28
517.54	20755.87
517.72	20634.16
517.89	20437.56
518.06	20870.56
518.24	20835.45
518.41	20662.25
518.58	20634.16
518.75	20655.23
518.93	21025.03
519.10	21027.37
519.27	21165.46
519.45	21223.98
519.62	20849.49
519.79	21113.97
519.96	21081.21
520.14	21350.37
520.31	21116.31
520.48	21626.55
520.65	21443.99
520.83	21516.54
521.00	21575.06
521.17	21497.82
521.34	21113.97
521.52	21654.64
521.69	21376.11
521.86	21727.19
522.03	21743.58
522.20	22270.20
522.38	21926.14
522.55	22080.61
522.72	21869.97
522.89	21951.88
523.07	22157.85
523.24	22338.07
523.41	22508.93
523.58	21942.52
523.75	22136.79
523.92	22377.86
524.10	22422.33
524.27	22197.64
524.44	22546.38
524.61	22684.47
524.78	22939.59
524.96	22525.32
525.13	22878.74
525.30	22623.62
525.47	22817.88
525.64	22368.50
525.81	22698.52
525.98	22546.38
526.16	23143.22
526.33	22691.49
526.50	22925.55
526.67	23033.21
526.84	22623.62
527.01	22937.25
527.18	22913.84
527.36	23222.80
527.53	23105.77
527.70	23445.15
527.87	23559.83
528.04	23129.17
528.21	23466.21
528.38	23370.25
528.55	23290.67
528.72	23236.84
528.89	23555.15
529.07	23360.89
529.24	23522.38
529.41	23704.95
529.58	23679.20
529.75	23730.69
529.92	23658.14
530.09	23400.68
530.26	23634.73
530.43	23840.70
530.60	23793.89
530.77	24060.71
530.94	24077.09
531.11	23946.02
531.28	24311.14
531.46	24161.35
531.63	23800.91
531.80	24292.42
531.97	24299.44
532.14	24517.11
532.31	24091.13
532.48	24039.64
532.65	24023.26
532.82	24329.87
532.99	23915.59
533.16	24219.86
533.33	24575.62
533.50	24648.18
533.67	24423.49
533.84	24542.86
534.01	24311.14
534.18	24168.37
534.35	24966.49
534.52	24662.22
534.69	24442.21
534.86	25006.28
535.03	24858.83
535.20	25041.39
535.37	25111.61
535.54	25200.55
535.71	24608.39
535.88	24938.41
536.05	24584.99
536.22	25102.25
536.38	25348.00
536.55	25067.14
536.72	25256.72
536.89	25015.65
537.06	24856.49
537.23	25172.46
537.40	24936.07
537.57	25109.27
537.74	25336.30
537.91	25832.49
538.08	25230.98
538.25	25305.87
538.42	25560.99
538.59	25462.69
538.75	25392.47
538.92	25254.38
539.09	25348.00
539.26	25678.02
539.43	25820.79
539.60	25795.04
539.77	25607.80
539.94	25560.99
540.11	25411.20
540.28	25949.52
540.44	25729.51
540.61	25792.70
540.78	25666.31
540.95	25813.77
541.12	25724.83
541.29	25813.77
541.46	25979.95
541.62	25766.96
541.79	26438.69
541.96	25795.04
542.13	26029.10
542.30	26441.03
542.47	26312.30
542.63	26274.85
542.80	26312.30
542.97	26211.66
543.14	26258.47
543.31	26326.35
543.48	26284.22
543.64	26536.99
543.81	26773.39
543.98	26742.96
544.15	26569.76
544.32	26698.49
544.48	26630.62
544.65	26553.38
544.82	26588.49
544.99	26160.17
545.16	26916.16
545.32	26628.27
545.49	26951.27
545.66	27129.15
545.83	27199.37
546.00	27391.29
546.16	26670.40
546.33	27063.61
546.50	26717.22
546.67	26831.90
546.83	26551.04
547.00	26611.89
547.17	27175.96
547.34	27042.55
547.50	27379.59
547.67	27192.34
547.84	27358.52
548.00	27625.34
548.17	27578.53
548.34	26986.38
548.51	27447.46
548.67	27545.76
548.84	27402.99
549.01	27557.47
549.18	27484.91
549.34	27257.88
549.51	27124.47
549.68	27658.11
549.84	27454.48
550.01	27475.55
550.18	27330.44
550.34	27814.93
550.51	27901.53
550.68	27728.33
550.84	27101.06
551.01	27527.04
551.18	27917.91
551.34	27349.16
551.51	27796.20
551.68	27789.18
551.84	27733.01
552.01	27697.90
552.18	28011.53
552.34	27744.71
552.51	27740.03
552.68	27711.94
552.84	27983.44
553.01	28191.75
553.18	27969.40
553.34	28219.84
553.51	27917.91
553.67	28329.84
553.84	28671.56
554.01	28397.72
554.17	28077.07
554.34	28177.71
554.51	28032.60
554.67	28395.38
554.84	28175.37
555.00	28114.52
555.17	28566.24
555.33	28704.33
555.50	28294.74
555.67	28032.60
555.83	28006.85
556.00	28407.08
556.16	28222.18
556.33	28648.16
556.50	28369.63
556.66	28718.37
556.83	28641.14
556.99	28690.29
557.16	28896.25
557.32	28720.71
557.49	28854.12
557.65	28620.07
557.82	28545.17
557.98	28481.98
558.15	28402.40
558.32	28870.51
558.48	28914.98
558.65	28826.04
558.81	28741.78
558.98	28779.23
559.14	28861.15
559.31	28582.62
559.47	28659.86
559.64	28535.81
559.80	29050.73
559.97	29015.62
560.13	28978.17
560.30	28556.88
560.46	28947.75
560.63	29001.58
560.79	28943.06
560.96	29085.84
561.12	28940.72
561.29	29226.27
561.45	29254.36
561.61	29277.76
561.78	29029.66
561.94	29111.58
562.11	29266.06
562.27	28950.09
562.44	28657.52
562.60	28996.90
562.77	29032.00
562.93	28889.23
563.10	29427.56
563.26	28959.45
563.42	29876.94
563.59	29247.33
563.75	28840.08
563.92	28968.81
564.08	29172.44
564.24	29207.55
564.41	29064.77
564.57	29146.69
564.74	29785.66
564.90	29338.62
565.07	29479.05
565.23	29057.75
565.39	29001.58
565.56	29237.97
565.72	29415.85
565.88	29151.37
566.05	29289.46
566.21	29216.91
566.38	29270.74
566.54	29259.04
566.70	29481.39
566.87	29696.72
567.03	29591.39
567.19	29764.59
567.36	29315.21
567.52	29385.43
567.68	29481.39
567.85	29378.40
568.01	29619.48
568.17	29383.09
568.34	29916.73
568.50	29701.40
568.66	29443.94
568.83	29579.69
568.99	29818.42
569.15	29345.64
569.32	29598.41
569.48	29095.20
569.64	29656.93
569.81	29495.43
569.97	29582.03
570.13	29617.14
570.30	29404.15
570.46	29731.83
570.62	30295.89
570.78	29638.20
570.95	29762.25
571.11	29488.41
571.27	29202.86
571.43	29605.44
571.60	29626.50
571.76	29645.23
571.92	29811.40
572.09	30082.91
572.25	29905.02
572.41	29916.73
572.57	29750.55
572.74	29556.28
572.90	29476.71
573.06	29399.47
573.22	29598.41
573.38	29869.92
573.55	29991.62
573.71	30118.01
573.87	29521.18
574.03	29734.17
574.20	29893.32
574.36	29799.70
574.52	29914.39
574.68	29586.71
574.84	29869.92
575.01	29710.76
575.17	29806.72
575.33	29724.80
575.49	29848.85
575.65	29848.85
575.82	29834.81
575.98	30127.38
576.14	29874.60
576.30	29905.02
576.46	30178.87
576.62	29724.80
576.79	30017.37
576.95	29883.96
577.11	29809.06
577.27	29993.97
577.43	29916.73
577.59	29968.22
577.75	30251.42
577.92	29731.83
578.08	29518.84
578.24	29862.90
578.40	29663.95
578.56	30045.46
578.72	29638.20
578.88	30239.72
579.04	30202.27
579.21	30050.14
579.37	29867.58
579.53	29668.63
579.69	29736.51
579.85	29617.14
580.01	30094.61
580.17	29860.55
580.33	29989.28
580.49	30115.67
580.65	29979.92
580.82	30160.14
580.98	29865.24
581.14	30321.64
581.30	30031.41
581.46	29677.99
581.62	29736.51
581.78	30031.41
581.94	29802.04
582.10	29649.91
582.26	29935.45
582.42	30012.69
582.58	30396.54
582.74	30176.53
582.90	29935.45
583.06	30174.19
583.22	30115.67
583.38	29848.85
583.54	29766.93
583.70	29853.53
583.86	29937.79
584.02	29905.02
584.18	30464.41
584.34	30132.06
584.50	30419.94
584.66	30150.78
584.82	29715.44
584.98	29996.31
585.14	30047.80
585.30	30029.07
585.46	30153.12
585.62	29818.42
585.78	29979.92
585.94	29792.68
586.10	29900.34
586.26	30157.80
586.42	30293.55
586.58	30143.76
586.74	30260.79
586.90	30253.76
587.06	30136.74
587.22	30501.86
587.38	30155.46
587.54	30569.74
587.70	30345.05
587.86	30347.39
588.02	30501.86
588.18	30639.95
588.34	30218.66
588.49	29869.92
588.65	30096.95
588.81	29961.20
588.97	30471.43
589.13	29724.80
589.29	30192.91
589.45	30361.43
589.61	30267.81
589.77	30543.99
589.93	30377.81
590.08	30712.51
590.24	30717.19
590.40	29972.90
590.56	30738.26
590.72	30452.71
590.88	30272.49
591.04	30085.25
591.20	30639.95
591.35	30506.54
591.51	30719.53
591.67	30529.95
591.83	30668.04
591.99	30618.89
592.15	30405.90
592.31	30679.74
592.46	30347.39
592.62	30492.50
592.78	30279.51
592.94	30675.06
593.10	30319.30
593.26	30286.53
593.41	30562.72
593.57	30466.75
593.73	29993.97
593.89	31087.00
594.05	30445.69
594.20	30691.44
594.36	30469.09
594.52	30260.79
594.68	30543.99
594.84	30209.29
594.99	30443.35
595.15	30366.11
595.31	30543.99
595.47	30815.49
595.62	30803.79
595.78	30806.13
595.94	30616.55
596.10	30803.79
596.25	30492.50
596.41	30513.56
596.57	30239.72
596.73	30384.83
596.88	30473.78
597.04	30801.45
597.20	30759.32
597.36	30169.51
597.51	30944.22
597.67	30508.88
597.83	30464.41
597.99	30441.01
598.14	30391.86
598.30	30316.96
598.46	30775.70
598.61	31037.84
598.77	30171.85
598.93	30897.41
599.09	30661.02
599.24	30850.60
599.40	30859.96
599.56	30754.64
599.71	30773.36
599.87	31068.27
600.03	30614.21
600.18	30675.06
600.34	30569.74
600.50	30721.87
600.65	30562.72
600.81	30789.75
600.97	31016.78
601.12	30543.99
601.28	30871.67
601.44	30944.22
601.59	31419.35
601.75	30621.23
601.91	31185.30
602.06	30876.35
602.22	30866.98
602.37	30726.55
602.53	30515.90
602.69	31009.76
602.84	30944.22
603.00	30707.83
603.16	30890.39
603.31	30991.03
603.47	30534.63
603.62	30890.39
603.78	30672.72
603.94	30525.27
604.09	30742.94
604.25	30815.49
604.40	30953.58
604.56	30672.72
604.71	30609.53
604.87	30878.69
605.03	31061.25
605.18	30562.72
605.34	30691.44
605.49	30389.52
605.65	30651.66
605.80	30134.40
605.96	30206.95
606.12	30595.48
606.27	30972.31
606.43	30469.09
606.58	30597.82
606.74	30632.93
606.89	30656.34
607.05	30621.23
607.20	30911.46
607.36	30534.63
607.51	30675.06
607.67	30328.66
607.82	30508.88
607.98	30515.90
608.13	30593.14
608.29	30492.50
608.44	30621.23
608.60	30527.61
608.75	30529.95
608.91	30738.26
609.06	30546.33
609.22	31000.40
609.37	30347.39
609.53	30321.64
609.68	30316.96
609.84	30471.43
609.99	30417.60
610.15	29914.39
610.30	30258.45
610.46	30515.90
610.61	30340.36
610.76	30204.61
610.92	30433.99
611.07	30618.89
611.23	30298.23
611.38	30192.91
611.54	30101.63
611.69	30309.94
611.84	30068.86
612.00	30270.15
612.15	30066.52
612.31	30471.43
612.46	29844.17
612.62	30497.18
612.77	30221.00
612.92	30511.22
613.08	30382.49
613.23	30223.34
613.39	30068.86
613.54	30286.53
613.69	30110.99
613.85	30237.38
614.00	30244.40
614.15	30143.76
614.31	30059.50
614.46	30106.31
614.62	30113.33
614.77	30122.69
614.92	30370.79
615.08	30068.86
615.23	29923.75
615.38	30061.84
615.54	29900.34
615.69	29759.91
615.84	29549.26
616.00	30127.38
616.15	29682.67
616.30	30185.89
616.46	30038.44
616.61	30066.52
616.76	30068.86
616.92	30026.73
617.07	29790.34
617.22	30031.41
617.37	29546.92
617.53	29521.18
617.68	29989.28
617.83	29446.28
617.99	29738.85
618.14	29867.58
618.29	29413.51
618.45	29785.66
618.60	29780.98
618.75	29912.05
618.90	29682.67
619.06	29972.90
619.21	29425.22
619.36	29621.82
619.51	29462.66
619.67	29603.10
619.82	29331.59
619.97	29844.17
620.12	29130.31
620.28	29397.13
620.43	29731.83
620.58	29619.48
620.73	29731.83
620.89	29778.64
621.04	29757.57
621.19	29486.07
621.34	29738.85
621.49	29528.20
621.65	29284.78
621.80	29134.99
621.95	29296.49
622.10	29151.37
622.25	29420.53
622.41	29687.36
622.56	29589.05
622.71	29621.82
622.86	29160.73
623.01	29429.90
623.16	29165.42
623.32	29020.30
623.47	29481.39
623.62	29385.43
623.77	29163.08
623.92	29427.56
624.07	29099.88
624.23	29249.67
624.38	29261.38
624.53	29099.88
624.68	29366.70
624.83	29312.87
624.98	29575.01
625.13	29064.77
625.29	29085.84
625.44	28987.53
625.59	29090.52
625.74	28451.55
625.89	28741.78
626.04	28643.48
626.19	29055.41
626.34	28760.50
626.49	29057.75
626.65	28992.22
626.80	28863.49
626.95	28676.24
627.10	28662.20
627.25	28842.42
627.40	28797.95
627.55	28512.41
627.70	28297.08
627.85	28404.74
628.00	28364.95
628.15	28704.33
628.30	28767.52
628.45	28357.93
628.60	28215.16
628.76	28762.84
628.91	28706.67
629.06	28460.91
629.21	28404.74
629.36	28559.22
629.51	28364.95
629.66	28348.57
629.81	28601.35
629.96	28318.14
630.11	28634.11
630.26	28217.50
630.41	28060.68
630.56	28133.24
630.71	28217.50
630.86	28278.35
631.01	28360.27
631.16	28425.81
631.31	28236.22
631.46	28240.90
631.61	28554.54
631.76	28357.93
631.91	28142.60
632.06	27868.76
632.21	27969.40
632.36	27845.35
632.51	27899.19
632.66	28135.58
632.81	27943.66
632.96	28587.30
633.10	28039.62
633.25	28121.54
633.40	28184.73
633.55	28203.46
633.70	27901.53
633.85	27985.79
634.00	27363.20
634.15	28032.60
634.30	28048.98
634.45	27669.81
634.60	27744.71
634.75	27634.71
634.90	27630.02
635.05	28027.92
635.19	28013.87
635.34	28259.63
635.49	28051.32
635.64	28140.26
635.79	27913.23
635.94	27854.72
636.09	27763.43
636.24	27901.53
636.39	27821.95
636.53	27356.18
636.68	27391.29
636.83	27821.95
636.98	27800.88
637.13	27644.07
637.28	27880.46
637.43	27660.45
637.57	27625.34
637.72	28137.92
637.87	27372.57
638.02	27683.86
638.17	27381.93
638.32	27548.11
638.46	27433.42
638.61	27487.25
638.76	27133.83
638.91	27292.99
639.06	27489.59
639.20	27192.34
639.35	27637.05
639.50	27363.20
639.65	27417.04
639.80	27358.52
639.94	27002.76
640.09	27489.59
640.24	27548.11
640.39	27159.58
640.54	27426.40
640.68	26906.80
640.83	27161.92
640.98	27054.25
641.13	26993.40
641.27	27522.36
641.42	27374.91
641.57	27271.92
641.72	27304.69
641.86	26686.79
642.01	27215.75
642.16	26883.39
642.31	26813.18
642.45	26881.05
642.60	26892.76
642.75	26670.40
642.90	27047.23
643.04	26965.31
643.19	26565.08
643.34	26501.89
643.48	26913.82
643.63	27072.98
643.78	26864.67
643.93	26749.98
644.07	27147.87
644.22	26778.07
644.37	26668.06
644.51	26944.25
644.66	27084.68
644.81	26712.53
644.95	26813.18
645.10	26581.46
645.25	26611.89
645.39	26611.89
645.54	26394.22
645.69	26492.52
645.83	26464.44
645.98	26705.51
646.13	26754.66
646.27	26721.90
646.42	26787.43
646.57	26808.50
646.71	26700.83
646.86	26623.59
647.00	26321.66
647.15	26368.48
647.30	26244.43
647.44	26199.96
647.59	26309.96
647.74	26115.70
647.88	26553.38
648.03	26558.06
648.17	26422.31
648.32	26656.36
648.47	26366.13
648.61	26167.19
648.76	26288.90
648.90	26328.69
649.05	26300.60
649.20	25986.97
649.34	26382.52
649.49	26008.03
649.63	26356.77
649.78	26003.35
649.92	26106.34
650.07	26370.82
650.21	26010.37
650.36	26305.28
650.51	25755.26
650.65	26562.74
650.80	26590.83
650.94	25944.84
651.09	25778.66
651.23	26073.57
651.38	25921.43
651.52	25933.14
651.67	26136.76
651.81	25872.28
651.96	25788.02
652.10	25909.73
652.25	25900.37
652.39	26335.71
652.54	26291.24
652.68	25769.30
652.83	25989.31
652.97	26085.27
653.12	26022.08
653.26	25631.21
653.41	26162.51
653.55	25869.94
653.70	25755.26
653.84	25731.85
653.99	25635.89
654.13	25640.57
654.27	25624.18
654.42	25654.61
654.56	25560.99
654.71	25675.68
654.85	25692.06
655.00	25762.28
655.14	25586.74
655.29	25507.16
655.43	25666.31
655.57	25577.37
655.72	25259.06
655.86	25790.36
656.01	25539.93
656.15	25425.24
656.30	25394.81
656.44	25387.79
656.58	24989.90
656.73	25434.60
656.87	25481.41
657.01	25727.17
657.16	25642.91
657.30	25525.88
657.45	25259.06
657.59	25139.69
657.73	25289.49
657.88	25298.85
658.02	24900.96
658.16	25106.93
658.31	25001.60
658.45	25127.99
658.60	24950.11
658.74	25329.28
658.88	24985.22
659.03	24601.37
659.17	24985.22
659.31	25076.50
659.46	25050.75
659.60	24978.20
659.74	25139.69
659.89	24774.57
660.03	24655.20
660.17	24819.04
660.32	24519.45
660.46	24746.48
660.60	24634.14
660.74	24898.62
660.89	24629.46
661.03	24290.08
661.17	24320.51
661.32	24545.20
661.46	24772.23
661.60	24805.00
661.74	24580.31
661.89	25027.35
662.03	24547.54
662.17	24718.40
662.31	24615.41
662.46	24306.46
662.60	23999.85
662.74	24222.20
662.88	24367.32
663.03	24002.19
663.17	24067.73
663.31	23922.62
663.45	23983.47
663.60	24364.98
663.74	23885.17
663.88	23903.89
664.02	24067.73
664.17	24086.45
664.31	23711.97
664.45	23931.98
664.59	24018.58
664.73	23903.89
664.88	23695.58
665.02	23384.29
665.16	23707.29
665.30	23517.70
665.44	23716.65
665.59	23473.23
665.73	23623.03
665.87	23463.87
666.01	23735.37
666.15	23667.50
666.29	23482.59
666.44	23274.29
666.58	23140.88
666.72	23239.18
666.86	23342.16
667.00	23281.31
667.14	23384.29
667.28	23522.38
667.43	23424.08
667.57	23644.09
667.71	23068.32
667.85	23192.37
667.99	23152.58
668.13	23211.09
668.27	22831.93
668.41	22958.31
668.56	22679.79
668.70	23150.24
668.84	22742.99
668.98	22934.91
669.12	23054.28
669.26	22871.72
669.40	23255.56
669.54	22909.16
669.68	22567.45
669.82	22597.87
669.96	22628.30
670.10	22490.21
670.25	22726.60
670.39	22698.52
670.53	22300.62
670.67	22132.11
670.81	22452.76
670.95	22171.89
671.09	22185.94
671.23	22300.62
671.37	22340.41
671.51	22588.51
671.65	22331.05
671.79	22590.85
671.93	22328.71
672.07	22235.09
672.21	21750.60
672.35	21605.49
672.49	21715.49
672.63	21844.22
672.77	21727.19
672.91	22033.80
673.05	21818.47
673.19	21500.16
673.33	21687.40
673.47	21621.87
673.61	21806.77
673.75	21745.92
673.89	21521.23
674.03	21462.71
674.17	21516.54
674.31	21523.57
674.45	21366.75
674.59	21092.91
674.73	21317.60
674.87	21010.99
675.01	21191.21
675.15	21029.71
675.29	21095.25
675.43	21104.61
675.56	21252.06
675.70	21223.98
675.84	20872.90
675.98	20458.62
676.12	20847.15
676.26	21125.68
676.40	20900.98
676.54	20531.18
676.68	20940.77
676.82	20315.85
676.96	20262.02
677.10	20610.76
677.23	20159.03
677.37	20299.47
677.51	20629.48
677.65	19990.52
677.79	20039.67
677.93	20027.96
678.07	20142.65
678.21	19655.82
678.34	19906.26
678.48	19573.90
678.62	19674.54
678.76	19812.63
678.90	19552.84
679.04	19454.53
679.18	19531.77
679.31	19337.51
679.45	19201.76
679.59	19389.00
679.73	19150.26
679.87	18934.93
680.00	19309.42
680.14	19307.08
680.28	19183.03
680.42	18925.57
680.56	19040.26
680.70	19171.33
680.83	19084.73
680.97	18988.77
681.11	19080.05
681.25	18771.10
681.39	18738.33
681.52	19019.19
681.66	18466.83
681.80	18838.97
681.94	18579.17
682.07	18604.92
682.21	18391.93
682.35	18281.92
682.49	18214.05
682.62	18345.12
682.76	18169.58
682.90	18171.92
683.04	18125.11
683.17	18202.35
683.31	17916.80
683.45	18064.25
683.59	18015.10
683.72	17867.65
683.86	17886.37
684.00	17991.70
684.13	17493.16
684.27	17820.84
684.41	17427.63
684.55	17687.43
684.68	17371.46
684.82	17294.22
684.96	17205.28
685.09	17069.53
685.23	17256.77
685.37	17198.26
685.50	17270.81
685.64	17085.91
685.78	17280.18
685.91	17467.42
686.05	17429.97
686.19	16910.37
686.32	16868.24
686.46	16783.98
686.60	16526.52
686.73	16737.17
686.87	16477.37
687.01	16297.15
687.14	16191.83
687.28	16395.45
687.42	16358.00
687.55	16369.71
687.69	16212.89
687.82	16194.17
687.96	16325.24
688.10	16255.02
688.23	16091.18
688.37	16086.50
688.50	16250.34
688.64	15955.43
688.78	15866.49
688.91	15829.04
689.05	15672.23
689.18	15707.34
689.32	15358.60
689.46	15396.04
689.59	15634.78
689.73	15634.78
689.86	15314.13
690.00	15297.74
690.13	15571.58
690.27	15035.60
690.41	15323.49
690.54	15089.43
690.68	15136.24
690.81	15101.14
690.95	15241.57
691.08	14998.15
691.22	15199.44
691.35	14656.43
691.49	15019.22
691.62	14806.23
691.76	14750.06
691.89	14682.18
692.03	14499.62
692.16	14202.37
692.30	14349.82
692.43	14354.51
692.57	14368.55
692.70	14303.01
692.84	14200.03
692.97	14246.84
693.11	14239.82
693.24	14068.96
693.38	13907.46
693.51	14099.39
693.65	14078.32
693.78	14090.02
693.92	13813.84
694.05	13802.14
694.19	13706.18
694.32	13713.20
694.45	13664.05
694.59	13467.44
694.72	13209.98
694.86	13338.71
694.99	13240.41
695.13	13226.37
695.26	13226.37
695.39	13270.84
695.53	13193.60
695.66	13224.03
695.80	13387.86
695.93	13212.32
696.07	13128.06
696.20	13233.39
696.33	12823.80
696.47	13020.40
696.60	12903.37
696.73	12727.83
696.87	12744.22
697.00	12671.66
697.14	12507.82
697.27	12409.52
697.40	12245.68
697.54	12580.38
697.67	12219.94
697.80	12292.49
697.94	12430.59
698.07	12243.34
698.21	12217.60
698.34	12339.30
698.47	12292.49
698.61	12147.38
698.74	12294.83
698.87	11983.54
699.01	12084.19
699.14	11957.80
699.27	11817.36
699.40	11686.29
699.54	11702.68
699.67	11459.26
699.80	11541.18
699.94	11536.50
700.07	11548.20
700.20	11255.64
700.34	11328.19
700.47	11351.60
700.60	11309.47
700.73	11487.35
700.87	11147.97
701.00	11323.51
701.13	11183.08
701.26	11239.25
701.40	11323.51
701.53	11110.52
701.66	11145.63
701.79	10977.11
701.93	10923.28
702.06	10768.80
702.19	10733.70
702.32	10609.65
702.46	10518.37
702.59	10846.04
702.72	10469.22
702.85	10586.24
702.99	10525.39
703.12	10462.19
703.25	10380.28
703.38	10377.94
703.51	10406.02
703.65	10265.59
703.78	10127.50
703.91	10195.37
704.04	10370.91
704.17	10190.69
704.31	10090.05
704.44	10291.34
704.57	9809.19
704.70	9699.18
704.83	9790.46
704.96	9844.29
705.10	9820.89
705.23	9596.20
>>>>>End Processed Spectral Data<<<<<
